Stopping power dEdx from Ionisation for Al27[0.0] Z = 13 in G4_Si, process name: ionIoni
E [MeV]	dEdx [MeV/mm]
0.001	32.3385
0.00100577	32.4324
0.00101158	32.5267
0.00101742	32.6212
0.00102329	32.716
0.0010292	32.8111
0.00103514	32.9064
0.00104112	33.002
0.00104713	33.0979
0.00105317	33.1941
0.00105925	33.2905
0.00106537	33.3872
0.00107152	33.4842
0.00107771	33.5815
0.00108393	33.6791
0.00109018	33.7769
0.00109648	33.875
0.00110281	33.9734
0.00110917	34.0721
0.00111558	34.1711
0.00112202	34.2704
0.0011285	34.3699
0.00113501	34.4698
0.00114156	34.5699
0.00114815	34.6703
0.00115478	34.771
0.00116145	34.872
0.00116815	34.9732
0.0011749	35.0748
0.00118168	35.1767
0.0011885	35.2788
0.00119536	35.3813
0.00120226	35.484
0.00120921	35.5871
0.00121619	35.6904
0.00122321	35.7941
0.00123027	35.898
0.00123737	36.0022
0.00124451	36.1068
0.0012517	36.2116
0.00125893	36.3168
0.00126619	36.4222
0.0012735	36.528
0.00128086	36.634
0.00128825	36.7404
0.00129569	36.847
0.00130317	36.954
0.00131069	37.0613
0.00131826	37.1689
0.00132587	37.2768
0.00133352	37.385
0.00134122	37.4935
0.00134896	37.6024
0.00135675	37.7115
0.00136458	37.821
0.00137246	37.9308
0.00138038	38.0408
0.00138835	38.1513
0.00139637	38.262
0.00140443	38.373
0.00141254	38.4844
0.00142069	38.5961
0.00142889	38.7081
0.00143714	38.8205
0.00144544	38.9331
0.00145378	39.0461
0.00146218	39.1594
0.00147062	39.2731
0.00147911	39.387
0.00148765	39.5013
0.00149624	39.6159
0.00150487	39.7309
0.00151356	39.8462
0.0015223	39.9618
0.00153109	40.0778
0.00153993	40.194
0.00154882	40.3107
0.00155776	40.4276
0.00156675	40.5449
0.0015758	40.6625
0.00158489	40.7805
0.00159404	40.8988
0.00160325	41.0175
0.0016125	41.1365
0.00162181	41.2558
0.00163117	41.3755
0.00164059	41.4955
0.00165006	41.6159
0.00165959	41.7366
0.00166917	41.8577
0.0016788	41.9791
0.0016885	42.1008
0.00169824	42.223
0.00170805	42.3454
0.00171791	42.4683
0.00172783	42.5914
0.0017378	42.715
0.00174783	42.8388
0.00175792	42.9631
0.00176807	43.0877
0.00177828	43.2127
0.00178855	43.338
0.00179887	43.4637
0.00180926	43.5897
0.0018197	43.7161
0.00183021	43.8429
0.00184077	43.97
0.0018514	44.0975
0.00186209	44.2254
0.00187284	44.3536
0.00188365	44.4822
0.00189452	44.6112
0.00190546	44.7406
0.00191646	44.8703
0.00192752	45.0004
0.00193865	45.1309
0.00194984	45.2617
0.0019611	45.393
0.00197242	45.5246
0.00198381	45.6565
0.00199526	45.7889
0.00200678	45.9217
0.00201837	46.0548
0.00203002	46.1883
0.00204174	46.3222
0.00205353	46.4565
0.00206538	46.5912
0.0020773	46.7262
0.0020893	46.8617
0.00210136	46.9975
0.00211349	47.1337
0.00212569	47.2704
0.00213796	47.4074
0.0021503	47.5448
0.00216272	47.6826
0.0021752	47.8208
0.00218776	47.9594
0.00220039	48.0984
0.00221309	48.2378
0.00222587	48.3776
0.00223872	48.5178
0.00225165	48.6584
0.00226464	48.7995
0.00227772	48.9409
0.00229087	49.0827
0.00230409	49.225
0.00231739	49.3676
0.00233077	49.5107
0.00234423	49.6541
0.00235776	49.798
0.00237137	49.9423
0.00238506	50.087
0.00239883	50.2322
0.00241268	50.3777
0.00242661	50.5237
0.00244062	50.6701
0.00245471	50.8169
0.00246888	50.9642
0.00248313	51.1118
0.00249747	51.2599
0.00251189	51.4084
0.00252639	51.5574
0.00254097	51.7067
0.00255564	51.8566
0.0025704	52.0068
0.00258523	52.1575
0.00260016	52.3086
0.00261517	52.4601
0.00263027	52.6121
0.00264545	52.7645
0.00266073	52.9173
0.00267609	53.0706
0.00269153	53.2244
0.00270707	53.3786
0.0027227	53.5332
0.00273842	53.6882
0.00275423	53.8438
0.00277013	53.9997
0.00278612	54.1561
0.00280221	54.313
0.00281838	54.4703
0.00283465	54.6281
0.00285102	54.7863
0.00286748	54.945
0.00288403	55.1041
0.00290068	55.2637
0.00291743	55.4238
0.00293427	55.5843
0.00295121	55.7453
0.00296825	55.9067
0.00298538	56.0686
0.00300262	56.231
0.00301995	56.3939
0.00303739	56.5572
0.00305492	56.721
0.00307256	56.8852
0.0030903	57.05
0.00310814	57.2152
0.00312608	57.3808
0.00314413	57.547
0.00316228	57.7136
0.00318053	57.8808
0.0031989	58.0484
0.00321736	58.2164
0.00323594	58.385
0.00325462	58.5541
0.00327341	58.7236
0.0032923	58.8936
0.00331131	59.0641
0.00333043	59.2352
0.00334965	59.4067
0.00336899	59.5787
0.00338844	59.7512
0.003408	59.9241
0.00342768	60.0976
0.00344747	60.2716
0.00346737	60.4461
0.00348739	60.6211
0.00350752	60.7966
0.00352777	60.9726
0.00354813	61.1491
0.00356862	61.3262
0.00358922	61.5037
0.00360994	61.6817
0.00363078	61.8603
0.00365174	62.0394
0.00367282	62.2189
0.00369403	62.399
0.00371535	62.5797
0.0037368	62.7608
0.00375837	62.9425
0.00378007	63.1247
0.00380189	63.3074
0.00382384	63.4906
0.00384592	63.6744
0.00386812	63.8587
0.00389045	64.0435
0.00391291	64.2289
0.0039355	64.4148
0.00395822	64.6012
0.00398107	64.7882
0.00400405	64.9757
0.00402717	65.1638
0.00405042	65.3523
0.0040738	65.5415
0.00409732	65.7312
0.00412098	65.9214
0.00414477	66.1122
0.00416869	66.3035
0.00419276	66.4954
0.00421697	66.6878
0.00424131	66.8808
0.0042658	67.0743
0.00429042	67.2684
0.00431519	67.4631
0.0043401	67.6583
0.00436516	67.8541
0.00439036	68.0504
0.0044157	68.2474
0.0044412	68.4448
0.00446684	68.6429
0.00449262	68.8415
0.00451856	69.0407
0.00454465	69.2405
0.00457088	69.4408
0.00459727	69.6417
0.00462381	69.8432
0.0046505	70.0453
0.00467735	70.248
0.00470435	70.4512
0.00473151	70.655
0.00475883	70.8595
0.0047863	71.0645
0.00481393	71.2701
0.00484172	71.4763
0.00486968	71.6831
0.00489779	71.8904
0.00492606	72.0984
0.0049545	72.307
0.0049831	72.5162
0.00501187	72.726
0.00504081	72.9364
0.00506991	73.1474
0.00509918	73.359
0.00512861	73.5712
0.00515822	73.784
0.005188	73.9974
0.00521795	74.2115
0.00524807	74.4262
0.00527837	74.6415
0.00530884	74.8574
0.00533949	75.0739
0.00537032	75.2911
0.00540132	75.5088
0.0054325	75.7273
0.00546387	75.9463
0.00549541	76.166
0.00552713	76.3863
0.00555904	76.6072
0.00559114	76.8288
0.00562341	77.051
0.00565588	77.2739
0.00568853	77.4974
0.00572137	77.7215
0.0057544	77.9463
0.00578762	78.1717
0.00582103	78.3978
0.00585464	78.6246
0.00588844	78.8519
0.00592243	79.08
0.00595662	79.3087
0.00599101	79.5381
0.0060256	79.7681
0.00606038	79.9988
0.00609537	80.2301
0.00613056	80.4621
0.00616595	80.6948
0.00620155	80.9282
0.00623735	81.1622
0.00627336	81.3969
0.00630957	81.6323
0.006346	81.8684
0.00638263	82.1051
0.00641948	82.3425
0.00645654	82.5806
0.00649382	82.8194
0.00653131	83.0589
0.00656901	83.2991
0.00660693	83.54
0.00664508	83.7815
0.00668344	84.0238
0.00672202	84.2667
0.00676083	84.5104
0.00679986	84.7547
0.00683912	84.9998
0.0068786	85.2456
0.00691831	85.4921
0.00695825	85.7392
0.00699842	85.9871
0.00703882	86.2357
0.00707946	86.4851
0.00712033	86.7351
0.00716143	86.9859
0.00720278	87.2374
0.00724436	87.4896
0.00728618	87.7426
0.00732825	87.9962
0.00737055	88.2506
0.0074131	88.5058
0.0074559	88.7616
0.00749894	89.0182
0.00754223	89.2756
0.00758578	89.5337
0.00762957	89.7925
0.00767361	90.0521
0.00771792	90.3124
0.00776247	90.5735
0.00780728	90.8354
0.00785236	91.0979
0.00789769	91.3613
0.00794328	91.6254
0.00798914	91.8903
0.00803526	92.1559
0.00808165	92.4223
0.00812831	92.6894
0.00817523	92.9574
0.00822243	93.2261
0.0082699	93.4956
0.00831764	93.7658
0.00836566	94.0368
0.00841395	94.3087
0.00846253	94.5813
0.00851138	94.8546
0.00856052	95.1288
0.00860994	95.4038
0.00865964	95.6795
0.00870964	95.9561
0.00875992	96.2334
0.00881049	96.5116
0.00886135	96.7905
0.00891251	97.0703
0.00896396	97.3508
0.00901571	97.6322
0.00906776	97.9144
0.00912011	98.1974
0.00917276	98.4812
0.00922571	98.7658
0.00927897	99.0513
0.00933254	99.3375
0.00938642	99.6246
0.00944061	99.9125
0.00949511	100.201
0.00954993	100.491
0.00960506	100.781
0.00966051	101.073
0.00971628	101.365
0.00977237	101.658
0.00982879	101.951
0.00988553	102.246
0.0099426	102.541
0.01	102.838
0.0100577	103.135
0.0101158	103.433
0.0101742	103.732
0.0102329	104.032
0.010292	104.332
0.0103514	104.634
0.0104112	104.936
0.0104713	105.239
0.0105317	105.544
0.0105925	105.848
0.0106537	106.42
0.0107152	106.727
0.0107771	107.034
0.0108393	107.343
0.0109018	107.652
0.0109648	107.963
0.0110281	108.274
0.0110917	108.586
0.0111558	108.899
0.0112202	109.213
0.011285	109.528
0.0113501	109.843
0.0114156	110.16
0.0114815	110.477
0.0115478	110.796
0.0116145	111.115
0.0116815	111.436
0.011749	111.757
0.0118168	112.079
0.011885	112.402
0.0119536	112.726
0.0120226	113.051
0.0120921	113.377
0.0121619	113.703
0.0122321	114.031
0.0123027	114.36
0.0123737	114.69
0.0124451	115.02
0.012517	115.352
0.0125893	115.684
0.0126619	116.018
0.012735	116.352
0.0128086	116.687
0.0128825	117.024
0.0129569	117.361
0.0130317	117.699
0.0131069	118.038
0.0131826	118.379
0.0132587	118.72
0.0133352	119.062
0.0134122	119.405
0.0134896	119.749
0.0135675	120.095
0.0136458	120.441
0.0137246	120.788
0.0138038	121.136
0.0138835	121.485
0.0139637	121.835
0.0140443	122.187
0.0141254	122.539
0.0142069	122.892
0.0142889	123.246
0.0143714	123.601
0.0144544	123.958
0.0145378	124.315
0.0146218	124.673
0.0147062	125.033
0.0147911	125.393
0.0148765	125.755
0.0149624	126.117
0.0150487	126.481
0.0151356	126.845
0.015223	127.211
0.0153109	127.577
0.0153993	127.945
0.0154882	128.314
0.0155776	128.684
0.0156675	129.055
0.015758	129.427
0.0158489	129.8
0.0159404	130.174
0.0160325	130.549
0.016125	130.925
0.0162181	131.303
0.0163117	131.681
0.0164059	132.061
0.0165006	132.441
0.0165959	132.823
0.0166917	133.206
0.016788	133.59
0.016885	133.975
0.0169824	134.361
0.0170805	134.748
0.0171791	135.137
0.0172783	135.526
0.017378	135.917
0.0174783	136.309
0.0175792	136.702
0.0176807	137.096
0.0177828	137.491
0.0178855	137.887
0.0179887	138.285
0.0180926	138.683
0.018197	139.083
0.0183021	139.484
0.0184077	139.886
0.018514	140.289
0.0186209	140.693
0.0187284	141.099
0.0188365	141.506
0.0189452	141.913
0.0190546	142.323
0.0191646	142.733
0.0192752	143.144
0.0193865	143.557
0.0194984	143.971
0.019611	144.386
0.0197242	144.802
0.0198381	145.219
0.0199526	145.638
0.0200678	146.057
0.0201837	146.478
0.0203002	146.901
0.0204174	147.324
0.0205353	147.749
0.0206538	148.175
0.020773	148.602
0.020893	149.03
0.0210136	149.46
0.0211349	149.89
0.0212569	150.322
0.0213796	150.756
0.021503	151.19
0.0216272	151.626
0.021752	152.063
0.0218776	152.501
0.0220039	152.941
0.0221309	153.382
0.0222587	153.824
0.0223872	154.267
0.0225165	154.712
0.0226464	155.158
0.0227772	155.605
0.0229087	156.054
0.0230409	156.503
0.0231739	156.954
0.0233077	157.407
0.0234423	157.861
0.0235776	158.316
0.0237137	158.772
0.0238506	159.23
0.0239883	159.689
0.0241268	160.149
0.0242661	160.61
0.0244062	161.073
0.0245471	161.538
0.0246888	162.003
0.0248313	162.47
0.0249747	162.938
0.0251189	163.408
0.0252639	163.879
0.0254097	164.352
0.0255564	164.825
0.025704	165.3
0.0258523	165.777
0.0260016	166.255
0.0261517	166.734
0.0263027	167.214
0.0264545	167.696
0.0266073	168.18
0.0267609	168.664
0.0269153	169.151
0.0270707	169.638
0.027227	170.127
0.0273842	170.618
0.0275423	171.109
0.0277013	171.603
0.0278612	172.097
0.0280221	172.593
0.0281838	173.091
0.0283465	173.59
0.0285102	174.09
0.0286748	174.592
0.0288403	175.095
0.0290068	175.6
0.0291743	176.106
0.0293427	176.613
0.0295121	177.122
0.0296825	177.633
0.0298538	178.145
0.0300262	178.658
0.0301995	179.173
0.0303739	179.69
0.0305492	180.208
0.0307256	180.727
0.030903	181.248
0.0310814	181.771
0.0312608	182.295
0.0314413	182.82
0.0316228	183.347
0.0318053	183.875
0.031989	184.405
0.0321736	184.937
0.0323594	185.47
0.0325462	186.005
0.0327341	186.541
0.032923	187.078
0.0331131	187.618
0.0333043	188.158
0.0334965	188.701
0.0336899	189.245
0.0338844	189.79
0.03408	190.337
0.0342768	190.886
0.0344747	191.436
0.0346737	191.988
0.0348739	192.541
0.0350752	193.096
0.0352777	193.653
0.0354813	194.211
0.0356862	194.771
0.0358922	195.332
0.0360994	195.895
0.0363078	196.46
0.0365174	197.026
0.0367282	197.594
0.0369403	198.164
0.0371535	198.735
0.037368	199.308
0.0375837	199.882
0.0378007	200.458
0.0380189	201.036
0.0382384	201.615
0.0384592	202.197
0.0386812	202.779
0.0389045	203.364
0.0391291	203.95
0.039355	204.538
0.0395822	205.127
0.0398107	205.719
0.0400405	206.312
0.0402717	206.906
0.0405042	207.503
0.040738	208.101
0.0409732	208.701
0.0412098	209.302
0.0414477	209.905
0.0416869	210.51
0.0419276	211.117
0.0421697	211.726
0.0424131	212.336
0.042658	212.948
0.0429042	213.562
0.0431519	214.177
0.043401	214.795
0.0436516	215.414
0.0439036	216.035
0.044157	216.657
0.044412	217.282
0.0446684	217.908
0.0449262	218.536
0.0451856	219.166
0.0454465	219.798
0.0457088	220.432
0.0459727	221.067
0.0462381	221.704
0.046505	222.343
0.0467735	222.984
0.0470435	223.627
0.0473151	224.271
0.0475883	224.918
0.047863	225.566
0.0481393	226.216
0.0484172	226.868
0.0486968	227.522
0.0489779	228.178
0.0492606	228.836
0.049545	229.495
0.049831	230.157
0.0501187	230.82
0.0504081	231.485
0.0506991	232.153
0.0509918	232.822
0.0512861	233.493
0.0515822	234.166
0.05188	234.841
0.0521795	235.518
0.0524807	236.197
0.0527837	236.877
0.0530884	237.56
0.0533949	238.245
0.0537032	238.932
0.0540132	239.62
0.054325	240.311
0.0546387	241.004
0.0549541	241.698
0.0552713	242.395
0.0555904	243.094
0.0559114	243.794
0.0562341	244.497
0.0565588	245.202
0.0568853	245.909
0.0572137	246.617
0.057544	247.328
0.0578762	248.041
0.0582103	248.756
0.0585464	249.473
0.0588844	250.192
0.0592243	250.913
0.0595662	251.637
0.0599101	252.362
0.060256	253.089
0.0606038	253.819
0.0609537	254.55
0.0613056	255.284
0.0616595	256.02
0.0620155	256.758
0.0623735	257.498
0.0627336	258.24
0.0630957	258.984
0.06346	259.731
0.0638263	260.48
0.0641948	261.23
0.0645654	261.983
0.0649382	262.738
0.0653131	263.496
0.0656901	264.255
0.0660693	265.017
0.0664508	265.781
0.0668344	266.547
0.0672202	267.315
0.0676083	268.086
0.0679986	268.858
0.0683912	269.633
0.068786	270.411
0.0691831	271.19
0.0695825	271.972
0.0699842	272.756
0.0703882	273.542
0.0707946	274.33
0.0712033	275.121
0.0716143	275.914
0.0720278	276.709
0.0724436	277.507
0.0728618	278.307
0.0732825	279.109
0.0737055	279.913
0.074131	280.72
0.074559	281.529
0.0749894	282.341
0.0754223	283.155
0.0758578	283.971
0.0762957	284.789
0.0767361	285.61
0.0771792	286.433
0.0776247	287.259
0.0780728	288.087
0.0785236	288.917
0.0789769	289.75
0.0794328	290.585
0.0798914	291.423
0.0803526	292.263
0.0808165	293.105
0.0812831	293.95
0.0817523	294.797
0.0822243	295.647
0.082699	296.499
0.0831764	297.354
0.0836566	298.211
0.0841395	299.071
0.0846253	299.933
0.0851138	300.797
0.0856052	301.664
0.0860994	302.534
0.0865964	303.406
0.0870964	304.28
0.0875992	305.157
0.0881049	306.037
0.0886135	306.919
0.0891251	307.804
0.0896396	308.691
0.0901571	309.581
0.0906776	310.473
0.0912011	311.368
0.0917276	312.265
0.0922571	313.165
0.0927897	314.068
0.0933254	314.973
0.0938642	315.881
0.0944061	316.792
0.0949511	317.705
0.0954993	318.62
0.0960506	319.539
0.0966051	320.46
0.0971628	321.384
0.0977237	322.31
0.0982879	323.239
0.0988553	324.171
0.099426	325.105
0.1	326.042
0.100577	326.982
0.101158	327.924
0.101742	328.87
0.102329	329.817
0.10292	330.768
0.103514	331.722
0.104112	332.678
0.104713	333.637
0.105317	334.598
0.105925	335.563
0.106537	336.53
0.107152	337.5
0.107771	338.473
0.108393	339.448
0.109018	340.427
0.109648	341.408
0.110281	342.392
0.110917	343.379
0.111558	344.369
0.112202	345.361
0.11285	346.357
0.113501	347.355
0.114156	348.356
0.114815	349.36
0.115478	350.367
0.116145	351.377
0.116815	352.39
0.11749	353.406
0.118168	354.424
0.11885	355.446
0.119536	356.471
0.120226	357.498
0.120921	358.528
0.121619	359.562
0.122321	360.598
0.123027	361.638
0.123737	362.68
0.124451	363.725
0.12517	364.774
0.125893	365.825
0.126619	366.88
0.12735	367.937
0.128086	368.998
0.128825	370.061
0.129569	371.128
0.130317	372.198
0.131069	373.271
0.131826	374.346
0.132587	375.425
0.133352	376.508
0.134122	377.593
0.134896	378.681
0.135675	379.773
0.136458	380.867
0.137246	381.965
0.138038	383.066
0.138835	384.17
0.139637	385.278
0.140443	386.388
0.141254	387.502
0.142069	388.619
0.142889	389.739
0.143714	390.862
0.144544	391.989
0.145378	393.119
0.146218	394.252
0.147062	395.388
0.147911	396.528
0.148765	397.671
0.149624	398.817
0.150487	399.967
0.151356	401.119
0.15223	402.276
0.153109	403.435
0.153993	404.598
0.154882	405.764
0.155776	406.934
0.156675	408.107
0.15758	409.283
0.158489	410.463
0.159404	411.646
0.160325	412.832
0.16125	414.022
0.162181	415.216
0.163117	416.412
0.164059	417.613
0.165006	418.816
0.165959	420.024
0.166917	421.234
0.16788	422.448
0.16885	423.666
0.169824	424.887
0.170805	426.112
0.171791	427.34
0.172783	428.572
0.17378	429.807
0.174783	431.046
0.175792	432.288
0.176807	433.535
0.177828	434.784
0.178855	436.037
0.179887	437.294
0.180926	438.555
0.18197	439.819
0.183021	441.086
0.184077	442.358
0.18514	443.633
0.186209	444.912
0.187284	446.194
0.188365	447.48
0.189452	448.77
0.190546	450.063
0.191646	451.361
0.192752	452.662
0.193865	453.966
0.194984	455.275
0.19611	456.587
0.197242	457.903
0.198381	459.223
0.199526	460.547
0.200678	461.874
0.201837	463.205
0.203002	464.541
0.204174	465.88
0.205353	467.222
0.206538	468.569
0.20773	469.92
0.20893	471.274
0.210136	472.633
0.211349	473.995
0.212569	475.361
0.213796	476.731
0.21503	478.105
0.216272	479.484
0.21752	480.866
0.218776	482.252
0.220039	483.642
0.221309	485.036
0.222587	486.434
0.223872	487.836
0.225165	489.242
0.226464	490.652
0.227772	492.066
0.229087	493.485
0.230409	494.907
0.231739	496.334
0.233077	497.764
0.234423	499.199
0.235776	500.638
0.237137	502.081
0.238506	503.528
0.239883	504.979
0.241268	506.435
0.242661	507.895
0.244062	509.359
0.245471	510.827
0.246888	512.299
0.248313	513.776
0.249747	515.257
0.251189	516.742
0.252639	518.231
0.254097	519.725
0.255564	521.223
0.25704	522.725
0.258523	524.232
0.260016	525.743
0.261517	527.259
0.263027	528.778
0.264545	530.303
0.266073	531.831
0.267609	533.364
0.269153	534.901
0.270707	536.443
0.27227	537.989
0.273842	539.54
0.275423	541.095
0.277013	542.655
0.278612	544.219
0.280221	545.788
0.281838	547.361
0.283465	548.938
0.285102	550.521
0.286748	552.108
0.288403	553.699
0.290068	555.295
0.291743	556.895
0.293427	558.501
0.295121	560.11
0.296825	561.725
0.298538	563.344
0.300262	564.968
0.301995	566.596
0.303739	568.229
0.305492	569.867
0.307256	571.51
0.30903	573.157
0.310814	574.809
0.312608	576.466
0.314413	578.128
0.316228	579.794
0.318053	581.465
0.31989	583.141
0.321736	584.822
0.323594	586.508
0.325462	588.198
0.327341	589.894
0.32923	591.594
0.331131	593.299
0.333043	595.009
0.334965	596.724
0.336899	598.444
0.338844	600.169
0.3408	601.899
0.342768	603.634
0.344747	605.374
0.346737	607.119
0.348739	608.869
0.350752	610.624
0.352777	612.384
0.354813	614.149
0.356862	615.919
0.358922	617.694
0.360994	619.475
0.363078	621.26
0.365174	623.051
0.367282	624.847
0.369403	626.648
0.371535	628.454
0.37368	630.266
0.375837	632.082
0.378007	633.904
0.380189	635.731
0.382384	637.564
0.384592	639.402
0.386812	641.245
0.389045	643.093
0.391291	644.946
0.39355	646.805
0.395822	648.67
0.398107	650.54
0.400405	652.415
0.402717	654.295
0.405042	656.181
0.40738	658.072
0.409732	659.969
0.412098	661.871
0.414477	663.779
0.416869	665.693
0.419276	667.611
0.421697	669.536
0.424131	671.465
0.42658	673.401
0.429042	675.342
0.431519	677.288
0.43401	679.241
0.436516	681.198
0.439036	683.162
0.44157	685.131
0.44412	687.106
0.446684	689.086
0.449262	691.073
0.451856	693.065
0.454465	695.062
0.457088	697.066
0.459727	699.075
0.462381	701.09
0.46505	703.111
0.467735	705.137
0.470435	707.17
0.473151	709.208
0.475883	711.252
0.47863	713.302
0.481393	715.358
0.484172	717.42
0.486968	719.488
0.489779	721.562
0.492606	723.642
0.49545	725.728
0.49831	727.819
0.501187	729.917
0.504081	732.021
0.506991	734.131
0.509918	736.247
0.512861	738.369
0.515822	740.498
0.5188	742.632
0.521795	744.773
0.524807	746.919
0.527837	749.072
0.530884	751.231
0.533949	753.397
0.537032	755.568
0.540132	757.746
0.54325	759.93
0.546387	762.121
0.549541	764.317
0.552713	766.52
0.555904	768.73
0.559114	770.946
0.562341	773.168
0.565588	775.396
0.568853	777.631
0.572137	779.873
0.57544	782.121
0.578762	784.375
0.582103	786.636
0.585464	788.903
0.588844	791.177
0.592243	793.458
0.595662	795.745
0.599101	798.038
0.60256	800.338
0.606038	802.645
0.609537	804.959
0.613056	807.279
0.616595	809.606
0.620155	811.94
0.623735	814.28
0.627336	816.627
0.630957	818.981
0.6346	821.341
0.638263	823.709
0.641948	826.083
0.645654	828.464
0.649382	830.852
0.653131	833.247
0.656901	835.649
0.660693	838.057
0.664508	840.473
0.668344	842.895
0.672202	845.325
0.676083	847.847
0.679986	850.601
0.683912	853.37
0.68786	856.151
0.691831	858.947
0.695825	861.757
0.699842	864.58
0.703882	867.418
0.707946	870.269
0.712033	873.135
0.716143	876.015
0.720278	878.908
0.724436	881.817
0.728618	884.739
0.732825	887.676
0.737055	890.627
0.74131	893.592
0.74559	896.572
0.749894	899.566
0.754223	902.575
0.758578	905.599
0.762957	908.637
0.767361	911.69
0.771792	914.757
0.776247	917.84
0.780728	920.937
0.785236	924.049
0.789769	927.177
0.794328	930.319
0.798914	933.476
0.803526	936.648
0.808165	939.835
0.812831	942.951
0.817523	946.025
0.822243	949.114
0.82699	952.217
0.831764	955.334
0.836566	958.466
0.841395	961.613
0.846253	964.774
0.851138	967.95
0.856052	971.14
0.860994	974.346
0.865964	977.566
0.870964	980.8
0.875992	984.05
0.881049	987.315
0.886135	990.594
0.891251	993.889
0.896396	997.198
0.901571	1000.52
0.906776	1003.86
0.912011	1007.22
0.917276	1010.59
0.922571	1013.97
0.927897	1017.37
0.933254	1020.79
0.938642	1024.22
0.944061	1027.66
0.949511	1031.12
0.954993	1034.6
0.960506	1038.09
0.966051	1041.6
0.971628	1045.12
0.977237	1048.66
0.982879	1052.21
0.988553	1055.78
0.99426	1059.36
1	1062.96
1.00577	1066.58
1.01158	1070.21
1.01742	1073.86
1.02329	1077.52
1.0292	1081.19
1.03514	1084.89
1.04112	1088.6
1.04713	1092.32
1.05317	1096.06
1.05925	1099.82
1.06537	1103.59
1.07152	1107.37
1.07771	1111.18
1.08393	1114.97
1.09018	1118.77
1.09648	1122.58
1.10281	1126.4
1.10917	1130.25
1.11558	1134.11
1.12202	1137.98
1.1285	1141.87
1.13501	1145.78
1.14156	1149.7
1.14815	1153.65
1.15478	1157.6
1.16145	1161.58
1.16815	1165.57
1.1749	1169.58
1.18168	1173.61
1.1885	1177.65
1.19536	1181.72
1.20226	1185.8
1.20921	1189.9
1.21619	1194.01
1.22321	1198.15
1.23027	1202.3
1.23737	1206.48
1.24451	1210.67
1.2517	1214.88
1.25893	1219.12
1.26619	1223.37
1.2735	1227.64
1.28086	1231.93
1.28825	1236.25
1.29569	1240.58
1.30317	1244.94
1.31069	1249.31
1.31826	1253.71
1.32587	1258.13
1.33352	1262.57
1.34122	1267.03
1.34896	1271.52
1.35675	1276.03
1.36458	1280.56
1.37246	1285.11
1.38038	1289.69
1.38835	1294.29
1.39637	1298.92
1.40443	1303.56
1.41254	1308.23
1.42069	1312.92
1.42889	1317.64
1.43714	1322.37
1.44544	1327.13
1.45378	1331.92
1.46218	1336.72
1.47062	1341.55
1.47911	1346.4
1.48765	1351.27
1.49624	1356.16
1.50487	1361.08
1.51356	1366.02
1.5223	1370.98
1.53109	1375.96
1.53993	1380.97
1.54882	1386
1.55776	1391.04
1.56675	1396.11
1.5758	1401.2
1.58489	1406.32
1.59404	1411.45
1.60325	1416.6
1.6125	1421.78
1.62181	1426.97
1.63117	1432.19
1.64059	1437.43
1.65006	1442.68
1.65959	1447.96
1.66917	1453.25
1.6788	1458.57
1.6885	1463.9
1.69824	1469.26
1.70805	1474.63
1.71791	1480.02
1.72783	1485.42
1.7378	1490.85
1.74783	1496.29
1.75792	1501.75
1.76807	1507.23
1.77828	1512.72
1.78855	1518.22
1.79887	1523.75
1.80926	1529.29
1.8197	1534.84
1.83021	1540.41
1.84077	1545.99
1.8514	1551.58
1.86209	1557.19
1.87284	1562.81
1.88365	1568.44
1.89452	1574.08
1.90546	1579.73
1.91646	1585.4
1.92752	1591.07
1.93865	1596.76
1.94984	1602.45
1.9611	1608.15
1.97242	1613.87
1.98381	1619.59
1.99526	1625.32
2.00678	1631.06
2.01837	1636.8
2.03002	1642.55
2.04174	1648.31
2.05353	1654.08
2.06538	1659.85
2.0773	1665.63
2.0893	1671.41
2.10136	1677.19
2.11349	1682.99
2.12569	1688.78
2.13796	1694.58
2.1503	1700.38
2.16272	1706.18
2.1752	1711.99
2.18776	1717.79
2.20039	1723.6
2.21309	1729.41
2.22587	1735.22
2.23872	1741.03
2.25165	1746.84
2.26464	1752.65
2.27772	1758.46
2.29087	1764.27
2.30409	1770.08
2.31739	1775.88
2.33077	1781.69
2.34423	1787.49
2.35776	1793.29
2.37137	1799.09
2.38506	1804.88
2.39883	1810.67
2.41268	1816.46
2.42661	1822.24
2.44062	1828.02
2.45471	1833.8
2.46888	1839.57
2.48313	1845.34
2.49747	1851.1
2.51189	1856.85
2.52639	1862.6
2.54097	1868.35
2.55564	1874.09
2.5704	1879.82
2.58523	1885.55
2.60016	1891.27
2.61517	1896.99
2.63027	1902.7
2.64545	1908.4
2.66073	1914.1
2.67609	1919.79
2.69153	1925.47
2.70707	1931.15
2.7227	1936.83
2.73842	1942.5
2.75423	1948.16
2.77013	1953.82
2.78612	1959.47
2.80221	1965.11
2.81838	1970.74
2.83465	1976.37
2.85102	1981.98
2.86748	1987.59
2.88403	1993.19
2.90068	1998.77
2.91743	2004.35
2.93427	2009.92
2.95121	2015.48
2.96825	2021.03
2.98538	2026.57
3.00262	2032.1
3.01995	2037.62
3.03739	2043.13
3.05492	2048.63
3.07256	2054.11
3.0903	2059.59
3.10814	2065.05
3.12608	2070.51
3.14413	2075.95
3.16228	2081.38
3.18053	2086.79
3.1989	2092.2
3.21736	2097.59
3.23594	2102.97
3.25462	2108.34
3.27341	2113.7
3.2923	2119.04
3.31131	2124.38
3.33043	2129.69
3.34965	2135
3.36899	2140.29
3.38844	2145.57
3.408	2150.84
3.42768	2156.1
3.44747	2161.34
3.46737	2166.57
3.48739	2171.78
3.50752	2176.98
3.52777	2182.17
3.54813	2187.35
3.56862	2192.52
3.58922	2197.67
3.60994	2202.8
3.63078	2207.93
3.65174	2213.04
3.67282	2218.14
3.69403	2223.23
3.71535	2228.31
3.7368	2233.37
3.75837	2238.43
3.78007	2243.47
3.80189	2248.49
3.82384	2253.51
3.84592	2258.52
3.86812	2263.52
3.89045	2268.5
3.91291	2273.48
3.9355	2278.44
3.95822	2283.4
3.98107	2288.34
4.00405	2293.28
4.02717	2298.21
4.05042	2303.13
4.0738	2307.95
4.09732	2312.76
4.12098	2317.56
4.14477	2322.36
4.16869	2327.14
4.19276	2331.91
4.21697	2336.68
4.24131	2341.43
4.2658	2346.18
4.29042	2350.92
4.31519	2355.64
4.3401	2360.35
4.36516	2365.06
4.39036	2369.75
4.4157	2374.43
4.4412	2379.1
4.46684	2383.76
4.49262	2388.41
4.51856	2393.04
4.54465	2397.66
4.57088	2402.27
4.59727	2406.87
4.62381	2411.45
4.6505	2416.02
4.67735	2420.58
4.70435	2425.12
4.73151	2429.65
4.75883	2434.17
4.7863	2438.67
4.81393	2443.16
4.84172	2447.63
4.86968	2452.09
4.89779	2456.53
4.92606	2460.96
4.9545	2465.38
4.9831	2469.78
5.01187	2474.16
5.04081	2478.53
5.06991	2482.88
5.09918	2487.22
5.12861	2491.54
5.15822	2495.85
5.188	2500.14
5.21795	2504.41
5.24807	2508.67
5.27837	2512.91
5.30884	2517.14
5.33949	2521.35
5.37032	2525.54
5.40132	2529.72
5.4325	2533.9
5.46387	2538.07
5.49541	2542.22
5.52713	2546.35
5.55904	2550.47
5.59114	2554.57
5.62341	2558.65
5.65588	2562.72
5.68853	2566.77
5.72137	2570.8
5.7544	2574.81
5.78762	2578.81
5.82103	2582.79
5.85464	2586.76
5.88844	2590.7
5.92243	2594.63
5.95662	2598.55
5.99101	2602.44
6.0256	2606.32
6.06038	2610.18
6.09537	2614.03
6.13056	2617.86
6.16595	2621.67
6.20155	2625.46
6.23735	2629.24
6.27336	2633
6.30957	2636.75
6.346	2640.48
6.38263	2644.19
6.41948	2647.89
6.45654	2651.57
6.49382	2655.24
6.53131	2658.89
6.56901	2662.53
6.60693	2666.15
6.64508	2669.76
6.68344	2673.36
6.72202	2676.94
6.76083	2680.51
6.79986	2684.06
6.83912	2687.61
6.8786	2691.14
6.91831	2694.66
6.95825	2698.16
6.99842	2701.65
7.03882	2705.13
7.07946	2708.6
7.12033	2712.05
7.16143	2715.48
7.20278	2718.9
7.24436	2722.31
7.28618	2725.71
7.32825	2729.08
7.37055	2732.45
7.4131	2735.8
7.4559	2739.14
7.49894	2742.46
7.54223	2745.76
7.58578	2749.06
7.62957	2752.33
7.67361	2755.6
7.71792	2758.85
7.76247	2762.08
7.80728	2765.3
7.85236	2768.5
7.89769	2771.69
7.94328	2774.86
7.98914	2778.02
8.03526	2781.17
8.08165	2784.3
8.12831	2787.42
8.17523	2790.53
8.22243	2793.62
8.2699	2796.7
8.31764	2799.76
8.36566	2802.81
8.41395	2805.84
8.46253	2808.86
8.51138	2811.86
8.56052	2814.85
8.60994	2817.82
8.65964	2820.77
8.70964	2823.71
8.75992	2826.63
8.81049	2829.53
8.86135	2832.42
8.91251	2835.29
8.96396	2838.14
9.01571	2840.98
9.06776	2843.8
9.12011	2846.6
9.17276	2849.38
9.22571	2852.15
9.27897	2854.9
9.33254	2857.63
9.38642	2860.34
9.44061	2863.04
9.49511	2865.71
9.54993	2868.37
9.60506	2871.02
9.66051	2873.64
9.71628	2876.25
9.77237	2878.83
9.82879	2881.4
9.88553	2883.95
9.9426	2886.49
10	2889
10.0577	2891.5
10.1158	2893.98
10.1742	2896.44
10.2329	2898.88
10.292	2901.31
10.3514	2903.72
10.4112	2906.11
10.4713	2908.48
10.5317	2910.84
10.5925	2913.18
10.6537	2915.5
10.7152	2917.8
10.7771	2920.09
10.8393	2922.35
10.9018	2924.58
10.9648	2926.79
11.0281	2928.99
11.0917	2931.17
11.1558	2933.33
11.2202	2935.48
11.285	2937.6
11.3501	2939.71
11.4156	2941.8
11.4815	2943.87
11.5478	2945.92
11.6145	2947.95
11.6815	2949.96
11.749	2951.95
11.8168	2953.93
11.885	2955.88
11.9536	2957.81
12.0226	2959.72
12.0921	2961.61
12.1619	2963.48
12.2321	2965.32
12.3027	2967.15
12.3737	2968.95
12.4451	2970.73
12.517	2972.49
12.5893	2974.23
12.6619	2975.94
12.735	2977.63
12.8086	2979.3
12.8825	2980.94
12.9569	2982.56
13.0317	2984.16
13.1069	2985.73
13.1826	2987.28
13.2587	2988.81
13.3352	2990.31
13.4122	2991.78
13.4896	2993.23
13.5675	2994.66
13.6458	2996.07
13.7246	2997.45
13.8038	2998.81
13.8835	3000.14
13.9637	3001.44
14.0443	3002.72
14.1254	3003.98
14.2069	3005.2
14.2889	3006.4
14.3714	3007.57
14.4544	3008.72
14.5378	3009.84
14.6218	3010.93
14.7062	3012
14.7911	3013.03
14.8765	3014.04
14.9624	3015.03
15.0487	3015.98
15.1356	3016.91
15.223	3017.81
15.3109	3018.68
15.3993	3019.52
15.4882	3020.34
15.5776	3021.13
15.6675	3021.88
15.758	3022.61
15.8489	3023.32
15.9404	3023.99
16.0325	3024.64
16.125	3025.25
16.2181	3025.84
16.3117	3026.4
16.4059	3026.94
16.5006	3027.44
16.5959	3027.92
16.6917	3028.36
16.788	3028.78
16.885	3029.17
16.9824	3029.53
17.0805	3029.86
17.1791	3030.16
17.2783	3030.43
17.378	3030.67
17.4783	3030.89
17.5792	3031.07
17.6807	3031.22
17.7828	3031.34
17.8855	3031.43
17.9887	3031.5
18.0926	3031.53
18.197	3031.53
18.3021	3031.5
18.4077	3031.44
18.514	3031.35
18.6209	3031.23
18.7284	3031.08
18.8365	3030.91
18.9452	3030.7
19.0546	3030.46
19.1646	3030.19
19.2752	3029.89
19.3865	3029.56
19.4984	3029.2
19.611	3028.81
19.7242	3028.39
19.8381	3027.94
19.9526	3027.46
20.0678	3026.95
20.1837	3026.4
20.3002	3025.83
20.4174	3025.23
20.5353	3024.6
20.6538	3023.93
20.773	3023.24
20.893	3022.51
21.0136	3021.76
21.1349	3020.98
21.2569	3020.16
21.3796	3019.32
21.503	3018.44
21.6272	3017.54
21.752	3016.61
21.8776	3015.65
22.0039	3014.66
22.1309	3013.63
22.2587	3012.58
22.3872	3011.5
22.5165	3010.39
22.6464	3009.25
22.7772	3008.08
22.9087	3006.89
23.0409	3005.66
23.1739	3004.4
23.3077	3003.11
23.4423	3001.79
23.5776	3000.45
23.7137	2999.07
23.8506	2997.67
23.9883	2996.23
24.1268	2994.77
24.2661	2993.28
24.4062	2991.76
24.5471	2990.21
24.6888	2988.63
24.8313	2987.02
24.9747	2985.39
25.1189	2983.73
25.2639	2982.04
25.4097	2980.32
25.5564	2978.57
25.704	2976.8
25.8523	2975
26.0016	2973.18
26.1517	2971.33
26.3027	2969.45
26.4545	2967.55
26.6073	2965.62
26.7609	2963.66
26.9153	2961.69
27.0707	2959.69
27.227	2957.67
27.3842	2955.62
27.5423	2953.55
27.7013	2951.46
27.8612	2949.34
28.0221	2947.2
28.1838	2945.03
28.3465	2942.84
28.5102	2940.63
28.6748	2938.39
28.8403	2936.12
29.0068	2933.83
29.1743	2931.52
29.3427	2929.18
29.5121	2926.81
29.6825	2924.43
29.8538	2922.01
30.0262	2919.57
30.1995	2917.11
30.3739	2914.62
30.5492	2912.11
30.7256	2909.57
30.903	2907.01
31.0814	2904.42
31.2608	2901.8
31.4413	2899.16
31.6228	2896.5
31.8053	2893.81
31.989	2891.1
32.1736	2888.36
32.3594	2885.59
32.5462	2882.8
32.7341	2879.99
32.923	2877.15
33.1131	2874.29
33.3043	2871.4
33.4965	2868.49
33.6899	2865.55
33.8844	2862.59
34.08	2859.61
34.2768	2856.6
34.4747	2853.57
34.6737	2850.51
34.8739	2847.43
35.0752	2844.33
35.2777	2841.2
35.4813	2838.06
35.6862	2834.88
35.8922	2831.69
36.0994	2828.47
36.3078	2825.23
36.5174	2821.97
36.7282	2818.69
36.9403	2815.39
37.1535	2812.07
37.368	2808.72
37.5837	2805.36
37.8007	2801.97
38.0189	2798.57
38.2384	2795.15
38.4592	2791.7
38.6812	2788.24
38.9045	2784.77
39.1291	2781.27
39.355	2777.76
39.5822	2774.23
39.8107	2770.69
40.0405	2767.12
40.2717	2763.55
40.5042	2759.96
40.738	2756.33
40.9732	2752.69
41.2098	2749.04
41.4477	2745.37
41.6869	2741.69
41.9276	2738
42.1697	2734.29
42.4131	2730.56
42.658	2726.83
42.9042	2723.08
43.1519	2719.31
43.401	2715.53
43.6516	2711.74
43.9036	2707.93
44.157	2704.11
44.412	2700.28
44.6684	2696.43
44.9262	2692.57
45.1856	2688.7
45.4465	2684.81
45.7088	2680.91
45.9727	2676.99
46.2381	2673.06
46.505	2669.12
46.7735	2665.17
47.0435	2661.2
47.3151	2657.21
47.5883	2653.22
47.863	2649.21
48.1393	2645.18
48.4172	2641.15
48.6968	2637.1
48.9779	2633.04
49.2606	2628.96
49.545	2624.87
49.831	2620.77
50.1187	2616.65
50.4081	2612.53
50.6991	2608.38
50.9918	2604.23
51.2861	2600.07
51.5822	2595.89
51.88	2591.69
52.1795	2587.49
52.4807	2583.27
52.7837	2579.04
53.0884	2574.8
53.3949	2570.55
53.7032	2566.28
54.0132	2562
54.325	2557.71
54.6387	2553.4
54.9541	2549.08
55.2713	2544.75
55.5904	2540.41
55.9114	2536.06
56.2341	2531.69
56.5588	2527.32
56.8853	2522.93
57.2137	2518.53
57.544	2514.12
57.8762	2509.69
58.2103	2505.26
58.5464	2500.82
58.8844	2496.36
59.2243	2491.9
59.5662	2487.42
59.9101	2482.93
60.256	2478.43
60.6038	2473.93
60.9537	2469.41
61.3056	2464.88
61.6595	2460.34
62.0155	2455.79
62.3735	2451.24
62.7336	2446.67
63.0957	2442.09
63.46	2437.51
63.8263	2432.91
64.1948	2428.31
64.5654	2423.69
64.9382	2419.07
65.3131	2414.44
65.6901	2409.8
66.0693	2405.15
66.4508	2400.5
66.8344	2395.83
67.2202	2391.16
67.6083	2386.48
67.9986	2381.79
68.3912	2377.1
68.786	2372.4
69.1831	2367.69
69.5825	2362.97
69.9842	2358.25
70.3882	2353.52
70.7946	2348.78
71.2033	2344.03
71.6143	2339.28
72.0278	2334.52
72.4436	2329.76
72.8618	2324.99
73.2825	2320.21
73.7055	2315.43
74.131	2310.63
74.559	2305.84
74.9894	2301.03
75.4223	2296.23
75.8578	2291.41
76.2957	2286.59
76.7361	2281.76
77.1792	2276.93
77.6247	2272.09
78.0728	2267.24
78.5236	2262.39
78.9769	2257.54
79.4328	2252.68
79.8914	2247.81
80.3526	2242.94
80.8165	2238.06
81.2831	2233.18
81.7523	2228.29
82.2243	2223.39
82.699	2218.49
83.1764	2213.58
83.6566	2208.67
84.1395	2203.76
84.6253	2198.84
85.1138	2193.91
85.6052	2188.99
86.0994	2184.05
86.5964	2179.12
87.0964	2174.17
87.5992	2169.23
88.1049	2164.28
88.6135	2159.33
89.1251	2154.37
89.6396	2149.41
90.1571	2144.44
90.6776	2139.48
91.2011	2134.51
91.7276	2129.53
92.2571	2124.55
92.7897	2119.57
93.3254	2114.59
93.8642	2109.6
94.4061	2104.61
94.9511	2099.62
95.4993	2094.62
96.0506	2089.62
96.6051	2084.62
97.1628	2079.62
97.7237	2074.61
98.2879	2069.6
98.8553	2064.59
99.426	2059.57
100	2054.56
100.577	2049.54
101.158	2044.52
101.742	2039.49
102.329	2034.46
102.92	2029.44
103.514	2024.4
104.112	2019.37
104.713	2014.33
105.317	2009.29
105.925	2004.25
106.537	1999.21
107.152	1994.16
107.771	1989.12
108.393	1984.08
109.018	1979.04
109.648	1974
110.281	1968.96
110.917	1963.92
111.558	1958.88
112.202	1953.83
112.85	1948.78
113.501	1943.74
114.156	1938.69
114.815	1933.64
115.478	1928.59
116.145	1923.53
116.815	1918.48
117.49	1913.43
118.168	1908.37
118.85	1903.32
119.536	1898.27
120.226	1893.21
120.921	1888.16
121.619	1883.11
122.321	1878.05
123.027	1873
123.737	1867.95
124.451	1862.9
125.17	1857.85
125.893	1852.8
126.619	1847.75
127.35	1842.7
128.086	1837.65
128.825	1832.61
129.569	1827.56
130.317	1822.52
131.069	1817.48
131.826	1812.44
132.587	1807.41
133.352	1802.37
134.122	1797.34
134.896	1792.31
135.675	1787.27
136.458	1782.24
137.246	1777.21
138.038	1772.18
138.835	1767.16
139.637	1762.13
140.443	1757.11
141.254	1752.1
142.069	1747.08
142.889	1742.07
143.714	1737.06
144.544	1732.05
145.378	1727.05
146.218	1722.05
147.062	1717.05
147.911	1712.06
148.765	1707.07
149.624	1702.08
150.487	1697.1
151.356	1692.12
152.23	1687.14
153.109	1682.17
153.993	1677.2
154.882	1672.24
155.776	1667.27
156.675	1662.32
157.58	1657.36
158.489	1652.41
159.404	1647.46
160.325	1642.51
161.25	1637.57
162.181	1632.63
163.117	1627.7
164.059	1622.77
165.006	1617.84
165.959	1612.91
166.917	1607.99
167.88	1603.07
168.85	1598.16
169.824	1593.25
170.805	1588.34
171.791	1583.44
172.783	1578.54
173.78	1573.65
174.783	1568.76
175.792	1563.88
176.807	1559
177.828	1554.13
178.855	1549.26
179.887	1544.39
180.926	1539.53
181.97	1534.68
183.021	1529.83
184.077	1524.99
185.14	1520.15
186.209	1515.32
187.284	1510.49
188.365	1505.67
189.452	1500.85
190.546	1496.04
191.646	1491.23
192.752	1486.43
193.865	1481.63
194.984	1476.84
196.11	1472.06
197.242	1467.28
198.381	1462.51
199.526	1457.74
200.678	1452.98
201.837	1448.23
203.002	1443.48
204.174	1438.74
205.353	1434.01
206.538	1429.28
207.73	1424.56
208.93	1419.85
210.136	1415.14
211.349	1410.44
212.569	1405.74
213.796	1401.05
215.03	1396.37
216.272	1391.7
217.52	1387.03
218.776	1382.36
220.039	1377.71
221.309	1373.06
222.587	1368.42
223.872	1363.79
225.165	1359.16
226.464	1354.54
227.772	1349.93
229.087	1345.32
230.409	1340.72
231.739	1336.14
233.077	1331.55
234.423	1326.98
235.776	1322.41
237.137	1317.85
238.506	1313.3
239.883	1308.76
241.268	1304.23
242.661	1299.7
244.062	1295.18
245.471	1290.67
246.888	1286.16
248.313	1281.67
249.747	1277.18
251.189	1272.7
252.639	1268.23
254.097	1263.77
255.564	1259.32
257.04	1254.87
258.523	1250.43
260.016	1246
261.517	1241.58
263.027	1237.16
264.545	1232.75
266.073	1228.35
267.609	1223.96
269.153	1219.57
270.707	1215.19
272.27	1210.82
273.842	1206.45
275.423	1202.09
277.013	1197.73
278.612	1193.38
280.221	1189.05
281.838	1184.72
283.465	1180.4
285.102	1176.08
286.748	1171.78
288.403	1167.48
290.068	1163.2
291.743	1158.92
293.427	1154.65
295.121	1150.4
296.825	1146.15
298.538	1141.91
300.262	1137.68
301.995	1133.46
303.739	1129.26
305.492	1125.06
307.256	1120.87
309.03	1116.69
310.814	1112.53
312.608	1108.37
314.413	1104.23
316.228	1100.09
318.053	1095.97
319.89	1091.86
321.736	1087.76
323.594	1083.67
325.462	1079.59
327.341	1075.53
329.23	1071.47
331.131	1067.43
333.043	1063.4
334.965	1059.37
336.899	1055.37
338.844	1051.37
340.8	1047.38
342.768	1043.41
344.747	1039.44
346.737	1035.49
348.739	1031.55
350.752	1027.62
352.777	1023.7
354.813	1019.79
356.862	1015.9
358.922	1012.01
360.994	1008.14
363.078	1004.28
365.174	1000.42
367.282	996.581
369.403	992.749
371.535	988.927
373.68	985.115
375.837	981.313
378.007	977.521
380.189	973.737
382.384	969.963
384.592	966.197
386.812	962.44
389.045	958.691
391.291	954.95
393.55	951.217
395.822	947.491
398.107	943.771
400.405	940.058
402.717	936.351
405.042	932.65
407.38	929.031
409.732	925.417
412.098	921.809
414.477	918.207
416.869	914.611
419.276	911.021
421.697	907.438
424.131	903.862
426.58	900.293
429.042	896.73
431.519	893.175
434.01	889.627
436.516	886.087
439.036	882.554
441.57	879.029
444.12	875.513
446.684	872.004
449.262	868.504
451.856	865.012
454.465	861.529
457.088	858.054
459.727	854.589
462.381	851.132
465.05	847.685
467.735	844.247
470.435	840.818
473.151	837.4
475.883	833.99
478.63	830.591
481.393	827.202
484.172	823.823
486.968	820.454
489.779	817.096
492.606	813.748
495.45	810.41
498.31	807.083
501.187	803.768
504.081	800.463
506.991	797.168
509.918	793.885
512.861	790.614
515.822	787.353
518.8	784.104
521.795	780.866
524.807	777.639
527.837	774.424
530.884	771.221
533.949	768.029
537.032	764.849
540.132	761.68
543.25	758.507
546.387	755.346
549.541	752.197
552.713	749.059
555.904	745.934
559.114	742.82
562.341	739.718
565.588	736.629
568.853	733.551
572.137	730.486
575.44	727.432
578.762	724.391
582.103	721.362
585.464	718.345
588.844	715.341
592.243	712.348
595.662	709.368
599.101	706.4
602.56	703.444
606.038	700.499
609.537	697.567
613.056	694.647
616.595	691.739
620.155	688.842
623.735	685.957
627.336	683.084
630.957	680.222
634.6	677.371
638.263	674.532
641.948	671.703
645.654	668.886
649.382	666.079
653.131	663.282
656.901	660.496
660.693	657.719
664.508	654.953
668.344	652.196
672.202	649.448
676.083	646.709
679.986	643.978
683.912	641.256
687.86	638.543
691.831	635.84
695.825	633.145
699.842	630.459
703.882	627.783
707.946	625.115
712.033	622.458
716.143	619.809
720.278	617.171
724.436	614.541
728.618	611.922
732.825	609.312
737.055	606.711
741.31	604.12
745.59	601.539
749.894	598.968
754.223	596.406
758.578	593.854
762.957	591.312
767.361	588.779
771.792	586.256
776.247	583.743
780.728	581.239
785.236	578.745
789.769	576.26
794.328	573.785
798.914	571.319
803.526	568.863
808.165	566.416
812.831	563.975
817.523	561.541
822.243	559.117
826.99	556.701
831.764	554.296
836.566	551.899
841.395	549.513
846.253	547.136
851.138	544.768
856.052	542.41
860.994	540.062
865.964	537.724
870.964	535.396
875.992	533.078
881.049	530.77
886.135	528.471
891.251	526.183
896.396	523.905
901.571	521.637
906.776	519.379
912.011	517.132
917.276	514.894
922.571	512.666
927.897	510.449
933.254	508.242
938.642	506.044
944.061	503.857
949.511	501.68
954.993	499.513
960.506	497.355
966.051	495.208
971.628	493.07
977.237	490.942
982.879	488.823
988.553	486.714
994.26	484.615
1000	482.524
1005.77	480.443
1011.58	478.371
1017.42	476.307
1023.29	474.252
1029.2	472.206
1035.14	470.168
1041.12	468.139
1047.13	466.117
1053.17	464.103
1059.25	462.096
1065.37	460.097
1071.52	458.105
1077.71	456.119
1083.93	454.15
1090.18	452.194
1096.48	450.244
1102.81	448.3
1109.17	446.363
1115.58	444.434
1122.02	442.511
1128.5	440.595
1135.01	438.685
1141.56	436.784
1148.15	434.889
1154.78	433.001
1161.45	431.121
1168.15	429.248
1174.9	427.383
1181.68	425.525
1188.5	423.674
1195.36	421.832
1202.26	419.996
1209.21	418.169
1216.19	416.349
1223.21	414.537
1230.27	412.732
1237.37	410.936
1244.51	409.147
1251.7	407.366
1258.93	405.593
1266.19	403.828
1273.5	402.071
1280.86	400.321
1288.25	398.58
1295.69	396.846
1303.17	395.12
1310.69	393.402
1318.26	391.692
1325.87	389.99
1333.52	388.295
1341.22	386.608
1348.96	384.929
1356.75	383.254
1364.58	381.586
1372.46	379.926
1380.38	378.273
1388.35	376.628
1396.37	374.991
1404.43	373.362
1412.54	371.74
1420.69	370.126
1428.89	368.519
1437.14	366.921
1445.44	365.33
1453.78	363.746
1462.18	362.171
1470.62	360.603
1479.11	359.043
1487.65	357.49
1496.24	355.944
1504.87	354.407
1513.56	352.876
1522.3	351.353
1531.09	349.837
1539.93	348.329
1548.82	346.828
1557.76	345.333
1566.75	343.846
1575.8	342.365
1584.89	340.891
1594.04	339.424
1603.25	337.963
1612.5	336.509
1621.81	335.061
1631.17	333.618
1640.59	332.182
1650.06	330.752
1659.59	329.328
1669.17	327.911
1678.8	326.499
1688.5	325.094
1698.24	323.695
1708.05	322.302
1717.91	320.916
1727.83	319.536
1737.8	318.162
1747.83	316.795
1757.92	315.434
1768.07	314.079
1778.28	312.731
1788.55	311.389
1798.87	310.053
1809.26	308.723
1819.7	307.4
1830.21	306.083
1840.77	304.772
1851.4	303.467
1862.09	302.168
1872.84	300.876
1883.65	299.589
1894.52	298.308
1905.46	297.033
1916.46	295.764
1927.52	294.501
1938.65	293.243
1949.84	291.992
1961.1	290.747
1972.42	289.507
1983.81	288.273
1995.26	287.046
2006.78	285.824
2018.37	284.608
2030.02	283.398
2041.74	282.193
2053.53	280.995
2065.38	279.802
2077.3	278.615
2089.3	277.433
2101.36	276.257
2113.49	275.087
2125.69	273.923
2137.96	272.763
2150.3	271.609
2162.72	270.461
2175.2	269.317
2187.76	268.179
2200.39	267.046
2213.09	265.919
2225.87	264.797
2238.72	263.68
2251.65	262.568
2264.64	261.462
2277.72	260.361
2290.87	259.265
2304.09	258.175
2317.39	257.09
2330.77	256.01
2344.23	254.936
2357.76	253.867
2371.37	252.803
2385.06	251.745
2398.83	250.691
2412.68	249.643
2426.61	248.6
2440.62	247.562
2454.71	246.529
2468.88	245.501
2483.13	244.478
2497.47	243.459
2511.89	242.446
2526.39	241.438
2540.97	240.434
2555.64	239.436
2570.4	238.441
2585.23	237.452
2600.16	236.467
2615.17	235.487
2630.27	234.511
2645.45	233.539
2660.73	232.571
2676.09	231.608
2691.53	230.649
2707.07	229.692
2722.7	228.738
2738.42	227.789
2754.23	226.843
2770.13	225.901
2786.12	224.963
2802.21	224.029
2818.38	223.099
2834.65	222.174
2851.02	221.253
2867.48	220.336
2884.03	219.423
2900.68	218.515
2917.43	217.611
2934.27	216.711
2951.21	215.816
2968.25	214.925
2985.38	214.039
3002.62	213.158
3019.95	212.281
3037.39	211.408
3054.92	210.54
3072.56	209.677
3090.3	208.819
3108.14	207.965
3126.08	207.116
3144.13	206.271
3162.28	205.432
3180.53	204.597
3198.9	203.767
3217.36	202.941
3235.94	202.121
3254.62	201.305
3273.41	200.494
3292.3	199.687
3311.31	198.886
3330.43	198.089
3349.65	197.297
3368.99	196.509
3388.44	195.727
3408	194.949
3427.68	194.175
3447.47	193.406
3467.37	192.642
3487.39	191.882
3507.52	191.127
3527.77	190.376
3548.13	189.63
3568.62	188.888
3589.22	188.15
3609.94	187.417
3630.78	186.687
3651.74	185.962
3672.82	185.241
3694.03	184.523
3715.35	183.81
3736.8	183.1
3758.37	182.394
3780.07	181.691
3801.89	180.992
3823.84	180.296
3845.92	179.604
3868.12	178.89
3890.45	178.148
3912.91	177.409
3935.5	176.673
3958.22	175.94
3981.07	175.21
4004.05	174.483
4027.17	173.758
4050.42	173.036
4073.8	172.337
4097.32	171.64
4120.98	170.946
4144.77	170.254
4168.69	169.564
4192.76	168.877
4216.97	168.192
4241.31	167.51
4265.8	166.83
4290.42	166.153
4315.19	165.478
4340.1	164.806
4365.16	164.136
4390.36	163.47
4415.7	162.805
4441.2	162.144
4466.84	161.485
4492.62	160.829
4518.56	160.176
4544.65	159.526
4570.88	158.879
4597.27	158.234
4623.81	157.593
4650.5	156.954
4677.35	156.319
4704.35	155.686
4731.51	155.056
4758.83	154.43
4786.3	153.806
4813.93	153.186
4841.72	152.569
4869.68	151.955
4897.79	151.344
4926.06	150.736
4954.5	150.132
4983.1	149.53
5011.87	148.932
5040.81	148.338
5069.91	147.746
5099.18	147.158
5128.61	146.573
5158.22	145.992
5188	145.414
5217.95	144.839
5248.07	144.267
5278.37	143.699
5308.84	143.135
5339.49	142.573
5370.32	142.015
5401.32	141.461
5432.5	140.906
5463.87	140.355
5495.41	139.808
5527.13	139.263
5559.04	138.722
5591.14	138.185
5623.41	137.651
5655.88	137.12
5688.53	136.593
5721.37	136.069
5754.4	135.549
5787.62	135.031
5821.03	134.518
5854.64	134.007
5888.44	133.5
5922.43	132.996
5956.62	132.496
5991.01	131.998
6025.6	131.504
6060.38	131.013
6095.37	130.526
6130.56	130.041
6165.95	129.56
6201.55	129.082
6237.35	128.607
6273.36	128.134
6309.57	127.665
6346	127.199
6382.63	126.735
6419.48	126.275
6456.54	125.817
6493.82	125.362
6531.31	124.909
6569.01	124.459
6606.93	124.012
6645.08	123.567
6683.44	123.124
6722.02	122.683
6760.83	122.245
6799.86	121.808
6839.12	121.374
6878.6	120.942
6918.31	120.512
6958.25	120.084
6998.42	119.658
7038.82	119.235
7079.46	118.813
7120.33	118.394
7161.43	117.977
7202.78	117.562
7244.36	117.149
7286.18	116.739
7328.25	116.331
7370.55	115.925
7413.1	115.521
7455.9	115.119
7498.94	114.72
7542.23	114.323
7585.78	113.928
7629.57	113.535
7673.61	113.144
7717.92	112.756
7762.47	112.37
7807.28	111.985
7852.36	111.603
7897.69	111.224
7943.28	110.846
7989.14	110.47
8035.26	110.097
8081.65	109.725
8128.31	109.355
8175.23	108.987
8222.43	108.621
8269.9	108.257
8317.64	107.895
8365.66	107.535
8413.95	107.177
8462.53	106.821
8511.38	106.468
8560.52	106.116
8609.94	105.767
8659.64	105.419
8709.64	105.074
8759.92	104.731
8810.49	104.39
8861.35	104.051
8912.51	103.715
8963.96	103.38
9015.71	103.048
9067.76	102.718
9120.11	102.39
9172.76	102.064
9225.71	101.74
9278.97	101.418
9332.54	101.098
9386.42	100.781
9440.61	100.465
9495.11	100.152
9549.93	99.8407
9605.06	99.5314
9660.51	99.2242
9716.28	98.919
9772.37	98.6157
9828.79	98.3144
9885.53	98.0151
9942.6	97.7177
10000	97.4222
10057.7	97.1285
10115.8	96.8366
10174.2	96.5466
10232.9	96.2583
10292	95.9717
10351.4	95.6869
10411.2	95.4036
10471.3	95.122
10531.7	94.8419
10592.5	94.5633
10653.7	94.2862
10715.2	94.0104
10777.1	93.736
10839.3	93.4646
10901.8	93.1954
10964.8	92.9276
11028.1	92.661
11091.7	92.3958
11155.8	92.1319
11220.2	91.8693
11285	91.6081
11350.1	91.3482
11415.6	91.0897
11481.5	90.8326
11547.8	90.5768
11614.5	90.3225
11681.5	90.0696
11749	89.818
11816.8	89.5679
11885	89.3193
11953.6	89.072
12022.6	88.8262
12092.1	88.5819
12161.9	88.3389
12232.1	88.0975
12302.7	87.8575
12373.7	87.6189
12445.1	87.3818
12517	87.1462
12589.3	86.912
12661.9	86.6793
12735	86.448
12808.6	86.2183
12882.5	85.9899
12956.9	85.763
13031.7	85.5376
13106.9	85.3136
13182.6	85.0911
13258.7	84.87
13335.2	84.6503
13412.2	84.432
13489.6	84.2152
13567.5	83.9992
13645.8	83.7846
13724.6	83.5713
13803.8	83.3595
13883.5	83.149
13963.7	82.94
14044.3	82.7323
14125.4	82.5261
14206.9	82.3212
14288.9	82.1177
14371.4	81.9157
14454.4	81.715
14537.8	81.5157
14621.8	81.3178
14706.2	81.1212
14791.1	80.926
14876.5	80.7322
14962.4	80.5397
15048.7	80.3485
15135.6	80.1587
15223	79.9702
15310.9	79.7829
15399.3	79.597
15488.2	79.4123
15577.6	79.2289
15667.5	79.0467
15758	78.8657
15848.9	78.6859
15940.4	78.5073
16032.5	78.3298
16125	78.1534
16218.1	77.9781
16311.7	77.8039
16405.9	77.6307
16500.6	77.4586
16595.9	77.2876
16691.7	77.1177
16788	76.9489
16885	76.7811
16982.4	76.6145
17080.5	76.4489
17179.1	76.2844
17278.3	76.1211
17378	75.9588
17478.3	75.7976
17579.2	75.6375
17680.7	75.4785
17782.8	75.3205
17885.5	75.1637
17988.7	75.0079
18092.6	74.8532
18197	74.6996
18302.1	74.547
18407.7	74.3955
18514	74.245
18620.9	74.0955
18728.4	73.9471
18836.5	73.7997
18945.2	73.6533
19054.6	73.5079
19164.6	73.3634
19275.2	73.22
19386.5	73.0776
19498.4	72.9362
19611	72.7958
19724.2	72.6564
19838.1	72.5179
19952.6	72.3805
20067.8	72.244
20183.7	72.1086
20300.2	71.9741
20417.4	71.8406
20535.3	71.7081
20653.8	71.5766
20773	71.446
20893	71.3163
21013.6	71.1876
21134.9	71.0599
21256.9	70.9331
21379.6	70.8072
21503	70.6822
21627.2	70.558
21752	70.4348
21877.6	70.3125
22003.9	70.191
22130.9	70.0704
22258.7	69.9507
22387.2	69.8319
22516.5	69.714
22646.4	69.5969
22777.2	69.4807
22908.7	69.3653
23040.9	69.2508
23173.9	69.1372
23307.7	69.0244
23442.3	68.9124
23577.6	68.8013
23713.7	68.691
23850.6	68.5815
23988.3	68.4728
24126.8	68.3649
24266.1	68.2578
24406.2	68.1515
24547.1	68.0459
24688.8	67.9411
24831.3	67.837
24974.7	67.7336
25118.9	67.6309
25263.9	67.5289
25409.7	67.4276
25556.4	67.3269
25704	67.2268
25852.3	67.1273
26001.6	67.0284
26151.7	66.9301
26302.7	66.8323
26454.5	66.735
26607.3	66.6382
26760.9	66.5418
26915.3	66.4459
27070.7	66.3487
27227	66.2504
27384.2	66.1529
27542.3	66.0561
27701.3	65.96
27861.2	65.8646
28022.1	65.7701
28183.8	65.6762
28346.5	65.583
28510.2	65.4906
28674.8	65.3989
28840.3	65.3079
29006.8	65.2177
29174.3	65.1281
29342.7	65.0392
29512.1	64.9511
29682.5	64.8636
29853.8	64.7768
30026.2	64.6908
30199.5	64.6053
30373.9	64.5206
30549.2	64.4366
30725.6	64.3532
30903	64.2705
31081.4	64.1884
31260.8	64.1071
31441.3	64.0263
31622.8	63.9463
31805.3	63.8669
31989	63.7881
32173.6	63.71
32359.4	63.6325
32546.2	63.5556
32734.1	63.4794
32923	63.4038
33113.1	63.3288
33304.3	63.2545
33496.5	63.1807
33689.9	63.1076
33884.4	63.0351
34080	62.9632
34276.8	62.8919
34474.7	62.8212
34673.7	62.7511
34873.9	62.6816
35075.2	62.6127
35277.7	62.5444
35481.3	62.4767
35686.2	62.4095
35892.2	62.3429
36099.4	62.2769
36307.8	62.2115
36517.4	62.1466
36728.2	62.0823
36940.3	62.0185
37153.5	61.9553
37368	61.8927
37583.7	61.8306
37800.7	61.7691
38018.9	61.7081
38238.4	61.6476
38459.2	61.5877
38681.2	61.5283
38904.5	61.4695
39129.1	61.4111
39355	61.3533
39582.2	61.2961
39810.7	61.2393
40040.5	61.1831
40271.7	61.1273
40504.2	61.0721
40738	61.0174
40973.2	60.9632
41209.8	60.9095
41447.7	60.8563
41686.9	60.8036
41927.6	60.7514
42169.7	60.6996
42413.1	60.6484
42658	60.5976
42904.2	60.5474
43151.9	60.4976
43401	60.4482
43651.6	60.3994
43903.6	60.351
44157	60.3031
44412	60.2556
44668.4	60.2086
44926.2	60.1621
45185.6	60.116
45446.5	60.0704
45708.8	60.0252
45972.7	59.9804
46238.1	59.9361
46505	59.8923
46773.5	59.8489
47043.5	59.8059
47315.1	59.7633
47588.3	59.7212
47863	59.6795
48139.3	59.6383
48417.2	59.5974
48696.8	59.557
48977.9	59.517
49260.6	59.4774
49545	59.4382
49831	59.3995
50118.7	59.3611
50408.1	59.3231
50699.1	59.2856
50991.8	59.2484
51286.1	59.2117
51582.2	59.1753
51880	59.1393
52179.5	59.1037
52480.7	59.0685
52783.7	59.0337
53088.4	58.9992
53394.9	58.9652
53703.2	58.9315
54013.2	58.8982
54325	58.8652
54638.7	58.8327
54954.1	58.8005
55271.3	58.7686
55590.4	58.7371
55911.4	58.706
56234.1	58.6753
56558.8	58.6449
56885.3	58.6148
57213.7	58.5851
57544	58.5557
57876.2	58.5267
58210.3	58.4981
58546.4	58.4697
58884.4	58.4417
59224.3	58.4141
59566.2	58.3868
59910.1	58.3598
60256	58.3331
60603.8	58.3068
60953.7	58.2808
61305.6	58.2551
61659.5	58.2297
62015.5	58.2047
62373.5	58.1799
62733.6	58.1555
63095.7	58.1314
63460	58.1076
63826.3	58.0841
64194.8	58.061
64565.4	58.0381
64938.2	58.0155
65313.1	57.9932
65690.1	57.9712
66069.3	57.9495
66450.8	57.9281
66834.4	57.907
67220.2	57.8862
67608.3	57.8657
67998.6	57.8455
68391.2	57.8255
68786	57.8058
69183.1	57.7864
69582.5	57.7673
69984.2	57.7484
70388.2	57.7298
70794.6	57.7115
71203.3	57.6935
71614.3	57.6757
72027.8	57.6582
72443.6	57.641
72861.8	57.624
73282.5	57.6072
73705.5	57.5908
74131	57.5745
74559	57.5586
74989.4	57.5429
75422.3	57.5274
75857.8	57.5122
76295.7	57.4972
76736.1	57.4825
77179.2	57.468
77624.7	57.4538
78072.8	57.4398
78523.6	57.426
78976.9	57.4124
79432.8	57.3991
79891.4	57.3861
80352.6	57.3732
80816.5	57.3606
81283.1	57.3482
81752.3	57.3361
82224.3	57.3241
82699	57.3124
83176.4	57.3009
83656.6	57.2896
84139.5	57.2785
84625.3	57.2677
85113.8	57.257
85605.2	57.2466
86099.4	57.2364
86596.4	57.2263
87096.4	57.2165
87599.2	57.2069
88104.9	57.1975
88613.5	57.1883
89125.1	57.1793
89639.6	57.1705
90157.1	57.1618
90677.6	57.1534
91201.1	57.1452
91727.6	57.1371
92257.1	57.1293
92789.7	57.1216
93325.4	57.1142
93864.2	57.1069
94406.1	57.0997
94951.1	57.0928
95499.3	57.0861
96050.6	57.0795
96605.1	57.0731
97162.8	57.0669
97723.7	57.0608
98287.9	57.055
98855.3	57.0493
99426	57.0437
100000	57.0384
100577	57.0332
101158	57.0281
101742	57.0233
102329	57.0186
102920	57.014
103514	57.0096
104112	57.0054
104713	57.0013
105317	56.9974
105925	56.9937
106537	56.99
107152	56.9866
107771	56.9833
108393	56.9801
109018	56.9771
109648	56.9742
110281	56.9715
110917	56.9689
111558	56.9665
112202	56.9642
112850	56.962
113501	56.96
114156	56.9581
114815	56.9564
115478	56.9548
116145	56.9533
116815	56.9519
117490	56.9507
118168	56.9496
118850	56.9486
119536	56.9478
120226	56.9471
120921	56.9465
121619	56.946
122321	56.9457
123027	56.9455
123737	56.9454
124451	56.9454
125170	56.9455
125893	56.9458
126619	56.9461
127350	56.9466
128086	56.9472
128825	56.9479
129569	56.9487
130317	56.9496
131069	56.9507
131826	56.9518
132587	56.953
133352	56.9544
134122	56.9558
134896	56.9574
135675	56.959
136458	56.9608
137246	56.9626
138038	56.9646
138835	56.9666
139637	56.9688
140443	56.971
141254	56.9733
142069	56.9758
142889	56.9783
143714	56.9809
144544	56.9836
145378	56.9864
146218	56.9893
147062	56.9922
147911	56.9953
148765	56.9984
149624	57.0016
150487	57.0049
151356	57.0083
152230	57.0118
153109	57.0154
153993	57.019
154882	57.0227
155776	57.0265
156675	57.0303
157580	57.0343
158489	57.0383
159404	57.0424
160325	57.0465
161250	57.0508
162181	57.0551
163117	57.0594
164059	57.0639
165006	57.0684
165959	57.073
166917	57.0776
167880	57.0824
168850	57.0871
169824	57.092
170805	57.0969
171791	57.1019
172783	57.1069
173780	57.112
174783	57.1172
175792	57.1224
176807	57.1277
177828	57.133
178855	57.1384
179887	57.1438
180926	57.1494
181970	57.1549
183021	57.1605
184077	57.1662
185140	57.1719
186209	57.1777
187284	57.1835
188365	57.1894
189452	57.1954
190546	57.2013
191646	57.2074
192752	57.2134
193865	57.2196
194984	57.2257
196110	57.232
197242	57.2382
198381	57.2445
199526	57.2509
200678	57.2573
201837	57.2637
203002	57.2702
204174	57.2767
205353	57.2833
206538	57.2899
207730	57.2965
208930	57.3032
210136	57.3099
211349	57.3167
212569	57.3235
213796	57.3303
215030	57.3372
216272	57.3441
217520	57.351
218776	57.358
220039	57.365
221309	57.372
222587	57.3791
223872	57.3862
225165	57.3933
226464	57.4005
227772	57.4077
229087	57.4149
230409	57.4222
231739	57.4295
233077	57.4368
234423	57.4441
235776	57.4515
237137	57.4588
238506	57.4663
239883	57.4737
241268	57.4812
242661	57.4887
244062	57.4962
245471	57.5037
246888	57.5113
248313	57.5188
249747	57.5264
251189	57.5341
252639	57.5417
254097	57.5494
255564	57.5571
257040	57.5648
258523	57.5725
260016	57.5802
261517	57.588
263027	57.5958
264545	57.6036
266073	57.6114
267609	57.6192
269153	57.627
270707	57.6349
272270	57.6428
273842	57.6507
275423	57.6586
277013	57.6665
278612	57.6744
280221	57.6824
281838	57.6903
283465	57.6983
285102	57.7063
286748	57.7142
288403	57.7222
290068	57.7302
291743	57.7383
293427	57.7463
295121	57.7543
296825	57.7624
298538	57.7704
300262	57.7785
301995	57.7866
303739	57.7947
305492	57.8027
307256	57.8108
309030	57.8189
310814	57.827
312608	57.8352
314413	57.8433
316228	57.8514
318053	57.8595
319890	57.8677
321736	57.8758
323594	57.8839
325462	57.8921
327341	57.9002
329230	57.9084
331131	57.9165
333043	57.9247
334965	57.9328
336899	57.941
338844	57.9491
340800	57.9573
342768	57.9655
344747	57.9736
346737	57.9818
348739	57.9899
350752	57.9981
352777	58.0063
354813	58.0144
356862	58.0226
358922	58.0307
360994	58.0389
363078	58.047
365174	58.0552
367282	58.0633
369403	58.0715
371535	58.0796
373680	58.0877
375837	58.0959
378007	58.104
380189	58.1121
382384	58.1202
384592	58.1284
386812	58.1365
389045	58.1446
391291	58.1527
393550	58.1608
395822	58.1688
398107	58.1769
400405	58.185
402717	58.1931
405042	58.2011
407380	58.2092
409732	58.2172
412098	58.2253
414477	58.2333
416869	58.2413
419276	58.2494
421697	58.2574
424131	58.2654
426580	58.2734
429042	58.2813
431519	58.2893
434010	58.2973
436516	58.3052
439036	58.3132
441570	58.3211
444120	58.3291
446684	58.337
449262	58.3449
451856	58.3528
454465	58.3607
457088	58.3685
459727	58.3764
462381	58.3843
465050	58.3921
467735	58.3999
470435	58.4078
473151	58.4156
475883	58.4234
478630	58.4311
481393	58.4389
484172	58.4467
486968	58.4544
489779	58.4622
492606	58.4699
495450	58.4776
498310	58.4853
501187	58.493
504081	58.5006
506991	58.5083
509918	58.5159
512861	58.5236
515822	58.5312
518800	58.5388
521795	58.5464
524807	58.5539
527837	58.5615
530884	58.569
533949	58.5766
537032	58.5841
540132	58.5916
543250	58.5991
546387	58.6065
549541	58.614
552713	58.6214
555904	58.6288
559114	58.6362
562341	58.6436
565588	58.651
568853	58.6584
572137	58.6657
575440	58.673
578762	58.6804
582103	58.6877
585464	58.6949
588844	58.7022
592243	58.7094
595662	58.7167
599101	58.7239
602560	58.7311
606038	58.7383
609537	58.7454
613056	58.7526
616595	58.7597
620155	58.7668
623735	58.7739
627336	58.781
630957	58.788
634600	58.7951
638263	58.8021
641948	58.8091
645654	58.8161
649382	58.8231
653131	58.83
656901	58.837
660693	58.8439
664508	58.8508
668344	58.8577
672202	58.8645
676083	58.8714
679986	58.8782
683912	58.885
687860	58.8918
691831	58.8985
695825	58.9053
699842	58.912
703882	58.9187
707946	58.9254
712033	58.9321
716143	58.9388
720278	58.9454
724436	58.952
728618	58.9586
732825	58.9652
737055	58.9718
741310	58.9783
745590	58.9848
749894	58.9914
754223	58.9978
758578	59.0043
762957	59.0108
767361	59.0172
771792	59.0236
776247	59.03
780728	59.0363
785236	59.0427
789769	59.049
794328	59.0553
798914	59.0616
803526	59.0679
808165	59.0741
812831	59.0804
817523	59.0866
822243	59.0928
826990	59.099
831764	59.1051
836566	59.1112
841395	59.1174
846253	59.1234
851138	59.1295
856052	59.1356
860994	59.1416
865964	59.1476
870964	59.1536
875992	59.1596
881049	59.1655
886135	59.1715
891251	59.1774
896396	59.1833
901571	59.1891
906776	59.195
912011	59.2008
917276	59.2066
922571	59.2124
927897	59.2182
933254	59.2239
938642	59.2297
944061	59.2354
949511	59.2411
954993	59.2467
960506	59.2524
966051	59.258
971628	59.2636
977237	59.2692
982879	59.2748
988553	59.2803
994260	59.2859
1e+06	59.2914
1.00577e+06	59.2968
1.01158e+06	59.3023
1.01742e+06	59.3078
1.02329e+06	59.3132
1.0292e+06	59.3186
1.03514e+06	59.324
1.04112e+06	59.3293
1.04713e+06	59.3347
1.05317e+06	59.34
1.05925e+06	59.3453
1.06537e+06	59.3506
1.07152e+06	59.3559
1.07771e+06	59.3611
1.08393e+06	59.3663
1.09018e+06	59.3715
1.09648e+06	59.3767
1.10281e+06	59.3819
1.10917e+06	59.387
1.11558e+06	59.3921
1.12202e+06	59.3972
1.1285e+06	59.4023
1.13501e+06	59.4074
1.14156e+06	59.4124
1.14815e+06	59.4174
1.15478e+06	59.4224
1.16145e+06	59.4274
1.16815e+06	59.4324
1.1749e+06	59.4373
1.18168e+06	59.4422
1.1885e+06	59.4471
1.19536e+06	59.452
1.20226e+06	59.4568
1.20921e+06	59.4617
1.21619e+06	59.4665
1.22321e+06	59.4713
1.23027e+06	59.4761
1.23737e+06	59.4808
1.24451e+06	59.4856
1.2517e+06	59.4903
1.25893e+06	59.495
1.26619e+06	59.4997
1.2735e+06	59.5043
1.28086e+06	59.5089
1.28825e+06	59.5136
1.29569e+06	59.5182
1.30317e+06	59.5227
1.31069e+06	59.5273
1.31826e+06	59.5318
1.32587e+06	59.5364
1.33352e+06	59.5408
1.34122e+06	59.5453
1.34896e+06	59.5498
1.35675e+06	59.5542
1.36458e+06	59.5586
1.37246e+06	59.563
1.38038e+06	59.5674
1.38835e+06	59.5718
1.39637e+06	59.5761
1.40443e+06	59.5804
1.41254e+06	59.5847
1.42069e+06	59.589
1.42889e+06	59.5933
1.43714e+06	59.5975
1.44544e+06	59.6018
1.45378e+06	59.606
1.46218e+06	59.6101
1.47062e+06	59.6143
1.47911e+06	59.6184
1.48765e+06	59.6226
1.49624e+06	59.6267
1.50487e+06	59.6308
1.51356e+06	59.6348
1.5223e+06	59.6389
1.53109e+06	59.6429
1.53993e+06	59.6469
1.54882e+06	59.6509
1.55776e+06	59.6549
1.56675e+06	59.6588
1.5758e+06	59.6628
1.58489e+06	59.6667
1.59404e+06	59.6706
1.60325e+06	59.6745
1.6125e+06	59.6783
1.62181e+06	59.6822
1.63117e+06	59.686
1.64059e+06	59.6898
1.65006e+06	59.6936
1.65959e+06	59.6973
1.66917e+06	59.7011
1.6788e+06	59.7048
1.6885e+06	59.7085
1.69824e+06	59.7122
1.70805e+06	59.7159
1.71791e+06	59.7195
1.72783e+06	59.7232
1.7378e+06	59.7268
1.74783e+06	59.7304
1.75792e+06	59.734
1.76807e+06	59.7375
1.77828e+06	59.7411
1.78855e+06	59.7446
1.79887e+06	59.7481
1.80926e+06	59.7516
1.8197e+06	59.755
1.83021e+06	59.7585
1.84077e+06	59.7619
1.8514e+06	59.7654
1.86209e+06	59.7687
1.87284e+06	59.7721
1.88365e+06	59.7755
1.89452e+06	59.7788
1.90546e+06	59.7822
1.91646e+06	59.7855
1.92752e+06	59.7888
1.93865e+06	59.792
1.94984e+06	59.7953
1.9611e+06	59.7985
1.97242e+06	59.8017
1.98381e+06	59.8049
1.99526e+06	59.8081
2.00678e+06	59.8113
2.01837e+06	59.8144
2.03002e+06	59.8176
2.04174e+06	59.8207
2.05353e+06	59.8238
2.06538e+06	59.8269
2.0773e+06	59.8299
2.0893e+06	59.833
2.10136e+06	59.836
2.11349e+06	59.839
2.12569e+06	59.842
2.13796e+06	59.845
2.1503e+06	59.8479
2.16272e+06	59.8509
2.1752e+06	59.8538
2.18776e+06	59.8567
2.20039e+06	59.8596
2.21309e+06	59.8625
2.22587e+06	59.8654
2.23872e+06	59.8682
2.25165e+06	59.871
2.26464e+06	59.8738
2.27772e+06	59.8766
2.29087e+06	59.8794
2.30409e+06	59.8822
2.31739e+06	59.8849
2.33077e+06	59.8876
2.34423e+06	59.8903
2.35776e+06	59.893
2.37137e+06	59.8957
2.38506e+06	59.8984
2.39883e+06	59.901
2.41268e+06	59.9037
2.42661e+06	59.9063
2.44062e+06	59.9089
2.45471e+06	59.9114
2.46888e+06	59.914
2.48313e+06	59.9166
2.49747e+06	59.9191
2.51189e+06	59.9216
2.52639e+06	59.9241
2.54097e+06	59.9266
2.55564e+06	59.9291
2.5704e+06	59.9315
2.58523e+06	59.934
2.60016e+06	59.9364
2.61517e+06	59.9388
2.63027e+06	59.9412
2.64545e+06	59.9436
2.66073e+06	59.9459
2.67609e+06	59.9483
2.69153e+06	59.9506
2.70707e+06	59.9529
2.7227e+06	59.9553
2.73842e+06	59.9575
2.75423e+06	59.9598
2.77013e+06	59.9621
2.78612e+06	59.9643
2.80221e+06	59.9665
2.81838e+06	59.9688
2.83465e+06	59.971
2.85102e+06	59.9731
2.86748e+06	59.9753
2.88403e+06	59.9775
2.90068e+06	59.9796
2.91743e+06	59.9817
2.93427e+06	59.9838
2.95121e+06	59.9859
2.96825e+06	59.988
2.98538e+06	59.9901
3.00262e+06	59.9921
3.01995e+06	59.9942
3.03739e+06	59.9962
3.05492e+06	59.9982
3.07256e+06	60.0002
3.0903e+06	60.0022
3.10814e+06	60.0042
3.12608e+06	60.0061
3.14413e+06	60.0081
3.16228e+06	60.01
3.18053e+06	60.0119
3.1989e+06	60.0138
3.21736e+06	60.0157
3.23594e+06	60.0176
3.25462e+06	60.0194
3.27341e+06	60.0213
3.2923e+06	60.0231
3.31131e+06	60.0249
3.33043e+06	60.0267
3.34965e+06	60.0285
3.36899e+06	60.0303
3.38844e+06	60.0321
3.408e+06	60.0338
3.42768e+06	60.0355
3.44747e+06	60.0373
3.46737e+06	60.039
3.48739e+06	60.0407
3.50752e+06	60.0424
3.52777e+06	60.044
3.54813e+06	60.0457
3.56862e+06	60.0474
3.58922e+06	60.049
3.60994e+06	60.0506
3.63078e+06	60.0522
3.65174e+06	60.0538
3.67282e+06	60.0554
3.69403e+06	60.057
3.71535e+06	60.0585
3.7368e+06	60.0601
3.75837e+06	60.0616
3.78007e+06	60.0632
3.80189e+06	60.0647
3.82384e+06	60.0662
3.84592e+06	60.0676
3.86812e+06	60.0691
3.89045e+06	60.0706
3.91291e+06	60.072
3.9355e+06	60.0735
3.95822e+06	60.0749
3.98107e+06	60.0763
4.00405e+06	60.0777
4.02717e+06	60.0791
4.05042e+06	60.0805
4.0738e+06	60.0819
4.09732e+06	60.0832
4.12098e+06	60.0846
4.14477e+06	60.0859
4.16869e+06	60.0872
4.19276e+06	60.0885
4.21697e+06	60.0898
4.24131e+06	60.0911
4.2658e+06	60.0924
4.29042e+06	60.0937
4.31519e+06	60.0949
4.3401e+06	60.0962
4.36516e+06	60.0974
4.39036e+06	60.0986
4.4157e+06	60.0998
4.4412e+06	60.101
4.46684e+06	60.1022
4.49262e+06	60.1034
4.51856e+06	60.1046
4.54465e+06	60.1057
4.57088e+06	60.1069
4.59727e+06	60.108
4.62381e+06	60.1092
4.6505e+06	60.1103
4.67735e+06	60.1114
4.70435e+06	60.1125
4.73151e+06	60.1136
4.75883e+06	60.1146
4.7863e+06	60.1157
4.81393e+06	60.1167
4.84172e+06	60.1178
4.86968e+06	60.1188
4.89779e+06	60.1199
4.92606e+06	60.1209
4.9545e+06	60.1219
4.9831e+06	60.1229
5.01187e+06	60.1239
5.04081e+06	60.1248
5.06991e+06	60.1258
5.09918e+06	60.1268
5.12861e+06	60.1277
5.15822e+06	60.1286
5.188e+06	60.1296
5.21795e+06	60.1305
5.24807e+06	60.1314
5.27837e+06	60.1323
5.30884e+06	60.1332
5.33949e+06	60.1341
5.37032e+06	60.1349
5.40132e+06	60.1358
5.4325e+06	60.1367
5.46387e+06	60.1375
5.49541e+06	60.1383
5.52713e+06	60.1392
5.55904e+06	60.14
5.59114e+06	60.1408
5.62341e+06	60.1416
5.65588e+06	60.1424
5.68853e+06	60.1432
5.72137e+06	60.1439
5.7544e+06	60.1447
5.78762e+06	60.1455
5.82103e+06	60.1462
5.85464e+06	60.147
5.88844e+06	60.1477
5.92243e+06	60.1484
5.95662e+06	60.1491
5.99101e+06	60.1498
6.0256e+06	60.1505
6.06038e+06	60.1512
6.09537e+06	60.1519
6.13056e+06	60.1526
6.16595e+06	60.1533
6.20155e+06	60.1539
6.23735e+06	60.1546
6.27336e+06	60.1552
6.30957e+06	60.1559
6.346e+06	60.1565
6.38263e+06	60.1571
6.41948e+06	60.1577
6.45654e+06	60.1583
6.49382e+06	60.1589
6.53131e+06	60.1595
6.56901e+06	60.1601
6.60693e+06	60.1607
6.64508e+06	60.1613
6.68344e+06	60.1618
6.72202e+06	60.1624
6.76083e+06	60.1629
6.79986e+06	60.1635
6.83912e+06	60.164
6.8786e+06	60.1645
6.91831e+06	60.165
6.95825e+06	60.1656
6.99842e+06	60.1661
7.03882e+06	60.1666
7.07946e+06	60.1671
7.12033e+06	60.1675
7.16143e+06	60.168
7.20278e+06	60.1685
7.24436e+06	60.169
7.28618e+06	60.1694
7.32825e+06	60.1699
7.37055e+06	60.1703
7.4131e+06	60.1708
7.4559e+06	60.1712
7.49894e+06	60.1716
7.54223e+06	60.172
7.58578e+06	60.1725
7.62957e+06	60.1729
7.67361e+06	60.1733
7.71792e+06	60.1737
7.76247e+06	60.1741
7.80728e+06	60.1744
7.85236e+06	60.1748
7.89769e+06	60.1752
7.94328e+06	60.1756
7.98914e+06	60.1759
8.03526e+06	60.1763
8.08165e+06	60.1766
8.12831e+06	60.177
8.17523e+06	60.1773
8.22243e+06	60.1777
8.2699e+06	60.178
8.31764e+06	60.1783
8.36566e+06	60.1786
8.41395e+06	60.1789
8.46253e+06	60.1793
8.51138e+06	60.1796
8.56052e+06	60.1799
8.60994e+06	60.1801
8.65964e+06	60.1804
8.70964e+06	60.1807
8.75992e+06	60.181
8.81049e+06	60.1813
8.86135e+06	60.1815
8.91251e+06	60.1818
8.96396e+06	60.1821
9.01571e+06	60.1823
9.06776e+06	60.1826
9.12011e+06	60.1828
9.17276e+06	60.183
9.22571e+06	60.1833
9.27897e+06	60.1835
9.33254e+06	60.1837
9.38642e+06	60.184
9.44061e+06	60.1842
9.49511e+06	60.1844
9.54993e+06	60.1846
9.60506e+06	60.1848
9.66051e+06	60.185
9.71628e+06	60.1852
9.77237e+06	60.1854
9.82879e+06	60.1856
9.88553e+06	60.1858
9.9426e+06	60.1859
1e+07	60.1861
