Stopping power dEdx from Ionisation for Al27[0.0] Z = 13 in G4_TISSUE_SOFT_ICRP, process name: ionIoni
E [MeV]	dEdx [MeV/mm]
0.001	55.7639
0.00100577	55.9247
0.00101158	56.0859
0.00101742	56.2475
0.00102329	56.4096
0.0010292	56.5722
0.00103514	56.7353
0.00104112	56.8988
0.00104713	57.0628
0.00105317	57.2273
0.00105925	57.3923
0.00106537	57.5577
0.00107152	57.7236
0.00107771	57.89
0.00108393	58.0568
0.00109018	58.2242
0.00109648	58.392
0.00110281	58.5603
0.00110917	58.7291
0.00111558	58.8984
0.00112202	59.0682
0.0011285	59.2384
0.00113501	59.4092
0.00114156	59.5804
0.00114815	59.7521
0.00115478	59.9244
0.00116145	60.0971
0.00116815	60.2703
0.0011749	60.444
0.00118168	60.6183
0.0011885	60.793
0.00119536	60.9682
0.00120226	61.1439
0.00120921	61.3202
0.00121619	61.4969
0.00122321	61.6742
0.00123027	61.852
0.00123737	62.0302
0.00124451	62.209
0.0012517	62.3883
0.00125893	62.5682
0.00126619	62.7485
0.0012735	62.9294
0.00128086	63.1108
0.00128825	63.2927
0.00129569	63.4751
0.00130317	63.6581
0.00131069	63.8415
0.00131826	64.0256
0.00132587	64.2101
0.00133352	64.3952
0.00134122	64.5808
0.00134896	64.7669
0.00135675	64.9536
0.00136458	65.1408
0.00137246	65.3286
0.00138038	65.5169
0.00138835	65.7058
0.00139637	65.8951
0.00140443	66.0851
0.00141254	66.2756
0.00142069	66.4666
0.00142889	66.6582
0.00143714	66.8503
0.00144544	67.043
0.00145378	67.2362
0.00146218	67.43
0.00147062	67.6244
0.00147911	67.8193
0.00148765	68.0148
0.00149624	68.2108
0.00150487	68.4075
0.00151356	68.6046
0.0015223	68.8024
0.00153109	69.0007
0.00153993	69.1996
0.00154882	69.399
0.00155776	69.5991
0.00156675	69.7997
0.0015758	70.0009
0.00158489	70.2026
0.00159404	70.405
0.00160325	70.6079
0.0016125	70.8114
0.00162181	71.0155
0.00163117	71.2202
0.00164059	71.4255
0.00165006	71.6314
0.00165959	71.8379
0.00166917	72.0449
0.0016788	72.2526
0.0016885	72.4608
0.00169824	72.6697
0.00170805	72.8792
0.00171791	73.0892
0.00172783	73.2999
0.0017378	73.5112
0.00174783	73.7231
0.00175792	73.9356
0.00176807	74.1487
0.00177828	74.3624
0.00178855	74.5767
0.00179887	74.7917
0.00180926	75.0073
0.0018197	75.2235
0.00183021	75.4403
0.00184077	75.6577
0.0018514	75.8758
0.00186209	76.0945
0.00187284	76.3139
0.00188365	76.5338
0.00189452	76.7544
0.00190546	76.9757
0.00191646	77.1975
0.00192752	77.42
0.00193865	77.6432
0.00194984	77.867
0.0019611	78.0914
0.00197242	78.3165
0.00198381	78.5423
0.00199526	78.7687
0.00200678	78.9957
0.00201837	79.2234
0.00203002	79.4517
0.00204174	79.6807
0.00205353	79.9104
0.00206538	80.1408
0.0020773	80.3717
0.0020893	80.6034
0.00210136	80.8357
0.00211349	81.0687
0.00212569	81.3024
0.00213796	81.5368
0.0021503	81.7718
0.00216272	82.0075
0.0021752	82.2438
0.00218776	82.4809
0.00220039	82.7186
0.00221309	82.9571
0.00222587	83.1962
0.00223872	83.436
0.00225165	83.6765
0.00226464	83.9177
0.00227772	84.1595
0.00229087	84.4021
0.00230409	84.6454
0.00231739	84.8894
0.00233077	85.1341
0.00234423	85.3795
0.00235776	85.6256
0.00237137	85.8724
0.00238506	86.1199
0.00239883	86.3681
0.00241268	86.6171
0.00242661	86.8667
0.00244062	87.1171
0.00245471	87.3682
0.00246888	87.62
0.00248313	87.8726
0.00249747	88.1259
0.00251189	88.3799
0.00252639	88.6346
0.00254097	88.8901
0.00255564	89.1463
0.0025704	89.4033
0.00258523	89.661
0.00260016	89.9194
0.00261517	90.1786
0.00263027	90.4385
0.00264545	90.6992
0.00266073	90.9606
0.00267609	91.2228
0.00269153	91.4857
0.00270707	91.7494
0.0027227	92.0139
0.00273842	92.2791
0.00275423	92.5451
0.00277013	92.8118
0.00278612	93.0794
0.00280221	93.3477
0.00281838	93.6167
0.00283465	93.8866
0.00285102	94.1572
0.00286748	94.4286
0.00288403	94.7007
0.00290068	94.9737
0.00291743	95.2475
0.00293427	95.522
0.00295121	95.7973
0.00296825	96.0735
0.00298538	96.3504
0.00300262	96.6281
0.00301995	96.9066
0.00303739	97.1859
0.00305492	97.4661
0.00307256	97.747
0.0030903	98.0287
0.00310814	98.3113
0.00312608	98.5947
0.00314413	98.8788
0.00316228	99.1639
0.00318053	99.4497
0.0031989	99.7363
0.00321736	100.024
0.00323594	100.312
0.00325462	100.601
0.00327341	100.891
0.0032923	101.182
0.00331131	101.474
0.00333043	101.766
0.00334965	102.059
0.00336899	102.354
0.00338844	102.649
0.003408	102.945
0.00342768	103.241
0.00344747	103.539
0.00346737	103.837
0.00348739	104.137
0.00350752	104.437
0.00352777	104.738
0.00354813	105.04
0.00356862	105.342
0.00358922	105.646
0.00360994	105.951
0.00363078	106.256
0.00365174	106.562
0.00367282	106.869
0.00369403	107.177
0.00371535	107.486
0.0037368	107.796
0.00375837	108.107
0.00378007	108.419
0.00380189	108.731
0.00382384	109.044
0.00384592	109.359
0.00386812	109.674
0.00389045	109.99
0.00391291	110.307
0.0039355	110.625
0.00395822	110.944
0.00398107	111.264
0.00400405	111.584
0.00402717	111.906
0.00405042	112.229
0.0040738	112.552
0.00409732	112.876
0.00412098	113.202
0.00414477	113.528
0.00416869	113.855
0.00419276	114.184
0.00421697	114.513
0.00424131	114.843
0.0042658	115.174
0.00429042	115.506
0.00431519	115.839
0.0043401	116.173
0.00436516	116.507
0.00439036	116.843
0.0044157	117.18
0.0044412	117.518
0.00446684	117.856
0.00449262	118.196
0.00451856	118.537
0.00454465	118.879
0.00457088	119.221
0.00459727	119.565
0.00462381	119.909
0.0046505	120.255
0.00467735	120.602
0.00470435	120.949
0.00473151	121.298
0.00475883	121.648
0.0047863	121.998
0.00481393	122.35
0.00484172	122.702
0.00486968	123.056
0.00489779	123.411
0.00492606	123.767
0.0049545	124.123
0.0049831	124.481
0.00501187	124.84
0.00504081	125.2
0.00506991	125.561
0.00509918	125.923
0.00512861	126.285
0.00515822	126.649
0.005188	127.015
0.00521795	127.381
0.00524807	127.748
0.00527837	128.116
0.00530884	128.485
0.00533949	128.856
0.00537032	129.227
0.00540132	129.6
0.0054325	129.973
0.00546387	130.348
0.00549541	130.723
0.00552713	131.1
0.00555904	131.478
0.00559114	131.857
0.00562341	132.237
0.00565588	132.618
0.00568853	133.001
0.00572137	133.384
0.0057544	133.768
0.00578762	134.154
0.00582103	134.541
0.00585464	134.928
0.00588844	135.317
0.00592243	135.707
0.00595662	136.099
0.00599101	136.491
0.0060256	136.884
0.00606038	137.279
0.00609537	137.674
0.00613056	138.071
0.00616595	138.469
0.00620155	138.868
0.00623735	139.269
0.00627336	139.67
0.00630957	140.073
0.006346	140.476
0.00638263	140.881
0.00641948	141.287
0.00645654	141.695
0.00649382	142.103
0.00653131	142.513
0.00656901	142.923
0.00660693	143.335
0.00664508	143.749
0.00668344	144.163
0.00672202	144.578
0.00676083	144.99
0.00679986	145.398
0.00683912	145.807
0.0068786	146.217
0.00691831	146.628
0.00695825	147.041
0.00699842	147.455
0.00703882	147.869
0.00707946	148.286
0.00712033	148.703
0.00716143	149.121
0.00720278	149.541
0.00724436	149.962
0.00728618	150.384
0.00732825	150.807
0.00737055	151.232
0.0074131	151.658
0.0074559	152.085
0.00749894	152.513
0.00754223	152.943
0.00758578	153.373
0.00762957	153.805
0.00767361	154.238
0.00771792	154.673
0.00776247	155.109
0.00780728	155.545
0.00785236	155.984
0.00789769	156.423
0.00794328	156.864
0.00798914	157.306
0.00803526	157.749
0.00808165	158.194
0.00812831	158.64
0.00817523	159.087
0.00822243	159.535
0.0082699	159.985
0.00831764	160.436
0.00836566	160.888
0.00841395	161.342
0.00846253	161.797
0.00851138	162.253
0.00856052	162.711
0.00860994	163.169
0.00865964	163.63
0.00870964	164.091
0.00875992	164.554
0.00881049	165.018
0.00886135	165.484
0.00891251	165.951
0.00896396	166.419
0.00901571	166.889
0.00906776	167.359
0.00912011	167.832
0.00917276	168.305
0.00922571	168.78
0.00927897	169.257
0.00933254	169.735
0.00938642	170.214
0.00944061	170.694
0.00949511	171.176
0.00954993	171.66
0.00960506	172.144
0.00966051	172.63
0.00971628	173.118
0.00977237	173.607
0.00982879	174.097
0.00988553	174.589
0.0099426	175.082
0.01	175.577
0.0100577	176.073
0.0101158	176.57
0.0101742	177.069
0.0102329	177.57
0.010292	178.072
0.0103514	178.575
0.0104112	179.079
0.0104713	179.586
0.0105317	180.093
0.0105925	180.602
0.0106537	181.113
0.0107152	181.625
0.0107771	182.139
0.0108393	182.654
0.0109018	183.17
0.0109648	183.688
0.0110281	184.208
0.0110917	184.729
0.0111558	185.251
0.0112202	185.775
0.011285	186.301
0.0113501	186.828
0.0114156	187.357
0.0114815	187.887
0.0115478	188.418
0.0116145	188.952
0.0116815	189.486
0.011749	190.023
0.0118168	190.561
0.011885	191.1
0.0119536	191.641
0.0120226	192.184
0.0120921	192.728
0.0121619	193.273
0.0122321	193.821
0.0123027	194.37
0.0123737	194.92
0.0124451	195.472
0.012517	196.026
0.0125893	196.581
0.0126619	197.138
0.012735	197.696
0.0128086	198.256
0.0128825	198.818
0.0129569	199.382
0.0130317	199.947
0.0131069	200.513
0.0131826	201.082
0.0132587	201.651
0.0133352	202.223
0.0134122	202.796
0.0134896	203.371
0.0135675	203.948
0.0136458	204.526
0.0137246	205.106
0.0138038	205.688
0.0138835	206.271
0.0139637	206.856
0.0140443	207.443
0.0141254	208.031
0.0142069	208.621
0.0142889	209.213
0.0143714	209.807
0.0144544	210.402
0.0145378	210.999
0.0146218	211.598
0.0147062	212.198
0.0147911	212.8
0.0148765	213.404
0.0149624	214.01
0.0150487	214.617
0.0151356	215.227
0.015223	215.838
0.0153109	216.451
0.0153993	217.065
0.0154882	217.681
0.0155776	218.3
0.0156675	218.92
0.015758	219.541
0.0158489	220.165
0.0159404	220.79
0.0160325	221.418
0.016125	222.047
0.0162181	222.677
0.0163117	223.31
0.0164059	223.945
0.0165006	224.581
0.0165959	225.219
0.0166917	225.859
0.016788	226.501
0.016885	227.145
0.0169824	227.791
0.0170805	228.438
0.0171791	229.088
0.0172783	229.739
0.017378	230.393
0.0174783	231.048
0.0175792	231.705
0.0176807	232.364
0.0177828	233.025
0.0178855	233.687
0.0179887	234.352
0.0180926	235.019
0.018197	235.688
0.0183021	236.358
0.0184077	237.031
0.018514	237.705
0.0186209	238.382
0.0187284	239.06
0.0188365	239.741
0.0189452	240.423
0.0190546	241.107
0.0191646	241.794
0.0192752	242.482
0.0193865	243.172
0.0194984	243.865
0.019611	244.559
0.0197242	245.256
0.0198381	245.954
0.0199526	246.655
0.0200678	247.357
0.0201837	248.062
0.0203002	248.769
0.0204174	249.477
0.0205353	250.188
0.0206538	250.901
0.020773	251.616
0.020893	252.333
0.0210136	253.052
0.0211349	253.773
0.0212569	254.497
0.0213796	255.222
0.021503	255.95
0.0216272	256.679
0.021752	257.411
0.0218776	258.145
0.0220039	258.881
0.0221309	259.62
0.0222587	260.36
0.0223872	261.103
0.0225165	261.847
0.0226464	262.594
0.0227772	263.343
0.0229087	264.095
0.0230409	264.848
0.0231739	265.604
0.0233077	266.362
0.0234423	267.122
0.0235776	267.884
0.0237137	268.649
0.0238506	269.416
0.0239883	270.185
0.0241268	270.956
0.0242661	271.73
0.0244062	272.505
0.0245471	273.284
0.0246888	274.064
0.0248313	274.847
0.0249747	275.631
0.0251189	276.419
0.0252639	277.208
0.0254097	278
0.0255564	278.794
0.025704	279.591
0.0258523	280.39
0.0260016	281.191
0.0261517	281.994
0.0263027	282.8
0.0264545	283.608
0.0266073	284.419
0.0267609	285.232
0.0269153	286.047
0.0270707	286.475
0.027227	286.666
0.0273842	286.859
0.0275423	287.054
0.0277013	287.25
0.0278612	287.449
0.0280221	287.65
0.0281838	287.853
0.0283465	288.057
0.0285102	288.264
0.0286748	288.472
0.0288403	288.682
0.0290068	288.894
0.0291743	289.107
0.0293427	289.323
0.0295121	289.54
0.0296825	289.759
0.0298538	289.979
0.0300262	290.201
0.0301995	290.425
0.0303739	290.65
0.0305492	290.877
0.0307256	291.106
0.030903	291.336
0.0310814	291.568
0.0312608	291.801
0.0314413	292.035
0.0316228	292.272
0.0318053	292.509
0.031989	292.748
0.0321736	292.989
0.0323594	293.231
0.0325462	293.474
0.0327341	293.719
0.032923	293.965
0.0331131	294.212
0.0333043	294.461
0.0334965	294.711
0.0336899	294.963
0.0338844	295.215
0.03408	295.469
0.0342768	295.725
0.0344747	295.981
0.0346737	296.239
0.0348739	296.498
0.0350752	296.758
0.0352777	297.02
0.0354813	297.283
0.0356862	297.546
0.0358922	297.811
0.0360994	298.078
0.0363078	298.345
0.0365174	298.614
0.0367282	298.883
0.0369403	299.154
0.0371535	299.426
0.037368	299.699
0.0375837	299.974
0.0378007	300.249
0.0380189	300.525
0.0382384	300.803
0.0384592	301.082
0.0386812	301.361
0.0389045	301.642
0.0391291	301.924
0.039355	302.207
0.0395822	302.491
0.0398107	302.776
0.0400405	303.062
0.0402717	303.349
0.0405042	303.637
0.040738	303.926
0.0409732	304.216
0.0412098	304.507
0.0414477	304.799
0.0416869	305.092
0.0419276	305.386
0.0421697	305.682
0.0424131	305.978
0.042658	306.275
0.0429042	306.573
0.0431519	306.872
0.043401	307.172
0.0436516	307.473
0.0439036	307.776
0.044157	308.079
0.044412	308.383
0.0446684	308.688
0.0449262	308.994
0.0451856	309.301
0.0454465	309.609
0.0457088	309.917
0.0459727	310.227
0.0462381	310.538
0.046505	310.85
0.0467735	311.163
0.0470435	311.477
0.0473151	311.791
0.0475883	312.107
0.047863	312.424
0.0481393	312.741
0.0484172	313.06
0.0486968	313.38
0.0489779	313.7
0.0492606	314.022
0.049545	314.344
0.049831	314.668
0.0501187	314.992
0.0504081	315.318
0.0506991	315.644
0.0509918	315.972
0.0512861	316.3
0.0515822	316.63
0.05188	316.96
0.0521795	317.291
0.0524807	317.624
0.0527837	317.957
0.0530884	318.292
0.0533949	318.627
0.0537032	318.964
0.0540132	319.301
0.054325	319.639
0.0546387	319.979
0.0549541	320.319
0.0552713	320.661
0.0555904	321.004
0.0559114	321.347
0.0562341	321.692
0.0565588	322.037
0.0568853	322.384
0.0572137	322.732
0.057544	323.081
0.0578762	323.431
0.0582103	323.782
0.0585464	324.134
0.0588844	324.487
0.0592243	324.841
0.0595662	325.196
0.0599101	325.552
0.060256	325.91
0.0606038	326.268
0.0609537	326.628
0.0613056	326.989
0.0616595	327.351
0.0620155	327.714
0.0623735	328.078
0.0627336	328.443
0.0630957	328.809
0.06346	329.177
0.0638263	329.545
0.0641948	329.915
0.0645654	330.286
0.0649382	330.658
0.0653131	331.032
0.0656901	331.406
0.0660693	331.782
0.0664508	332.159
0.0668344	332.537
0.0672202	332.916
0.0676083	333.297
0.0679986	333.678
0.0683912	334.061
0.068786	334.446
0.0691831	334.831
0.0695825	335.218
0.0699842	335.606
0.0703882	335.995
0.0707946	336.385
0.0712033	336.777
0.0716143	337.17
0.0720278	337.564
0.0724436	337.96
0.0728618	338.357
0.0732825	338.755
0.0737055	339.154
0.074131	339.555
0.074559	339.957
0.0749894	340.361
0.0754223	340.766
0.0758578	341.172
0.0762957	341.58
0.0767361	341.989
0.0771792	342.399
0.0776247	342.811
0.0780728	343.224
0.0785236	343.638
0.0789769	344.054
0.0794328	344.472
0.0798914	344.89
0.0803526	345.311
0.0808165	345.732
0.0812831	346.155
0.0817523	346.58
0.0822243	347.006
0.082699	347.434
0.0831764	347.863
0.0836566	348.293
0.0841395	348.725
0.0846253	349.159
0.0851138	349.594
0.0856052	350.03
0.0860994	350.468
0.0865964	350.908
0.0870964	351.349
0.0875992	351.792
0.0881049	352.236
0.0886135	352.682
0.0891251	353.13
0.0896396	353.579
0.0901571	354.029
0.0906776	354.482
0.0912011	354.936
0.0917276	355.391
0.0922571	355.848
0.0927897	356.307
0.0933254	356.768
0.0938642	357.23
0.0944061	357.694
0.0949511	358.159
0.0954993	358.626
0.0960506	359.095
0.0966051	359.566
0.0971628	360.038
0.0977237	360.512
0.0982879	360.988
0.0988553	361.465
0.099426	361.945
0.1	362.426
0.100577	362.908
0.101158	363.393
0.101742	363.879
0.102329	364.368
0.10292	364.857
0.103514	365.349
0.104112	365.843
0.104713	366.338
0.105317	366.836
0.105925	367.335
0.106537	367.836
0.107152	368.339
0.107771	368.843
0.108393	369.35
0.109018	369.858
0.109648	370.369
0.110281	370.881
0.110917	371.395
0.111558	371.912
0.112202	372.43
0.11285	372.95
0.113501	373.472
0.114156	373.996
0.114815	374.522
0.115478	375.05
0.116145	375.58
0.116815	376.112
0.11749	376.646
0.118168	377.182
0.11885	377.72
0.119536	378.26
0.120226	378.802
0.120921	379.346
0.121619	379.893
0.122321	380.441
0.123027	380.991
0.123737	381.544
0.124451	382.099
0.12517	382.655
0.125893	383.214
0.126619	383.775
0.12735	384.338
0.128086	384.904
0.128825	385.471
0.129569	386.041
0.130317	386.613
0.131069	387.187
0.131826	387.763
0.132587	388.341
0.133352	388.922
0.134122	389.505
0.134896	390.09
0.135675	390.677
0.136458	391.267
0.137246	391.858
0.138038	392.453
0.138835	393.049
0.139637	393.648
0.140443	394.249
0.141254	394.852
0.142069	395.457
0.142889	396.065
0.143714	396.675
0.144544	397.288
0.145378	397.903
0.146218	398.52
0.147062	399.14
0.147911	399.762
0.148765	400.386
0.149624	401.013
0.150487	401.642
0.151356	402.274
0.15223	402.908
0.153109	403.544
0.153993	404.183
0.154882	404.825
0.155776	405.468
0.156675	406.115
0.15758	406.763
0.158489	407.415
0.159404	408.068
0.160325	408.725
0.16125	409.383
0.162181	410.045
0.163117	410.708
0.164059	411.375
0.165006	412.043
0.165959	412.715
0.166917	413.389
0.16788	414.065
0.16885	414.744
0.169824	415.426
0.170805	416.11
0.171791	416.797
0.172783	417.487
0.17378	418.179
0.174783	418.874
0.175792	419.571
0.176807	420.271
0.177828	420.974
0.178855	421.679
0.179887	422.387
0.180926	423.098
0.18197	423.811
0.183021	424.528
0.184077	425.246
0.18514	425.968
0.186209	426.692
0.187284	427.419
0.188365	428.149
0.189452	428.881
0.190546	429.616
0.191646	430.354
0.192752	431.095
0.193865	431.839
0.194984	432.585
0.19611	433.334
0.197242	434.086
0.198381	434.841
0.199526	435.598
0.200678	436.359
0.201837	437.122
0.203002	437.888
0.204174	438.657
0.205353	439.428
0.206538	440.203
0.20773	440.981
0.20893	441.761
0.210136	442.544
0.211349	443.33
0.212569	444.119
0.213796	444.911
0.21503	445.706
0.216272	446.504
0.21752	447.305
0.218776	448.108
0.220039	448.915
0.221309	449.725
0.222587	450.537
0.223872	451.353
0.225165	452.171
0.226464	452.993
0.227772	453.817
0.229087	454.645
0.230409	455.475
0.231739	456.309
0.233077	457.145
0.234423	457.985
0.235776	458.827
0.237137	459.673
0.238506	460.522
0.239883	461.373
0.241268	462.228
0.242661	463.086
0.244062	463.947
0.245471	464.811
0.246888	465.678
0.248313	466.548
0.249747	467.421
0.251189	468.298
0.252639	469.177
0.254097	470.06
0.255564	470.946
0.25704	471.835
0.258523	472.727
0.260016	473.622
0.261517	474.52
0.263027	475.421
0.264545	476.326
0.266073	477.234
0.267609	478.145
0.269153	479.059
0.270707	479.976
0.27227	480.897
0.273842	481.82
0.275423	482.747
0.277013	483.677
0.278612	484.61
0.280221	485.547
0.281838	486.487
0.283465	487.43
0.285102	488.376
0.286748	489.325
0.288403	490.278
0.290068	491.234
0.291743	492.193
0.293427	493.155
0.295121	494.121
0.296825	495.09
0.298538	496.062
0.300262	497.037
0.301995	498.016
0.303739	498.998
0.305492	499.983
0.307256	500.972
0.30903	501.963
0.310814	502.958
0.312608	503.957
0.314413	504.959
0.316228	505.963
0.318053	506.972
0.31989	507.983
0.321736	508.998
0.323594	510.016
0.325462	511.038
0.327341	512.063
0.32923	513.091
0.331131	514.122
0.333043	515.157
0.334965	516.195
0.336899	517.237
0.338844	518.282
0.3408	519.33
0.342768	520.381
0.344747	521.436
0.346737	522.494
0.348739	523.555
0.350752	524.62
0.352777	525.688
0.354813	526.76
0.356862	527.834
0.358922	528.913
0.360994	529.994
0.363078	531.079
0.365174	532.167
0.367282	533.259
0.369403	534.353
0.371535	535.452
0.37368	536.553
0.375837	537.658
0.378007	538.766
0.380189	539.878
0.382384	540.993
0.384592	542.111
0.386812	543.232
0.389045	544.357
0.391291	545.485
0.39355	546.617
0.395822	547.752
0.398107	548.89
0.400405	550.032
0.402717	551.176
0.405042	552.325
0.40738	553.476
0.409732	554.631
0.412098	555.789
0.414477	556.95
0.416869	558.115
0.419276	559.283
0.421697	560.454
0.424131	561.629
0.42658	562.807
0.429042	563.988
0.431519	565.172
0.43401	566.36
0.436516	567.551
0.439036	568.745
0.44157	569.943
0.44412	571.144
0.446684	572.348
0.449262	573.555
0.451856	574.765
0.454465	575.979
0.457088	577.196
0.459727	578.416
0.462381	579.639
0.46505	580.866
0.467735	582.095
0.470435	583.328
0.473151	584.564
0.475883	585.804
0.47863	587.046
0.481393	588.291
0.484172	589.54
0.486968	590.792
0.489779	592.047
0.492606	593.305
0.49545	594.566
0.49831	595.83
0.501187	597.097
0.504081	598.367
0.506991	599.641
0.509918	600.917
0.512861	602.197
0.515822	603.479
0.5188	604.765
0.521795	606.053
0.524807	607.344
0.527837	608.639
0.530884	609.936
0.533949	611.236
0.537032	612.539
0.540132	614.906
0.54325	617.575
0.546387	620.262
0.549541	622.968
0.552713	625.694
0.555904	628.439
0.559114	631.203
0.562341	633.988
0.565588	636.792
0.568853	639.616
0.572137	642.461
0.57544	645.326
0.578762	648.211
0.582103	651.117
0.585464	654.045
0.588844	656.993
0.592243	659.962
0.595662	662.954
0.599101	665.966
0.60256	669.001
0.606038	672.057
0.609537	675.136
0.613056	678.237
0.616595	681.361
0.620155	684.507
0.623735	687.677
0.627336	690.869
0.630957	694.085
0.6346	697.325
0.638263	700.588
0.641948	703.875
0.645654	707.187
0.649382	710.522
0.653131	713.883
0.656901	717.268
0.660693	720.678
0.664508	724.113
0.668344	727.574
0.672202	731.06
0.676083	734.572
0.679986	737.788
0.683912	740.79
0.68786	743.807
0.691831	746.841
0.695825	749.89
0.699842	752.954
0.703882	756.035
0.707946	759.132
0.712033	762.245
0.716143	765.374
0.720278	768.519
0.724436	771.68
0.728618	774.857
0.732825	778.051
0.737055	781.261
0.74131	784.487
0.74559	787.73
0.749894	790.989
0.754223	794.265
0.758578	797.557
0.762957	800.866
0.767361	804.192
0.771792	807.534
0.776247	810.893
0.780728	814.268
0.785236	817.661
0.789769	821.07
0.794328	824.496
0.798914	827.939
0.803526	831.4
0.808165	834.877
0.812831	838.371
0.817523	841.882
0.822243	845.411
0.82699	848.956
0.831764	852.519
0.836566	856.099
0.841395	859.696
0.846253	863.311
0.851138	866.943
0.856052	870.592
0.860994	874.259
0.865964	877.943
0.870964	881.645
0.875992	885.364
0.881049	889.101
0.886135	892.855
0.891251	896.627
0.896396	900.416
0.901571	904.223
0.906776	908.048
0.912011	911.891
0.917276	915.751
0.922571	919.629
0.927897	923.525
0.933254	927.438
0.938642	931.369
0.944061	935.318
0.949511	939.285
0.954993	943.27
0.960506	947.273
0.966051	951.293
0.971628	955.331
0.977237	959.388
0.982879	963.462
0.988553	967.554
0.99426	971.664
1	975.792
1.00577	979.938
1.01158	984.102
1.01742	988.284
1.02329	992.484
1.0292	996.701
1.03514	1000.94
1.04112	1005.19
1.04713	1009.46
1.05317	1013.75
1.05925	1018.06
1.06537	1022.39
1.07152	1026.73
1.07771	1031.09
1.08393	1035.47
1.09018	1039.87
1.09648	1044.28
1.10281	1048.71
1.10917	1053.17
1.11558	1057.63
1.12202	1062.12
1.1285	1066.63
1.13501	1071.15
1.14156	1075.69
1.14815	1080.25
1.15478	1084.82
1.16145	1089.41
1.16815	1094.02
1.1749	1098.65
1.18168	1103.3
1.1885	1107.96
1.19536	1112.64
1.20226	1117.34
1.20921	1122.06
1.21619	1126.79
1.22321	1131.54
1.23027	1136.31
1.23737	1141.09
1.24451	1145.9
1.2517	1150.72
1.25893	1155.55
1.26619	1160.41
1.2735	1165.28
1.28086	1170.16
1.28825	1175.07
1.29569	1179.99
1.30317	1184.93
1.31069	1189.88
1.31826	1194.85
1.32587	1199.84
1.33352	1204.85
1.34122	1209.87
1.34896	1214.9
1.35675	1219.96
1.36458	1225.03
1.37246	1230.11
1.38038	1235.21
1.38835	1240.33
1.39637	1245.46
1.40443	1250.61
1.41254	1255.78
1.42069	1260.96
1.42889	1266.15
1.43714	1271.36
1.44544	1276.59
1.45378	1281.83
1.46218	1287.09
1.47062	1292.36
1.47911	1297.64
1.48765	1302.94
1.49624	1308.26
1.50487	1313.59
1.51356	1318.93
1.5223	1324.29
1.53109	1329.66
1.53993	1335.05
1.54882	1340.45
1.55776	1345.86
1.56675	1351.29
1.5758	1356.73
1.58489	1362.18
1.59404	1367.65
1.60325	1373.13
1.6125	1378.62
1.62181	1384.13
1.63117	1389.64
1.64059	1395.17
1.65006	1400.72
1.65959	1406.27
1.66917	1411.84
1.6788	1417.41
1.6885	1423
1.69824	1428.6
1.70805	1434.22
1.71791	1439.84
1.72783	1445.47
1.7378	1451.12
1.74783	1456.77
1.75792	1462.44
1.76807	1468.11
1.77828	1473.8
1.78855	1479.49
1.79887	1485.2
1.80926	1490.91
1.8197	1496.63
1.83021	1502.36
1.84077	1508.1
1.8514	1513.85
1.86209	1519.61
1.87284	1525.37
1.88365	1531.15
1.89452	1535.89
1.90546	1541.66
1.91646	1547.45
1.92752	1553.24
1.93865	1559.03
1.94984	1564.83
1.9611	1570.64
1.97242	1576.45
1.98381	1582.27
1.99526	1588.1
2.00678	1593.93
2.01837	1599.76
2.03002	1605.6
2.04174	1611.45
2.05353	1617.29
2.06538	1623.14
2.0773	1629
2.0893	1634.86
2.10136	1640.72
2.11349	1646.58
2.12569	1652.45
2.13796	1658.32
2.1503	1664.19
2.16272	1670.06
2.1752	1675.94
2.18776	1681.81
2.20039	1687.69
2.21309	1693.57
2.22587	1699.44
2.23872	1705.32
2.25165	1711.2
2.26464	1717.07
2.27772	1722.95
2.29087	1728.82
2.30409	1734.69
2.31739	1740.56
2.33077	1746.43
2.34423	1752.3
2.35776	1758.16
2.37137	1764.02
2.38506	1769.88
2.39883	1775.73
2.41268	1781.58
2.42661	1787.42
2.44062	1793.26
2.45471	1799.1
2.46888	1804.93
2.48313	1810.75
2.49747	1816.57
2.51189	1822.38
2.52639	1828.19
2.54097	1833.99
2.55564	1839.78
2.5704	1845.56
2.58523	1851.34
2.60016	1857.1
2.61517	1862.86
2.63027	1868.61
2.64545	1874.35
2.66073	1880.08
2.67609	1885.81
2.69153	1891.52
2.70707	1897.22
2.7227	1902.9
2.73842	1908.58
2.75423	1914.25
2.77013	1919.9
2.78612	1925.54
2.80221	1931.17
2.81838	1936.79
2.83465	1942.39
2.85102	1947.98
2.86748	1953.55
2.88403	1959.11
2.90068	1964.66
2.91743	1970.19
2.93427	1975.7
2.95121	1981.2
2.96825	1986.68
2.98538	1992.15
3.00262	1997.6
3.01995	2003.03
3.03739	2008.44
3.05492	2013.84
3.07256	2019.21
3.0903	2024.57
3.10814	2029.91
3.12608	2035.23
3.14413	2040.53
3.16228	2045.81
3.18053	2051.07
3.1989	2056.31
3.21736	2061.53
3.23594	2066.73
3.25462	2071.9
3.27341	2077.05
3.2923	2082.18
3.31131	2087.29
3.33043	2092.38
3.34965	2097.44
3.36899	2102.47
3.38844	2107.49
3.408	2112.48
3.42768	2117.44
3.44747	2122.38
3.46737	2127.29
3.48739	2132.18
3.50752	2137.04
3.52777	2141.87
3.54813	2146.68
3.56862	2151.46
3.58922	2156.21
3.60994	2160.94
3.63078	2165.64
3.65174	2170.3
3.67282	2174.95
3.69403	2179.56
3.71535	2184.14
3.7368	2188.69
3.75837	2193.21
3.78007	2197.71
3.80189	2202.17
3.82384	2206.6
3.84592	2211
3.86812	2215.37
3.89045	2219.71
3.91291	2224.01
3.9355	2228.29
3.95822	2232.53
3.98107	2236.74
4.00405	2240.91
4.02717	2245.05
4.05042	2249.16
4.0738	2253.24
4.09732	2257.28
4.12098	2261.29
4.14477	2265.26
4.16869	2269.2
4.19276	2273.1
4.21697	2276.97
4.24131	2280.8
4.2658	2284.6
4.29042	2288.36
4.31519	2292.09
4.3401	2295.77
4.36516	2299.43
4.39036	2303.04
4.4157	2306.62
4.4412	2310.16
4.46684	2313.67
4.49262	2317.14
4.51856	2320.57
4.54465	2323.96
4.57088	2327.31
4.59727	2330.63
4.62381	2333.91
4.6505	2337.14
4.67735	2340.35
4.70435	2343.51
4.73151	2346.63
4.75883	2349.71
4.7863	2352.76
4.81393	2355.76
4.84172	2358.73
4.86968	2361.66
4.89779	2364.54
4.92606	2367.39
4.9545	2370.2
4.9831	2372.96
5.01187	2375.69
5.04081	2378.38
5.06991	2381.02
5.09918	2383.63
5.12861	2386.19
5.15822	2388.72
5.188	2391.2
5.21795	2393.65
5.24807	2396.05
5.27837	2398.41
5.30884	2400.73
5.33949	2403.01
5.37032	2405.25
5.40132	2407.45
5.4325	2409.61
5.46387	2411.72
5.49541	2413.8
5.52713	2415.83
5.55904	2417.82
5.59114	2419.77
5.62341	2421.68
5.65588	2423.55
5.68853	2425.38
5.72137	2427.17
5.7544	2428.91
5.78762	2430.62
5.82103	2432.28
5.85464	2433.9
5.88844	2435.49
5.92243	2437.03
5.95662	2438.53
5.99101	2439.99
6.0256	2441.4
6.06038	2442.78
6.09537	2444.12
6.13056	2445.41
6.16595	2446.67
6.20155	2447.88
6.23735	2449.06
6.27336	2450.19
6.30957	2451.29
6.346	2452.34
6.38263	2453.35
6.41948	2454.33
6.45654	2455.26
6.49382	2456.15
6.53131	2457.01
6.56901	2457.82
6.60693	2458.6
6.64508	2459.33
6.68344	2460.03
6.72202	2460.69
6.76083	2461.31
6.79986	2461.89
6.83912	2462.43
6.8786	2462.93
6.91831	2463.4
6.95825	2463.82
6.99842	2464.21
7.03882	2464.56
7.07946	2464.88
7.12033	2465.15
7.16143	2465.39
7.20278	2465.59
7.24436	2465.76
7.28618	2465.89
7.32825	2465.98
7.37055	2466.03
7.4131	2466.05
7.4559	2466.03
7.49894	2465.98
7.54223	2465.89
7.58578	2465.77
7.62957	2465.61
7.67361	2465.41
7.71792	2465.18
7.76247	2464.92
7.80728	2464.62
7.85236	2464.29
7.89769	2463.92
7.94328	2463.52
7.98914	2463.09
8.03526	2462.62
8.08165	2462.12
8.12831	2461.59
8.17523	2461.02
8.22243	2460.43
8.2699	2459.8
8.31764	2459.13
8.36566	2458.44
8.41395	2457.72
8.46253	2456.96
8.51138	2456.18
8.56052	2455.36
8.60994	2454.51
8.65964	2453.64
8.70964	2452.73
8.75992	2451.8
8.81049	2450.83
8.86135	2449.84
8.91251	2448.81
8.96396	2447.76
9.01571	2446.68
9.06776	2445.57
9.12011	2444.44
9.17276	2437.05
9.22571	2435.94
9.27897	2434.8
9.33254	2433.63
9.38642	2432.43
9.44061	2431.21
9.49511	2429.96
9.54993	2428.69
9.60506	2427.39
9.66051	2426.06
9.71628	2424.71
9.77237	2423.33
9.82879	2421.93
9.88553	2420.5
9.9426	2419.05
10	2417.58
10.0577	2416.08
10.1158	2414.56
10.1742	2413.01
10.2329	2411.44
10.292	2409.85
10.3514	2408.24
10.4112	2406.61
10.4713	2404.95
10.5317	2403.27
10.5925	2401.57
10.6537	2399.85
10.7152	2398.11
10.7771	2396.35
10.8393	2394.57
10.9018	2392.77
10.9648	2390.95
11.0281	2389.11
11.0917	2387.25
11.1558	2385.38
11.2202	2383.48
11.285	2381.57
11.3501	2379.63
11.4156	2377.69
11.4815	2375.72
11.5478	2373.74
11.6145	2371.74
11.6815	2369.72
11.749	2367.69
11.8168	2365.64
11.885	2363.57
11.9536	2361.49
12.0226	2359.4
12.0921	2357.29
12.1619	2355.16
12.2321	2353.02
12.3027	2350.87
12.3737	2348.7
12.4451	2346.52
12.517	2344.32
12.5893	2342.11
12.6619	2339.89
12.735	2337.66
12.8086	2335.41
12.8825	2333.15
12.9569	2330.88
13.0317	2328.6
13.1069	2326.31
13.1826	2324
13.2587	2321.68
13.3352	2319.36
13.4122	2317.02
13.4896	2314.67
13.5675	2312.31
13.6458	2309.94
13.7246	2307.56
13.8038	2305.17
13.8835	2302.77
13.9637	2300.37
14.0443	2297.95
14.1254	2295.53
14.2069	2293.09
14.2889	2290.65
14.3714	2288.2
14.4544	2285.74
14.5378	2283.28
14.6218	2280.8
14.7062	2278.32
14.7911	2275.83
14.8765	2273.34
14.9624	2270.84
15.0487	2268.33
15.1356	2265.81
15.223	2263.29
15.3109	2260.76
15.3993	2258.23
15.4882	2255.69
15.5776	2253.14
15.6675	2250.59
15.758	2248.04
15.8489	2245.48
15.9404	2242.91
16.0325	2240.34
16.125	2237.76
16.2181	2235.18
16.3117	2232.59
16.4059	2230
16.5006	2227.41
16.5959	2224.81
16.6917	2222.21
16.788	2219.6
16.885	2216.99
16.9824	2214.38
17.0805	2211.76
17.1791	2209.14
17.2783	2206.52
17.378	2203.89
17.4783	2201.26
17.5792	2198.63
17.6807	2195.99
17.7828	2193.35
17.8855	2190.71
17.9887	2188.07
18.0926	2185.42
18.197	2182.77
18.3021	2180.12
18.4077	2177.47
18.514	2174.81
18.6209	2172.16
18.7284	2169.5
18.8365	2166.84
18.9452	2164.17
19.0546	2161.51
19.1646	2158.84
19.2752	2156.18
19.3865	2153.51
19.4984	2150.84
19.611	2148.17
19.7242	2145.49
19.8381	2142.82
19.9526	2140.15
20.0678	2137.47
20.1837	2134.79
20.3002	2132.11
20.4174	2129.44
20.5353	2126.75
20.6538	2124.07
20.773	2121.39
20.893	2118.71
21.0136	2116.03
21.1349	2113.34
21.2569	2110.66
21.3796	2107.97
21.503	2105.29
21.6272	2102.6
21.752	2099.91
21.8776	2097.23
22.0039	2094.54
22.1309	2091.85
22.2587	2089.16
22.3872	2086.47
22.5165	2083.78
22.6464	2081.09
22.7772	2078.4
22.9087	2075.71
23.0409	2073.02
23.1739	2070.33
23.3077	2067.64
23.4423	2064.95
23.5776	2062.26
23.7137	2059.57
23.8506	2056.87
23.9883	2054.18
24.1268	2051.49
24.2661	2048.79
24.4062	2046.1
24.5471	2043.41
24.6888	2040.71
24.8313	2038.02
24.9747	2035.32
25.1189	2032.63
25.2639	2029.93
25.4097	2027.24
25.5564	2024.54
25.704	2021.85
25.8523	2019.15
26.0016	2016.45
26.1517	2013.76
26.3027	2011.06
26.4545	2008.36
26.6073	2005.67
26.7609	2002.97
26.9153	2000.27
27.0707	1997.57
27.227	1994.87
27.3842	1992.17
27.5423	1989.47
27.7013	1986.77
27.8612	1984.07
28.0221	1981.37
28.1838	1978.66
28.3465	1975.96
28.5102	1973.26
28.6748	1970.55
28.8403	1967.85
29.0068	1965.14
29.1743	1962.44
29.3427	1959.73
29.5121	1957.02
29.6825	1954.32
29.8538	1951.61
30.0262	1948.9
30.1995	1946.19
30.3739	1943.48
30.5492	1940.76
30.7256	1938.05
30.903	1935.34
31.0814	1932.62
31.2608	1929.91
31.4413	1927.19
31.6228	1924.47
31.8053	1921.75
31.989	1919.03
32.1736	1916.31
32.3594	1913.59
32.5462	1910.86
32.7341	1908.14
32.923	1905.41
33.1131	1902.69
33.3043	1899.96
33.4965	1897.23
33.6899	1894.5
33.8844	1891.76
34.08	1889.03
34.2768	1886.3
34.4747	1883.56
34.6737	1880.82
34.8739	1878.08
35.0752	1875.34
35.2777	1872.6
35.4813	1869.85
35.6862	1867.11
35.8922	1864.36
36.0994	1861.61
36.3078	1858.86
36.5174	1856.1
36.7282	1853.35
36.9403	1850.59
37.1535	1847.83
37.368	1845.07
37.5837	1842.31
37.8007	1839.54
38.0189	1836.78
38.2384	1834.01
38.4592	1831.24
38.6812	1828.47
38.9045	1825.69
39.1291	1822.92
39.355	1820.14
39.5822	1817.36
39.8107	1814.57
40.0405	1811.79
40.2717	1809
40.5042	1806.21
40.738	1803.42
40.9732	1800.62
41.2098	1797.83
41.4477	1795.03
41.6869	1792.23
41.9276	1789.42
42.1697	1786.62
42.4131	1783.81
42.658	1781
42.9042	1778.18
43.1519	1775.37
43.401	1772.55
43.6516	1769.73
43.9036	1766.9
44.157	1764.08
44.412	1761.25
44.6684	1758.42
44.9262	1755.58
45.1856	1752.74
45.4465	1749.9
45.7088	1747.06
45.9727	1744.21
46.2381	1741.37
46.505	1738.51
46.7735	1735.66
47.0435	1732.8
47.3151	1729.94
47.5883	1727.08
47.863	1724.22
48.1393	1721.35
48.4172	1718.48
48.6968	1715.6
48.9779	1712.72
49.2606	1709.84
49.545	1706.96
49.831	1704.07
50.1187	1701.18
50.4081	1698.29
50.6991	1695.4
50.9918	1692.5
51.2861	1689.59
51.5822	1686.69
51.88	1683.78
52.1795	1680.87
52.4807	1677.96
52.7837	1675.04
53.0884	1672.12
53.3949	1669.19
53.7032	1665.98
54.0132	1662.38
54.325	1658.77
54.6387	1655.18
54.9541	1651.59
55.2713	1647.99
55.5904	1644.4
55.9114	1640.91
56.2341	1637.32
56.5588	1633.73
56.8853	1630.14
57.2137	1626.56
57.544	1622.97
57.8762	1619.38
58.2103	1615.8
58.5464	1612.21
58.8844	1608.63
59.2243	1605.04
59.5662	1601.46
59.9101	1598.09
60.256	1594.5
60.6038	1590.98
60.9537	1587.4
61.3056	1583.82
61.6595	1580.24
62.0155	1576.66
62.3735	1573.08
62.7336	1569.5
63.0957	1565.92
63.46	1562.34
63.8263	1558.76
64.1948	1555.18
64.5654	1551.6
64.9382	1548.02
65.3131	1544.45
65.6901	1541.77
66.0693	1538.19
66.4508	1534.6
66.8344	1531.02
67.2202	1524.37
67.6083	1520.74
67.9986	1517.38
68.3912	1513.75
68.786	1510.11
69.1831	1506.48
69.5825	1502.85
69.9842	1499.22
70.3882	1495.6
70.7946	1491.98
71.2033	1488.35
71.6143	1484.73
72.0278	1481.1
72.4436	1477.48
72.8618	1473.86
73.2825	1470.23
73.7055	1466.61
74.131	1462.99
74.559	1459.36
74.9894	1455.74
75.4223	1452.11
75.8578	1448.49
76.2957	1444.86
76.7361	1441.24
77.1792	1437.61
77.6247	1433.99
78.0728	1430.36
78.5236	1426.74
78.9769	1423.11
79.4328	1419.49
79.8914	1416.76
80.3526	1413.13
80.8165	1409.5
81.2831	1405.87
81.7523	1402.24
82.2243	1398.61
82.699	1394.98
83.1764	1391.35
83.6566	1387.72
84.1395	1384.09
84.6253	1380.46
85.1138	1376.83
85.6052	1373.2
86.0994	1369.57
86.5964	1365.95
87.0964	1362.32
87.5992	1358.69
88.1049	1355.07
88.6135	1351.44
89.1251	1347.82
89.6396	1344.2
90.1571	1340.58
90.6776	1337.01
91.2011	1333.39
91.7276	1329.77
92.2571	1326.15
92.7897	1322.54
93.3254	1318.92
93.8642	1315.31
94.4061	1311.77
94.9511	1308.3
95.4993	1304.83
96.0506	1301.35
96.6051	1297.88
97.1628	1294.4
97.7237	1290.92
98.2879	1287.45
98.8553	1283.98
99.426	1280.5
100	1277.03
100.577	1273.55
101.158	1270.08
101.742	1266.61
102.329	1263.14
102.92	1259.66
103.514	1256.19
104.112	1252.73
104.713	1249.26
105.317	1245.79
105.925	1242.32
106.537	1238.86
107.152	1235.4
107.771	1231.93
108.393	1228.47
109.018	1225.01
109.648	1221.9
110.281	1218.43
110.917	1214.97
111.558	1211.52
112.202	1208.06
112.85	1204.6
113.501	1201.15
114.156	1197.7
114.815	1194.25
115.478	1190.81
116.145	1187.36
116.815	1183.92
117.49	1180.48
118.168	1177.05
118.85	1173.61
119.536	1170.19
120.226	1167.56
120.921	1164.12
121.619	1160.69
122.321	1157.27
123.027	1153.84
123.737	1150.42
124.451	1147.01
125.17	1143.59
125.893	1140.18
126.619	1136.78
127.35	1133.37
128.086	1129.97
128.825	1126.57
129.569	1123.18
130.317	1119.79
131.069	1116.41
131.826	1113.02
132.587	1109.65
133.352	1106.27
134.122	1102.9
134.896	1099.53
135.675	1096.17
136.458	1092.81
137.246	1089.46
138.038	1086.11
138.835	1082.76
139.637	1079.42
140.443	1076.08
141.254	1072.74
142.069	1069.41
142.889	1066.08
143.714	1062.76
144.544	1059.44
145.378	1056.13
146.218	1052.82
147.062	1049.52
147.911	1046.21
148.765	1042.92
149.624	1039.63
150.487	1036.34
151.356	1033.64
152.23	1030.38
153.109	1027.1
153.993	1024.04
154.882	1020.77
155.776	1017.5
156.675	1014.23
157.58	1010.97
158.489	1007.72
159.404	1004.47
160.325	1001.22
161.25	997.98
162.181	994.743
163.117	991.511
164.059	988.284
165.006	985.061
165.959	981.843
166.917	978.63
167.88	975.422
168.85	972.219
169.824	969.021
170.805	965.827
171.791	962.639
172.783	959.455
173.78	956.277
174.783	953.103
175.792	949.935
176.807	946.771
177.828	943.612
178.855	940.459
179.887	937.311
180.926	934.168
181.97	931.029
183.021	927.896
184.077	924.769
185.14	921.646
186.209	918.529
187.284	915.416
188.365	912.309
189.452	909.207
190.546	906.112
191.646	903.021
192.752	899.935
193.865	896.855
194.984	893.78
196.11	890.71
197.242	887.646
198.381	884.588
199.526	881.534
200.678	878.487
201.837	875.726
203.002	872.684
204.174	869.648
205.353	866.617
206.538	863.592
207.73	860.572
208.93	857.558
210.136	854.549
211.349	851.546
212.569	848.549
213.796	845.57
215.03	842.584
216.272	839.603
217.52	836.628
218.776	833.659
220.039	830.695
221.309	827.738
222.587	824.787
223.872	821.842
225.165	818.902
226.464	815.968
227.772	813.04
229.087	810.118
230.409	807.201
231.739	804.291
233.077	801.386
234.423	798.487
235.776	795.594
237.137	792.707
238.506	789.825
239.883	786.95
241.268	784.081
242.661	781.217
244.062	778.36
245.471	775.508
246.888	772.662
248.313	769.823
249.747	766.99
251.189	764.162
252.639	761.341
254.097	758.526
255.564	755.717
257.04	752.914
258.523	750.117
260.016	747.326
261.517	744.542
263.027	741.764
264.545	738.992
266.073	736.226
267.609	733.467
269.153	730.713
270.707	727.967
272.27	725.226
273.842	722.492
275.423	719.764
277.013	717.043
278.612	714.328
280.221	711.619
281.838	708.917
283.465	706.398
285.102	703.706
286.748	701.021
288.403	698.342
290.068	695.67
291.743	693.004
293.427	690.344
295.121	687.692
296.825	685.046
298.538	682.406
300.262	679.773
301.995	677.147
303.739	674.527
305.492	671.914
307.256	669.308
309.03	666.709
310.814	664.116
312.608	661.53
314.413	658.95
316.228	656.378
318.053	653.812
319.89	651.253
321.736	648.7
323.594	646.155
325.462	643.616
327.341	641.084
329.23	638.559
331.131	636.041
333.043	633.53
334.965	631.026
336.899	628.528
338.844	626.038
340.8	623.555
342.768	621.078
344.747	618.608
346.737	616.145
348.739	613.689
350.752	611.24
352.777	608.798
354.813	606.362
356.862	603.934
358.922	601.513
360.994	599.099
363.078	596.691
365.174	594.291
367.282	591.898
369.403	589.511
371.535	587.132
373.68	584.76
375.837	582.394
378.007	580.036
380.189	577.685
382.384	575.341
384.592	573.003
386.812	570.673
389.045	568.35
391.291	566.034
393.55	563.725
395.822	561.423
398.107	559.128
400.405	556.84
402.717	554.56
405.042	552.285
407.38	550.019
409.732	547.76
412.098	545.508
414.477	543.263
416.869	541.025
419.276	538.795
421.697	536.571
424.131	534.354
426.58	532.145
429.042	529.942
431.519	527.747
434.01	525.558
436.516	523.377
439.036	521.202
441.57	519.035
444.12	516.874
446.684	514.721
449.262	512.575
451.856	510.436
454.465	508.304
457.088	506.18
459.727	504.062
462.381	501.951
465.05	499.847
467.735	497.75
470.435	495.66
473.151	493.577
475.883	491.501
478.63	489.432
481.393	487.37
484.172	485.314
486.968	483.266
489.779	481.225
492.606	479.191
495.45	477.164
498.31	475.143
501.187	473.13
504.081	471.123
506.991	469.124
509.918	467.132
512.861	465.146
515.822	463.167
518.8	461.195
521.795	459.23
524.807	457.272
527.837	455.321
530.884	453.377
533.949	451.439
537.032	449.509
540.132	447.585
543.25	445.668
546.387	443.758
549.541	441.855
552.713	439.958
555.904	438.069
559.114	436.186
562.341	434.31
565.588	432.441
568.853	430.579
572.137	428.723
575.44	426.874
578.762	425.032
582.103	423.197
585.464	421.368
588.844	419.546
592.243	417.731
595.662	415.923
599.101	414.121
602.56	412.326
606.038	410.538
609.537	408.756
613.056	406.981
616.595	405.212
620.155	403.451
623.735	401.695
627.336	399.947
630.957	398.205
634.6	396.47
638.263	394.741
641.948	393.019
645.654	391.303
649.382	389.594
653.131	387.891
656.901	386.195
660.693	384.506
664.508	382.823
668.344	381.147
672.202	379.477
676.083	377.813
679.986	376.156
683.912	374.506
687.86	372.861
691.831	371.223
695.825	369.592
699.842	367.967
703.882	366.349
707.946	364.737
712.033	363.131
716.143	361.531
720.278	359.938
724.436	358.352
728.618	356.771
732.825	355.197
737.055	353.629
741.31	352.068
745.59	350.513
749.894	348.964
754.223	347.421
758.578	345.884
762.957	344.354
767.361	342.83
771.792	341.312
776.247	339.8
780.728	338.294
785.236	336.794
789.769	335.301
794.328	333.813
798.914	332.332
803.526	330.857
808.165	329.387
812.831	327.924
817.523	326.467
822.243	325.016
826.99	323.571
831.764	322.132
836.566	320.698
841.395	319.271
846.253	317.85
851.138	316.435
856.052	315.025
860.994	313.622
865.964	312.224
870.964	310.832
875.992	309.446
881.049	308.066
886.135	306.692
891.251	305.323
896.396	303.96
901.571	302.603
906.776	301.252
912.011	299.906
917.276	298.567
922.571	297.232
927.897	295.904
933.254	294.581
938.642	293.264
944.061	291.953
949.511	290.647
954.993	289.346
960.506	288.052
966.051	286.763
971.628	285.479
977.237	284.201
982.879	282.928
988.553	281.661
994.26	280.4
1000	279.144
1005.77	277.893
1011.58	276.648
1017.42	275.408
1023.29	274.174
1029.2	272.945
1035.14	271.721
1041.12	270.503
1047.13	269.29
1053.17	268.082
1059.25	266.88
1065.37	265.683
1071.52	264.491
1077.71	263.304
1083.93	262.123
1090.18	260.947
1096.48	259.776
1102.81	258.61
1109.17	257.45
1115.58	256.294
1122.02	255.144
1128.5	253.999
1135.01	252.859
1141.56	251.724
1148.15	250.594
1154.78	249.469
1161.45	248.349
1168.15	247.234
1174.9	246.125
1181.68	245.02
1188.5	243.92
1195.36	242.825
1202.26	241.735
1209.21	240.65
1216.19	239.57
1223.21	238.494
1230.27	237.424
1237.37	236.358
1244.51	235.298
1251.7	234.242
1258.93	233.19
1266.19	232.144
1273.5	231.102
1280.86	230.065
1288.25	229.033
1295.69	228.006
1303.17	226.983
1310.69	225.965
1318.26	224.952
1325.87	223.943
1333.52	222.939
1341.22	221.939
1348.96	220.944
1356.75	219.954
1364.58	218.968
1372.46	217.986
1380.38	217.01
1388.35	216.037
1396.37	215.07
1404.43	214.106
1412.54	213.148
1420.69	212.193
1428.89	211.243
1437.14	210.298
1445.44	209.357
1453.78	208.42
1462.18	207.487
1470.62	206.559
1479.11	205.635
1487.65	204.716
1496.24	203.801
1504.87	202.89
1513.56	201.983
1522.3	201.081
1531.09	200.183
1539.93	199.289
1548.82	198.399
1557.76	197.514
1566.75	196.632
1575.8	195.755
1584.89	194.882
1594.04	194.013
1603.25	193.148
1612.5	192.287
1621.81	191.43
1631.17	190.578
1640.59	189.729
1650.06	188.884
1659.59	188.044
1669.17	187.207
1678.8	186.374
1688.5	185.546
1698.24	184.721
1708.05	183.9
1717.91	183.083
1727.83	182.27
1737.8	181.461
1747.83	180.655
1757.92	179.854
1768.07	179.056
1778.28	178.262
1788.55	177.472
1798.87	176.686
1809.26	175.904
1819.7	175.125
1830.21	174.35
1840.77	173.579
1851.4	172.811
1862.09	172.047
1872.84	171.287
1883.65	170.53
1894.52	169.778
1905.46	169.028
1916.46	168.283
1927.52	167.541
1938.65	166.802
1949.84	166.067
1961.1	165.336
1972.42	164.608
1983.81	163.884
1995.26	163.163
2006.78	162.446
2018.37	161.732
2030.02	161.022
2041.74	160.315
2053.53	159.611
2065.38	158.911
2077.3	158.215
2089.3	157.522
2101.36	156.832
2113.49	156.145
2125.69	155.462
2137.96	154.783
2150.3	154.106
2162.72	153.433
2175.2	152.763
2187.76	152.097
2200.39	151.433
2213.09	150.773
2225.87	150.116
2238.72	149.463
2251.65	148.812
2264.64	148.165
2277.72	147.521
2290.87	146.88
2304.09	146.243
2317.39	145.608
2330.77	144.977
2344.23	144.349
2357.76	143.723
2371.37	143.101
2385.06	142.482
2398.83	141.866
2412.68	141.253
2426.61	140.643
2440.62	140.036
2454.71	139.433
2468.88	138.832
2483.13	138.234
2497.47	137.639
2511.89	137.047
2526.39	136.458
2540.97	135.872
2555.64	135.289
2570.4	134.708
2585.23	134.131
2600.16	133.556
2615.17	132.985
2630.27	132.416
2645.45	131.85
2660.73	131.287
2676.09	130.726
2691.53	130.169
2707.07	129.614
2722.7	129.062
2738.42	128.513
2754.23	127.967
2770.13	127.423
2786.12	126.882
2802.21	126.344
2818.38	125.808
2834.65	125.275
2851.02	124.745
2867.48	124.217
2884.03	123.692
2900.68	123.17
2917.43	122.651
2934.27	122.134
2951.21	121.619
2968.25	121.107
2985.38	120.598
3002.62	120.091
3019.95	119.587
3037.39	119.086
3054.92	118.587
3072.56	118.09
3090.3	117.596
3108.14	117.105
3126.08	116.616
3144.13	116.129
3162.28	115.645
3180.53	115.164
3198.9	114.685
3217.36	114.208
3235.94	113.734
3254.62	113.262
3273.41	112.792
3292.3	112.325
3311.31	111.861
3330.43	111.398
3349.65	110.938
3368.99	110.481
3388.44	110.026
3408	109.573
3427.68	109.122
3447.47	108.674
3467.37	108.228
3487.39	107.784
3507.52	107.342
3527.77	106.903
3548.13	106.466
3568.62	106.031
3589.22	105.599
3609.94	105.169
3630.78	104.741
3651.74	104.315
3672.82	103.891
3694.03	103.47
3715.35	103.05
3736.8	102.633
3758.37	102.218
3780.07	101.805
3801.89	101.394
3823.84	100.986
3845.92	100.579
3868.12	100.175
3890.45	99.7725
3912.91	99.3722
3935.5	98.974
3958.22	98.5779
3981.07	98.1839
4004.05	97.7918
4027.17	97.4019
4050.42	97.0139
4073.8	96.628
4097.32	96.244
4120.98	95.8621
4144.77	95.4821
4168.69	95.1041
4192.76	94.7281
4216.97	94.3541
4241.31	93.982
4265.8	93.6118
4290.42	93.2436
4315.19	92.8773
4340.1	92.5129
4365.16	92.1504
4390.36	91.7898
4415.7	91.4311
4441.2	91.0743
4466.84	90.7193
4492.62	90.3662
4518.56	90.015
4544.65	89.6656
4570.88	89.318
4597.27	88.9723
4623.81	88.6284
4650.5	88.2862
4677.35	87.9459
4704.35	87.6074
4731.51	87.2707
4758.83	86.9357
4786.3	86.6026
4813.93	86.2711
4841.72	85.9415
4869.68	85.6135
4897.79	85.2873
4926.06	84.9629
4954.5	84.6401
4983.1	84.3191
5011.87	83.9998
5040.81	83.6821
5069.91	83.3662
5099.18	83.0519
5128.61	82.7393
5158.22	82.4284
5188	82.1191
5217.95	81.8114
5248.07	81.5054
5278.37	81.2011
5308.84	80.8984
5339.49	80.5972
5370.32	80.2977
5401.32	79.9998
5432.5	79.7035
5463.87	79.4088
5495.41	79.1157
5527.13	78.8241
5559.04	78.5341
5591.14	78.2456
5623.41	77.9587
5655.88	77.6734
5688.53	77.3896
5721.37	77.1073
5754.4	76.8265
5787.62	76.5473
5821.03	76.2695
5854.64	75.9933
5888.44	75.7186
5922.43	75.4453
5956.62	75.1735
5991.01	74.9032
6025.6	74.6344
6060.38	74.367
6095.37	74.1011
6130.56	73.8366
6165.95	73.5735
6201.55	73.3119
6237.35	73.0517
6273.36	72.793
6309.57	72.5356
6346	72.2797
6382.63	72.0251
6419.48	71.772
6456.54	71.5202
6493.82	71.2698
6531.31	71.0208
6569.01	70.7731
6606.93	70.5268
6645.08	70.2819
6683.44	70.0383
6722.02	69.7961
6760.83	69.5551
6799.86	69.3156
6839.12	69.0773
6878.6	68.8404
6918.31	68.6047
6958.25	68.3704
6998.42	68.1374
7038.82	67.9056
7079.46	67.6752
7120.33	67.446
7161.43	67.2181
7202.78	66.9915
7244.36	66.7661
7286.18	66.542
7328.25	66.3191
7370.55	66.0975
7413.1	65.8771
7455.9	65.658
7498.94	65.4401
7542.23	65.2234
7585.78	65.0079
7629.57	64.7936
7673.61	64.5806
7717.92	64.3687
7762.47	64.158
7807.28	63.9486
7852.36	63.7403
7897.69	63.5331
7943.28	63.3272
7989.14	63.1224
8035.26	62.9188
8081.65	62.7163
8128.31	62.515
8175.23	62.3148
8222.43	62.1158
8269.9	61.9179
8317.64	61.7211
8365.66	61.5254
8413.95	61.3309
8462.53	61.1375
8511.38	60.9452
8560.52	60.754
8609.94	60.5639
8659.64	60.3749
8709.64	60.1869
8759.92	60.0001
8810.49	59.8143
8861.35	59.6296
8912.51	59.446
8963.96	59.2634
9015.71	59.0819
9067.76	58.9015
9120.11	58.7221
9172.76	58.5437
9225.71	58.3664
9278.97	58.1901
9332.54	58.0148
9386.42	57.8406
9440.61	57.6673
9495.11	57.4951
9549.93	57.3239
9605.06	57.1538
9660.51	56.9846
9716.28	56.8164
9772.37	56.6492
9828.79	56.4829
9885.53	56.3177
9942.6	56.1534
10000	55.9902
10057.7	55.8278
10115.8	55.6665
10174.2	55.5061
10232.9	55.3467
10292	55.1882
10351.4	55.0306
10411.2	54.874
10471.3	54.7184
10531.7	54.5637
10592.5	54.4099
10653.7	54.257
10715.2	54.105
10777.1	53.954
10839.3	53.8039
10901.8	53.6547
10964.8	53.5064
11028.1	53.3589
11091.7	53.2124
11155.8	53.0668
11220.2	52.9221
11285	52.7782
11350.1	52.6352
11415.6	52.4931
11481.5	52.3519
11547.8	52.2115
11614.5	52.072
11681.5	51.9334
11749	51.7956
11816.8	51.6587
11885	51.5226
11953.6	51.3874
12022.6	51.253
12092.1	51.1194
12161.9	50.9867
12232.1	50.8548
12302.7	50.7237
12373.7	50.5934
12445.1	50.464
12517	50.3354
12589.3	50.2075
12661.9	50.0805
12735	49.9543
12808.6	49.8289
12882.5	49.7043
12956.9	49.5804
13031.7	49.4574
13106.9	49.3352
13182.6	49.2137
13258.7	49.093
13335.2	48.9731
13412.2	48.8539
13489.6	48.7355
13567.5	48.6179
13645.8	48.501
13724.6	48.3849
13803.8	48.2695
13883.5	48.1549
13963.7	48.0411
14044.3	47.9279
14125.4	47.8156
14206.9	47.7039
14288.9	47.593
14371.4	47.4828
14454.4	47.3734
14537.8	47.2646
14621.8	47.1566
14706.2	47.0493
14791.1	46.9427
14876.5	46.8368
14962.4	46.7316
15048.7	46.6272
15135.6	46.5234
15223	46.4203
15310.9	46.3179
15399.3	46.2162
15488.2	46.1152
15577.6	46.0149
15667.5	45.9153
15758	45.8163
15848.9	45.718
15940.4	45.6204
16032.5	45.5234
16125	45.4272
16218.1	45.3315
16311.7	45.2366
16405.9	45.1423
16500.6	45.0486
16595.9	44.9556
16691.7	44.8633
16788	44.7715
16885	44.6805
16982.4	44.5901
17080.5	44.5003
17179.1	44.4111
17278.3	44.3226
17378	44.2347
17478.3	44.1474
17579.2	44.0607
17680.7	43.9747
17782.8	43.8893
17885.5	43.8045
17988.7	43.7203
18092.6	43.6367
18197	43.5537
18302.1	43.4713
18407.7	43.3895
18514	43.3084
18620.9	43.2278
18728.4	43.1478
18836.5	43.0684
18945.2	42.9895
19054.6	42.9113
19164.6	42.8336
19275.2	42.7566
19386.5	42.6801
19498.4	42.6041
19611	42.5288
19724.2	42.454
19838.1	42.3798
19952.6	42.3061
20067.8	42.233
20183.7	42.1604
20300.2	42.0884
20417.4	42.017
20535.3	41.9461
20653.8	41.8758
20773	41.806
20893	41.7367
21013.6	41.668
21134.9	41.5999
21256.9	41.5322
21379.6	41.4651
21503	41.3985
21627.2	41.3325
21752	41.267
21877.6	41.202
22003.9	41.1375
22130.9	41.0736
22258.7	41.0101
22387.2	40.9472
22516.5	40.8848
22646.4	40.8229
22777.2	40.7615
22908.7	40.7006
23040.9	40.6402
23173.9	40.5803
23307.7	40.5209
23442.3	40.4621
23577.6	40.4037
23713.7	40.3458
23850.6	40.2883
23988.3	40.2314
24126.8	40.175
24266.1	40.119
24406.2	40.0635
24547.1	40.0085
24688.8	39.954
24831.3	39.8999
24974.7	39.8463
25118.9	39.7932
25263.9	39.7406
25409.7	39.6884
25556.4	39.6367
25704	39.5854
25852.3	39.5346
26001.6	39.4843
26151.7	39.4313
26302.7	39.3777
26454.5	39.3245
26607.3	39.2718
26760.9	39.2195
26915.3	39.1676
27070.7	39.1162
27227	39.0652
27384.2	39.0146
27542.3	38.9645
27701.3	38.9148
27861.2	38.8655
28022.1	38.8166
28183.8	38.7682
28346.5	38.7202
28510.2	38.6726
28674.8	38.6254
28840.3	38.5786
29006.8	38.5322
29174.3	38.4863
29342.7	38.4407
29512.1	38.3956
29682.5	38.3509
29853.8	38.3065
30026.2	38.2626
30199.5	38.2191
30373.9	38.1759
30549.2	38.1332
30725.6	38.0908
30903	38.0488
31081.4	38.0073
31260.8	37.9661
31441.3	37.9253
31622.8	37.8848
31805.3	37.8448
31989	37.8051
32173.6	37.7658
32359.4	37.7269
32546.2	37.6884
32734.1	37.6502
32923	37.6124
33113.1	37.575
33304.3	37.5379
33496.5	37.5012
33689.9	37.4649
33884.4	37.4289
34080	37.3933
34276.8	37.358
34474.7	37.3231
34673.7	37.2885
34873.9	37.2543
35075.2	37.2204
35277.7	37.1869
35481.3	37.1538
35686.2	37.1209
35892.2	37.0884
36099.4	37.0563
36307.8	37.0245
36517.4	36.993
36728.2	36.9619
36940.3	36.9311
37153.5	36.9007
37368	36.8705
37583.7	36.8407
37800.7	36.8112
38018.9	36.7821
38238.4	36.7533
38459.2	36.7247
38681.2	36.6966
38904.5	36.6687
39129.1	36.6411
39355	36.6139
39582.2	36.587
39810.7	36.5604
40040.5	36.5341
40271.7	36.5081
40504.2	36.4824
40738	36.457
40973.2	36.4319
41209.8	36.4072
41447.7	36.3827
41686.9	36.3585
41927.6	36.3347
42169.7	36.3111
42413.1	36.2878
42658	36.2648
42904.2	36.2421
43151.9	36.2197
43401	36.1976
43651.6	36.1757
43903.6	36.1542
44157	36.1329
44412	36.1119
44668.4	36.0912
44926.2	36.0708
45185.6	36.0507
45446.5	36.0308
45708.8	36.0112
45972.7	35.9919
46238.1	35.9728
46505	35.954
46773.5	35.9355
47043.5	35.9173
47315.1	35.8993
47588.3	35.8816
47863	35.8641
48139.3	35.8469
48417.2	35.83
48696.8	35.8133
48977.9	35.7969
49260.6	35.7807
49545	35.7648
49831	35.7492
50118.7	35.7338
50408.1	35.7186
50699.1	35.7037
50991.8	35.6891
51286.1	35.6747
51582.2	35.6605
51880	35.6466
52179.5	35.6329
52480.7	35.6194
52783.7	35.6062
53088.4	35.5933
53394.9	35.5806
53703.2	35.5681
54013.2	35.5558
54325	35.5438
54638.7	35.532
54954.1	35.5204
55271.3	35.5091
55590.4	35.498
55911.4	35.4871
56234.1	35.4764
56558.8	35.466
56885.3	35.4558
57213.7	35.4458
57544	35.436
57876.2	35.4264
58210.3	35.4171
58546.4	35.4079
58884.4	35.399
59224.3	35.3903
59566.2	35.3818
59910.1	35.3736
60256	35.3655
60603.8	35.3576
60953.7	35.35
61305.6	35.3425
61659.5	35.3353
62015.5	35.3282
62373.5	35.3214
62733.6	35.3147
63095.7	35.3083
63460	35.302
63826.3	35.296
64194.8	35.2901
64565.4	35.2845
64938.2	35.279
65313.1	35.2737
65690.1	35.2687
66069.3	35.2638
66450.8	35.2591
66834.4	35.2546
67220.2	35.2502
67608.3	35.2461
67998.6	35.2421
68391.2	35.2383
68786	35.2347
69183.1	35.2313
69582.5	35.2281
69984.2	35.225
70388.2	35.2221
70794.6	35.2194
71203.3	35.2169
71614.3	35.2145
72027.8	35.2123
72443.6	35.2103
72861.8	35.2085
73282.5	35.2068
73705.5	35.2053
74131	35.204
74559	35.2028
74989.4	35.2018
75422.3	35.2009
75857.8	35.2003
76295.7	35.1997
76736.1	35.1994
77179.2	35.1992
77624.7	35.1991
78072.8	35.1993
78523.6	35.1995
78976.9	35.2
79432.8	35.2005
79891.4	35.2013
80352.6	35.2022
80816.5	35.2032
81283.1	35.2044
81752.3	35.2058
82224.3	35.2072
82699	35.2089
83176.4	35.2107
83656.6	35.2126
84139.5	35.2147
84625.3	35.2169
85113.8	35.2192
85605.2	35.2217
86099.4	35.2244
86596.4	35.2272
87096.4	35.2301
87599.2	35.2331
88104.9	35.2363
88613.5	35.2397
89125.1	35.2431
89639.6	35.2467
90157.1	35.2505
90677.6	35.2543
91201.1	35.2583
91727.6	35.2625
92257.1	35.2667
92789.7	35.2711
93325.4	35.2756
93864.2	35.2802
94406.1	35.285
94951.1	35.2899
95499.3	35.2949
96050.6	35.3
96605.1	35.3053
97162.8	35.3107
97723.7	35.3162
98287.9	35.3218
98855.3	35.3275
99426	35.3334
100000	35.3394
100577	35.3455
101158	35.3517
101742	35.358
102329	35.3644
102920	35.371
103514	35.3776
104112	35.3844
104713	35.3913
105317	35.3983
105925	35.4054
106537	35.4126
107152	35.4199
107771	35.4273
108393	35.4348
109018	35.4424
109648	35.4502
110281	35.458
110917	35.4659
111558	35.474
112202	35.4821
112850	35.4904
113501	35.4987
114156	35.5071
114815	35.5157
115478	35.5243
116145	35.533
116815	35.5419
117490	35.5508
118168	35.5598
118850	35.5689
119536	35.5781
120226	35.5874
120921	35.5968
121619	35.6062
122321	35.6158
123027	35.6255
123737	35.6352
124451	35.645
125170	35.6549
125893	35.6649
126619	35.675
127350	35.6852
128086	35.6954
128825	35.7058
129569	35.7162
130317	35.7267
131069	35.7373
131826	35.7479
132587	35.7587
133352	35.7695
134122	35.7804
134896	35.7914
135675	35.8024
136458	35.8136
137246	35.8248
138038	35.8361
138835	35.8474
139637	35.8589
140443	35.8704
141254	35.882
142069	35.8936
142889	35.9053
143714	35.9171
144544	35.929
145378	35.9409
146218	35.9529
147062	35.965
147911	35.9772
148765	35.9894
149624	36.0016
150487	36.014
151356	36.0264
152230	36.0389
153109	36.0514
153993	36.064
154882	36.0767
155776	36.0894
156675	36.1022
157580	36.1151
158489	36.128
159404	36.141
160325	36.154
161250	36.1671
162181	36.1802
163117	36.1935
164059	36.2067
165006	36.2201
165959	36.2334
166917	36.2469
167880	36.2604
168850	36.2739
169824	36.2876
170805	36.3012
171791	36.3149
172783	36.3287
173780	36.3425
174783	36.3564
175792	36.3703
176807	36.3843
177828	36.3984
178855	36.4124
179887	36.4266
180926	36.4408
181970	36.455
183021	36.4693
184077	36.4836
185140	36.498
186209	36.5124
187284	36.5269
188365	36.5414
189452	36.5559
190546	36.5705
191646	36.5852
192752	36.5999
193865	36.6146
194984	36.6294
196110	36.6443
197242	36.6591
198381	36.674
199526	36.689
200678	36.704
201837	36.719
203002	36.7341
204174	36.7492
205353	36.7644
206538	36.7796
207730	36.7948
208930	36.8101
210136	36.8254
211349	36.8408
212569	36.8561
213796	36.8716
215030	36.887
216272	36.9025
217520	36.9181
218776	36.9336
220039	36.9492
221309	36.9649
222587	36.9806
223872	36.9963
225165	37.012
226464	37.0278
227772	37.0436
229087	37.0594
230409	37.0753
231739	37.0912
233077	37.1072
234423	37.1231
235776	37.1391
237137	37.1552
238506	37.1712
239883	37.1873
241268	37.2034
242661	37.2196
244062	37.2358
245471	37.252
246888	37.2682
248313	37.2845
249747	37.3007
251189	37.3171
252639	37.3334
254097	37.3498
255564	37.3662
257040	37.3826
258523	37.399
260016	37.4155
261517	37.432
263027	37.4485
264545	37.4651
266073	37.4817
267609	37.4983
269153	37.5149
270707	37.5315
272270	37.5482
273842	37.5649
275423	37.5816
277013	37.5983
278612	37.6151
280221	37.6319
281838	37.6486
283465	37.6655
285102	37.6823
286748	37.6992
288403	37.716
290068	37.7329
291743	37.7499
293427	37.7668
295121	37.7838
296825	37.8007
298538	37.8177
300262	37.8348
301995	37.8518
303739	37.8688
305492	37.8859
307256	37.903
309030	37.9201
310814	37.9372
312608	37.9544
314413	37.9715
316228	37.9887
318053	38.0059
319890	38.0231
321736	38.0403
323594	38.0575
325462	38.0748
327341	38.092
329230	38.1093
331131	38.1266
333043	38.1439
334965	38.1612
336899	38.1786
338844	38.1959
340800	38.2133
342768	38.2307
344747	38.2481
346737	38.2655
348739	38.2829
350752	38.3003
352777	38.3177
354813	38.3352
356862	38.3526
358922	38.3701
360994	38.3876
363078	38.4051
365174	38.4226
367282	38.4401
369403	38.4577
371535	38.4752
373680	38.4927
375837	38.5103
378007	38.5279
380189	38.5455
382384	38.5631
384592	38.5807
386812	38.5983
389045	38.6159
391291	38.6335
393550	38.6511
395822	38.6688
398107	38.6864
400405	38.7041
402717	38.7218
405042	38.7394
407380	38.7571
409732	38.7748
412098	38.7925
414477	38.8102
416869	38.8279
419276	38.8457
421697	38.8634
424131	38.8811
426580	38.8989
429042	38.9166
431519	38.9344
434010	38.9521
436516	38.9699
439036	38.9877
441570	39.0055
444120	39.0232
446684	39.041
449262	39.0588
451856	39.0766
454465	39.0944
457088	39.1122
459727	39.13
462381	39.1479
465050	39.1657
467735	39.1835
470435	39.2013
473151	39.2192
475883	39.237
478630	39.2549
481393	39.2727
484172	39.2906
486968	39.3084
489779	39.3263
492606	39.3441
495450	39.362
498310	39.3799
501187	39.3977
504081	39.4156
506991	39.4335
509918	39.4514
512861	39.4692
515822	39.4871
518800	39.505
521795	39.5229
524807	39.5408
527837	39.5587
530884	39.5766
533949	39.5945
537032	39.6124
540132	39.6303
543250	39.6482
546387	39.6661
549541	39.684
552713	39.7019
555904	39.7198
559114	39.7377
562341	39.7556
565588	39.7735
568853	39.7914
572137	39.8093
575440	39.8272
578762	39.8451
582103	39.863
585464	39.881
588844	39.8989
592243	39.9168
595662	39.9347
599101	39.9526
602560	39.9705
606038	39.9884
609537	40.0063
613056	40.0242
616595	40.0421
620155	40.06
623735	40.0779
627336	40.0958
630957	40.1138
634600	40.1317
638263	40.1496
641948	40.1675
645654	40.1854
649382	40.2033
653131	40.2212
656901	40.2391
660693	40.2569
664508	40.2748
668344	40.2927
672202	40.3106
676083	40.3285
679986	40.3464
683912	40.3643
687860	40.3822
691831	40.4
695825	40.4179
699842	40.4358
703882	40.4537
707946	40.4715
712033	40.4894
716143	40.5073
720278	40.5251
724436	40.543
728618	40.5609
732825	40.5787
737055	40.5966
741310	40.6144
745590	40.6323
749894	40.6501
754223	40.668
758578	40.6858
762957	40.7036
767361	40.7215
771792	40.7393
776247	40.7571
780728	40.775
785236	40.7928
789769	40.8106
794328	40.8284
798914	40.8462
803526	40.864
808165	40.8818
812831	40.8996
817523	40.9174
822243	40.9352
826990	40.953
831764	40.9708
836566	40.9886
841395	41.0064
846253	41.0241
851138	41.0419
856052	41.0597
860994	41.0774
865964	41.0952
870964	41.1129
875992	41.1307
881049	41.1484
886135	41.1662
891251	41.1839
896396	41.2017
901571	41.2194
906776	41.2371
912011	41.2548
917276	41.2725
922571	41.2902
927897	41.308
933254	41.3257
938642	41.3434
944061	41.361
949511	41.3787
954993	41.3964
960506	41.4141
966051	41.4318
971628	41.4494
977237	41.4671
982879	41.4847
988553	41.5024
994260	41.52
1e+06	41.5377
1.00577e+06	41.5553
1.01158e+06	41.573
1.01742e+06	41.5906
1.02329e+06	41.6082
1.0292e+06	41.6258
1.03514e+06	41.6434
1.04112e+06	41.661
1.04713e+06	41.6787
1.05317e+06	41.6962
1.05925e+06	41.7138
1.06537e+06	41.7314
1.07152e+06	41.749
1.07771e+06	41.7666
1.08393e+06	41.7841
1.09018e+06	41.8017
1.09648e+06	41.8193
1.10281e+06	41.8368
1.10917e+06	41.8544
1.11558e+06	41.8719
1.12202e+06	41.8894
1.1285e+06	41.907
1.13501e+06	41.9245
1.14156e+06	41.942
1.14815e+06	41.9595
1.15478e+06	41.977
1.16145e+06	41.9945
1.16815e+06	42.012
1.1749e+06	42.0295
1.18168e+06	42.047
1.1885e+06	42.0645
1.19536e+06	42.082
1.20226e+06	42.0994
1.20921e+06	42.1169
1.21619e+06	42.1344
1.22321e+06	42.1518
1.23027e+06	42.1692
1.23737e+06	42.1867
1.24451e+06	42.2041
1.2517e+06	42.2215
1.25893e+06	42.239
1.26619e+06	42.2564
1.2735e+06	42.2738
1.28086e+06	42.2912
1.28825e+06	42.3086
1.29569e+06	42.326
1.30317e+06	42.3433
1.31069e+06	42.3607
1.31826e+06	42.3781
1.32587e+06	42.3955
1.33352e+06	42.4128
1.34122e+06	42.4302
1.34896e+06	42.4475
1.35675e+06	42.4648
1.36458e+06	42.4822
1.37246e+06	42.4995
1.38038e+06	42.5168
1.38835e+06	42.5341
1.39637e+06	42.5514
1.40443e+06	42.5687
1.41254e+06	42.586
1.42069e+06	42.6033
1.42889e+06	42.6206
1.43714e+06	42.6379
1.44544e+06	42.6551
1.45378e+06	42.6724
1.46218e+06	42.6897
1.47062e+06	42.7069
1.47911e+06	42.7242
1.48765e+06	42.7414
1.49624e+06	42.7586
1.50487e+06	42.7758
1.51356e+06	42.7931
1.5223e+06	42.8103
1.53109e+06	42.8275
1.53993e+06	42.8447
1.54882e+06	42.8619
1.55776e+06	42.879
1.56675e+06	42.8962
1.5758e+06	42.9134
1.58489e+06	42.9305
1.59404e+06	42.9477
1.60325e+06	42.9649
1.6125e+06	42.982
1.62181e+06	42.9991
1.63117e+06	43.0163
1.64059e+06	43.0334
1.65006e+06	43.0505
1.65959e+06	43.0676
1.66917e+06	43.0847
1.6788e+06	43.1018
1.6885e+06	43.1189
1.69824e+06	43.136
1.70805e+06	43.153
1.71791e+06	43.1701
1.72783e+06	43.1872
1.7378e+06	43.2042
1.74783e+06	43.2213
1.75792e+06	43.2383
1.76807e+06	43.2553
1.77828e+06	43.2724
1.78855e+06	43.2894
1.79887e+06	43.3064
1.80926e+06	43.3234
1.8197e+06	43.3404
1.83021e+06	43.3574
1.84077e+06	43.3744
1.8514e+06	43.3914
1.86209e+06	43.4083
1.87284e+06	43.4253
1.88365e+06	43.4423
1.89452e+06	43.4592
1.90546e+06	43.4761
1.91646e+06	43.4931
1.92752e+06	43.51
1.93865e+06	43.5269
1.94984e+06	43.5438
1.9611e+06	43.5608
1.97242e+06	43.5777
1.98381e+06	43.5945
1.99526e+06	43.6114
2.00678e+06	43.6283
2.01837e+06	43.6452
2.03002e+06	43.662
2.04174e+06	43.6789
2.05353e+06	43.6958
2.06538e+06	43.7126
2.0773e+06	43.7294
2.0893e+06	43.7463
2.10136e+06	43.7631
2.11349e+06	43.7799
2.12569e+06	43.7967
2.13796e+06	43.8135
2.1503e+06	43.8303
2.16272e+06	43.8471
2.1752e+06	43.8639
2.18776e+06	43.8806
2.20039e+06	43.8974
2.21309e+06	43.9141
2.22587e+06	43.9309
2.23872e+06	43.9476
2.25165e+06	43.9644
2.26464e+06	43.9811
2.27772e+06	43.9978
2.29087e+06	44.0145
2.30409e+06	44.0312
2.31739e+06	44.0479
2.33077e+06	44.0646
2.34423e+06	44.0813
2.35776e+06	44.098
2.37137e+06	44.1147
2.38506e+06	44.1313
2.39883e+06	44.148
2.41268e+06	44.1646
2.42661e+06	44.1813
2.44062e+06	44.1979
2.45471e+06	44.2145
2.46888e+06	44.2311
2.48313e+06	44.2477
2.49747e+06	44.2643
2.51189e+06	44.2809
2.52639e+06	44.2975
2.54097e+06	44.3141
2.55564e+06	44.3307
2.5704e+06	44.3472
2.58523e+06	44.3638
2.60016e+06	44.3804
2.61517e+06	44.3969
2.63027e+06	44.4134
2.64545e+06	44.43
2.66073e+06	44.4465
2.67609e+06	44.463
2.69153e+06	44.4795
2.70707e+06	44.496
2.7227e+06	44.5125
2.73842e+06	44.529
2.75423e+06	44.5455
2.77013e+06	44.5619
2.78612e+06	44.5784
2.80221e+06	44.5948
2.81838e+06	44.6113
2.83465e+06	44.6277
2.85102e+06	44.6442
2.86748e+06	44.6606
2.88403e+06	44.677
2.90068e+06	44.6934
2.91743e+06	44.7098
2.93427e+06	44.7262
2.95121e+06	44.7426
2.96825e+06	44.759
2.98538e+06	44.7753
3.00262e+06	44.7917
3.01995e+06	44.8081
3.03739e+06	44.8244
3.05492e+06	44.8407
3.07256e+06	44.8571
3.0903e+06	44.8734
3.10814e+06	44.8897
3.12608e+06	44.906
3.14413e+06	44.9223
3.16228e+06	44.9386
3.18053e+06	44.9549
3.1989e+06	44.9712
3.21736e+06	44.9875
3.23594e+06	45.0037
3.25462e+06	45.02
3.27341e+06	45.0362
3.2923e+06	45.0525
3.31131e+06	45.0687
3.33043e+06	45.0849
3.34965e+06	45.1012
3.36899e+06	45.1174
3.38844e+06	45.1336
3.408e+06	45.1498
3.42768e+06	45.166
3.44747e+06	45.1821
3.46737e+06	45.1983
3.48739e+06	45.2145
3.50752e+06	45.2306
3.52777e+06	45.2468
3.54813e+06	45.2629
3.56862e+06	45.2791
3.58922e+06	45.2952
3.60994e+06	45.3113
3.63078e+06	45.3274
3.65174e+06	45.3435
3.67282e+06	45.3596
3.69403e+06	45.3757
3.71535e+06	45.3918
3.7368e+06	45.4078
3.75837e+06	45.4239
3.78007e+06	45.44
3.80189e+06	45.456
3.82384e+06	45.4721
3.84592e+06	45.4881
3.86812e+06	45.5041
3.89045e+06	45.5201
3.91291e+06	45.5361
3.9355e+06	45.5521
3.95822e+06	45.5681
3.98107e+06	45.5841
4.00405e+06	45.6001
4.02717e+06	45.6161
4.05042e+06	45.632
4.0738e+06	45.648
4.09732e+06	45.6639
4.12098e+06	45.6799
4.14477e+06	45.6958
4.16869e+06	45.7117
4.19276e+06	45.7276
4.21697e+06	45.7436
4.24131e+06	45.7594
4.2658e+06	45.7753
4.29042e+06	45.7912
4.31519e+06	45.8071
4.3401e+06	45.823
4.36516e+06	45.8388
4.39036e+06	45.8547
4.4157e+06	45.8705
4.4412e+06	45.8864
4.46684e+06	45.9022
4.49262e+06	45.918
4.51856e+06	45.9338
4.54465e+06	45.9496
4.57088e+06	45.9654
4.59727e+06	45.9812
4.62381e+06	45.997
4.6505e+06	46.0128
4.67735e+06	46.0285
4.70435e+06	46.0443
4.73151e+06	46.06
4.75883e+06	46.0758
4.7863e+06	46.0915
4.81393e+06	46.1072
4.84172e+06	46.1229
4.86968e+06	46.1386
4.89779e+06	46.1543
4.92606e+06	46.17
4.9545e+06	46.1857
4.9831e+06	46.2014
5.01187e+06	46.2171
5.04081e+06	46.2327
5.06991e+06	46.2484
5.09918e+06	46.264
5.12861e+06	46.2797
5.15822e+06	46.2953
5.188e+06	46.3109
5.21795e+06	46.3265
5.24807e+06	46.3421
5.27837e+06	46.3577
5.30884e+06	46.3733
5.33949e+06	46.3889
5.37032e+06	46.4044
5.40132e+06	46.42
5.4325e+06	46.4356
5.46387e+06	46.4511
5.49541e+06	46.4666
5.52713e+06	46.4822
5.55904e+06	46.4977
5.59114e+06	46.5132
5.62341e+06	46.5287
5.65588e+06	46.5442
5.68853e+06	46.5597
5.72137e+06	46.5752
5.7544e+06	46.5907
5.78762e+06	46.6061
5.82103e+06	46.6216
5.85464e+06	46.637
5.88844e+06	46.6525
5.92243e+06	46.6679
5.95662e+06	46.6833
5.99101e+06	46.6987
6.0256e+06	46.7141
6.06038e+06	46.7295
6.09537e+06	46.7449
6.13056e+06	46.7603
6.16595e+06	46.7757
6.20155e+06	46.791
6.23735e+06	46.8064
6.27336e+06	46.8217
6.30957e+06	46.8371
6.346e+06	46.8524
6.38263e+06	46.8677
6.41948e+06	46.8831
6.45654e+06	46.8984
6.49382e+06	46.9137
6.53131e+06	46.9289
6.56901e+06	46.9442
6.60693e+06	46.9595
6.64508e+06	46.9748
6.68344e+06	46.99
6.72202e+06	47.0053
6.76083e+06	47.0205
6.79986e+06	47.0357
6.83912e+06	47.051
6.8786e+06	47.0662
6.91831e+06	47.0814
6.95825e+06	47.0966
6.99842e+06	47.1118
7.03882e+06	47.1269
7.07946e+06	47.1421
7.12033e+06	47.1573
7.16143e+06	47.1724
7.20278e+06	47.1876
7.24436e+06	47.2027
7.28618e+06	47.2178
7.32825e+06	47.233
7.37055e+06	47.2481
7.4131e+06	47.2632
7.4559e+06	47.2783
7.49894e+06	47.2934
7.54223e+06	47.3084
7.58578e+06	47.3235
7.62957e+06	47.3386
7.67361e+06	47.3536
7.71792e+06	47.3687
7.76247e+06	47.3837
7.80728e+06	47.3987
7.85236e+06	47.4137
7.89769e+06	47.4288
7.94328e+06	47.4438
7.98914e+06	47.4587
8.03526e+06	47.4737
8.08165e+06	47.4887
8.12831e+06	47.5037
8.17523e+06	47.5186
8.22243e+06	47.5336
8.2699e+06	47.5485
8.31764e+06	47.5634
8.36566e+06	47.5784
8.41395e+06	47.5933
8.46253e+06	47.6082
8.51138e+06	47.6231
8.56052e+06	47.638
8.60994e+06	47.6529
8.65964e+06	47.6677
8.70964e+06	47.6826
8.75992e+06	47.6974
8.81049e+06	47.7123
8.86135e+06	47.7271
8.91251e+06	47.7419
8.96396e+06	47.7568
9.01571e+06	47.7716
9.06776e+06	47.7864
9.12011e+06	47.8012
9.17276e+06	47.8159
9.22571e+06	47.8307
9.27897e+06	47.8455
9.33254e+06	47.8602
9.38642e+06	47.875
9.44061e+06	47.8897
9.49511e+06	47.9045
9.54993e+06	47.9192
9.60506e+06	47.9339
9.66051e+06	47.9486
9.71628e+06	47.9633
9.77237e+06	47.978
9.82879e+06	47.9926
9.88553e+06	48.0073
9.9426e+06	48.022
1e+07	48.0366
