Stopping power dEdx from Ionisation for Ar40[0.0] Z = 18 in G4_Si, process name: ionIoni
E [MeV]	dEdx [MeV/mm]
0.001	31.3497
0.00100577	31.4408
0.00101158	31.5321
0.00101742	31.6238
0.00102329	31.7156
0.0010292	31.8078
0.00103514	31.9002
0.00104112	31.9928
0.00104713	32.0858
0.00105317	32.179
0.00105925	32.2724
0.00106537	32.3662
0.00107152	32.4602
0.00107771	32.5545
0.00108393	32.649
0.00109018	32.7439
0.00109648	32.839
0.00110281	32.9343
0.00110917	33.03
0.00111558	33.1259
0.00112202	33.2221
0.0011285	33.3186
0.00113501	33.4153
0.00114156	33.5124
0.00114815	33.6097
0.00115478	33.7073
0.00116145	33.8052
0.00116815	33.9033
0.0011749	34.0018
0.00118168	34.1005
0.0011885	34.1995
0.00119536	34.2988
0.00120226	34.3984
0.00120921	34.4982
0.00121619	34.5984
0.00122321	34.6988
0.00123027	34.7996
0.00123737	34.9006
0.00124451	35.0019
0.0012517	35.1035
0.00125893	35.2054
0.00126619	35.3076
0.0012735	35.4101
0.00128086	35.5129
0.00128825	35.616
0.00129569	35.7194
0.00130317	35.823
0.00131069	35.927
0.00131826	36.0313
0.00132587	36.1359
0.00133352	36.2407
0.00134122	36.3459
0.00134896	36.4514
0.00135675	36.5572
0.00136458	36.6633
0.00137246	36.7697
0.00138038	36.8764
0.00138835	36.9834
0.00139637	37.0907
0.00140443	37.1983
0.00141254	37.3063
0.00142069	37.4145
0.00142889	37.5231
0.00143714	37.632
0.00144544	37.7411
0.00145378	37.8506
0.00146218	37.9605
0.00147062	38.0706
0.00147911	38.1811
0.00148765	38.2918
0.00149624	38.4029
0.00150487	38.5143
0.00151356	38.6261
0.0015223	38.7381
0.00153109	38.8505
0.00153993	38.9632
0.00154882	39.0762
0.00155776	39.1896
0.00156675	39.3033
0.0015758	39.4173
0.00158489	39.5316
0.00159404	39.6463
0.00160325	39.7613
0.0016125	39.8766
0.00162181	39.9922
0.00163117	40.1082
0.00164059	40.2246
0.00165006	40.3412
0.00165959	40.4582
0.00166917	40.5756
0.0016788	40.6932
0.0016885	40.8112
0.00169824	40.9296
0.00170805	41.0483
0.00171791	41.1673
0.00172783	41.2867
0.0017378	41.4064
0.00174783	41.5265
0.00175792	41.6469
0.00176807	41.7677
0.00177828	41.8888
0.00178855	42.0102
0.00179887	42.132
0.00180926	42.2542
0.0018197	42.3767
0.00183021	42.4996
0.00184077	42.6228
0.0018514	42.7464
0.00186209	42.8703
0.00187284	42.9946
0.00188365	43.1192
0.00189452	43.2442
0.00190546	43.3696
0.00191646	43.4953
0.00192752	43.6214
0.00193865	43.7479
0.00194984	43.8747
0.0019611	44.0019
0.00197242	44.1294
0.00198381	44.2574
0.00199526	44.3856
0.00200678	44.5143
0.00201837	44.6433
0.00203002	44.7727
0.00204174	44.9025
0.00205353	45.0326
0.00206538	45.1632
0.0020773	45.2941
0.0020893	45.4253
0.00210136	45.557
0.00211349	45.689
0.00212569	45.8214
0.00213796	45.9542
0.0021503	46.0874
0.00216272	46.221
0.0021752	46.3549
0.00218776	46.4892
0.00220039	46.624
0.00221309	46.7591
0.00222587	46.8946
0.00223872	47.0304
0.00225165	47.1667
0.00226464	47.3034
0.00227772	47.4405
0.00229087	47.5779
0.00230409	47.7158
0.00231739	47.854
0.00233077	47.9927
0.00234423	48.1317
0.00235776	48.2712
0.00237137	48.411
0.00238506	48.5513
0.00239883	48.692
0.00241268	48.833
0.00242661	48.9745
0.00244062	49.1164
0.00245471	49.2587
0.00246888	49.4014
0.00248313	49.5445
0.00249747	49.688
0.00251189	49.832
0.00252639	49.9763
0.00254097	50.1211
0.00255564	50.2663
0.0025704	50.4119
0.00258523	50.5579
0.00260016	50.7044
0.00261517	50.8512
0.00263027	50.9985
0.00264545	51.1462
0.00266073	51.2944
0.00267609	51.4429
0.00269153	51.5919
0.00270707	51.7414
0.0027227	51.8912
0.00273842	52.0415
0.00275423	52.1922
0.00277013	52.3434
0.00278612	52.495
0.00280221	52.647
0.00281838	52.7995
0.00283465	52.9524
0.00285102	53.1057
0.00286748	53.2595
0.00288403	53.4138
0.00290068	53.5684
0.00291743	53.7236
0.00293427	53.8791
0.00295121	54.0352
0.00296825	54.1916
0.00298538	54.3485
0.00300262	54.5059
0.00301995	54.6637
0.00303739	54.822
0.00305492	54.9808
0.00307256	55.14
0.0030903	55.2996
0.00310814	55.4597
0.00312608	55.6203
0.00314413	55.7813
0.00316228	55.9428
0.00318053	56.1048
0.0031989	56.2672
0.00321736	56.4301
0.00323594	56.5935
0.00325462	56.7574
0.00327341	56.9217
0.0032923	57.0865
0.00331131	57.2517
0.00333043	57.4175
0.00334965	57.5837
0.00336899	57.7504
0.00338844	57.9176
0.003408	58.0852
0.00342768	58.2534
0.00344747	58.422
0.00346737	58.5911
0.00348739	58.7607
0.00350752	58.9308
0.00352777	59.1014
0.00354813	59.2725
0.00356862	59.444
0.00358922	59.6161
0.00360994	59.7886
0.00363078	59.9617
0.00365174	60.1352
0.00367282	60.3093
0.00369403	60.4838
0.00371535	60.6589
0.0037368	60.8345
0.00375837	61.0105
0.00378007	61.1871
0.00380189	61.3642
0.00382384	61.5418
0.00384592	61.7199
0.00386812	61.8985
0.00389045	62.0776
0.00391291	62.2573
0.0039355	62.4375
0.00395822	62.6182
0.00398107	62.7994
0.00400405	62.9811
0.00402717	63.1633
0.00405042	63.3461
0.0040738	63.5294
0.00409732	63.7133
0.00412098	63.8976
0.00414477	64.0825
0.00416869	64.268
0.00419276	64.4539
0.00421697	64.6404
0.00424131	64.8275
0.0042658	65.015
0.00429042	65.2032
0.00431519	65.3918
0.0043401	65.581
0.00436516	65.7708
0.00439036	65.9611
0.0044157	66.1519
0.0044412	66.3433
0.00446684	66.5352
0.00449262	66.7277
0.00451856	66.9208
0.00454465	67.1144
0.00457088	67.3086
0.00459727	67.5033
0.00462381	67.6986
0.0046505	67.8945
0.00467735	68.0909
0.00470435	68.2879
0.00473151	68.4854
0.00475883	68.6835
0.0047863	68.8822
0.00481393	69.0815
0.00484172	69.2813
0.00486968	69.4817
0.00489779	69.6827
0.00492606	69.8843
0.0049545	70.0864
0.0049831	70.2892
0.00501187	70.4925
0.00504081	70.6964
0.00506991	70.9009
0.00509918	71.106
0.00512861	71.3117
0.00515822	71.5179
0.005188	71.7248
0.00521795	71.9322
0.00524807	72.1403
0.00527837	72.349
0.00530884	72.5582
0.00533949	72.7681
0.00537032	72.9785
0.00540132	73.1896
0.0054325	73.4013
0.00546387	73.6136
0.00549541	73.8265
0.00552713	74.04
0.00555904	74.2541
0.00559114	74.4689
0.00562341	74.6842
0.00565588	74.9002
0.00568853	75.1168
0.00572137	75.3341
0.0057544	75.5519
0.00578762	75.7704
0.00582103	75.9895
0.00585464	76.2093
0.00588844	76.4297
0.00592243	76.6507
0.00595662	76.8723
0.00599101	77.0946
0.0060256	77.3176
0.00606038	77.5412
0.00609537	77.7654
0.00613056	77.9902
0.00616595	78.2158
0.00620155	78.4419
0.00623735	78.6687
0.00627336	78.8962
0.00630957	79.1243
0.006346	79.3531
0.00638263	79.5826
0.00641948	79.8127
0.00645654	80.0435
0.00649382	80.2749
0.00653131	80.507
0.00656901	80.7398
0.00660693	80.9732
0.00664508	81.2073
0.00668344	81.4421
0.00672202	81.6776
0.00676083	81.9137
0.00679986	82.1505
0.00683912	82.3881
0.0068786	82.6262
0.00691831	82.8651
0.00695825	83.1047
0.00699842	83.345
0.00703882	83.5859
0.00707946	83.8276
0.00712033	84.0699
0.00716143	84.3129
0.00720278	84.5567
0.00724436	84.8011
0.00728618	85.0463
0.00732825	85.2921
0.00737055	85.5387
0.0074131	85.786
0.0074559	86.0339
0.00749894	86.2827
0.00754223	86.5321
0.00758578	86.7822
0.00762957	87.0331
0.00767361	87.2846
0.00771792	87.537
0.00776247	87.79
0.00780728	88.0438
0.00785236	88.2982
0.00789769	88.5535
0.00794328	88.8094
0.00798914	89.0661
0.00803526	89.3236
0.00808165	89.5818
0.00812831	89.8407
0.00817523	90.1004
0.00822243	90.3608
0.0082699	90.622
0.00831764	90.8839
0.00836566	91.1466
0.00841395	91.41
0.00846253	91.6742
0.00851138	91.9392
0.00856052	92.2049
0.00860994	92.4714
0.00865964	92.7386
0.00870964	93.0067
0.00875992	93.2755
0.00881049	93.545
0.00886135	93.8154
0.00891251	94.0865
0.00896396	94.3584
0.00901571	94.6311
0.00906776	94.9046
0.00912011	95.1789
0.00917276	95.4539
0.00922571	95.7298
0.00927897	96.0064
0.00933254	96.2839
0.00938642	96.5621
0.00944061	96.8412
0.00949511	97.121
0.00954993	97.4017
0.00960506	97.6832
0.00966051	97.9654
0.00971628	98.2485
0.00977237	98.5324
0.00982879	98.8172
0.00988553	99.1027
0.0099426	99.3891
0.01	99.9259
0.0100577	100.214
0.0101158	100.503
0.0101742	100.792
0.0102329	101.083
0.010292	101.374
0.0103514	101.667
0.0104112	101.96
0.0104713	102.253
0.0105317	102.548
0.0105925	102.844
0.0106537	103.14
0.0107152	103.438
0.0107771	103.736
0.0108393	104.035
0.0109018	104.335
0.0109648	104.635
0.0110281	104.937
0.0110917	105.239
0.0111558	105.543
0.0112202	105.847
0.011285	106.152
0.0113501	106.458
0.0114156	106.765
0.0114815	107.073
0.0115478	107.381
0.0116145	107.691
0.0116815	108.001
0.011749	108.312
0.0118168	108.625
0.011885	108.938
0.0119536	109.252
0.0120226	109.567
0.0120921	109.882
0.0121619	110.199
0.0122321	110.517
0.0123027	110.835
0.0123737	111.155
0.0124451	111.475
0.012517	111.796
0.0125893	112.119
0.0126619	112.442
0.012735	112.766
0.0128086	113.091
0.0128825	113.417
0.0129569	113.744
0.0130317	114.072
0.0131069	114.401
0.0131826	114.73
0.0132587	115.061
0.0133352	115.393
0.0134122	115.725
0.0134896	116.059
0.0135675	116.393
0.0136458	116.729
0.0137246	117.065
0.0138038	117.403
0.0138835	117.741
0.0139637	118.08
0.0140443	118.421
0.0141254	118.762
0.0142069	119.104
0.0142889	119.448
0.0143714	119.792
0.0144544	120.137
0.0145378	120.484
0.0146218	120.831
0.0147062	121.179
0.0147911	121.529
0.0148765	121.879
0.0149624	122.23
0.0150487	122.582
0.0151356	122.936
0.015223	123.29
0.0153109	123.645
0.0153993	124.002
0.0154882	124.359
0.0155776	124.718
0.0156675	125.077
0.015758	125.438
0.0158489	125.799
0.0159404	126.162
0.0160325	126.526
0.016125	126.89
0.0162181	127.256
0.0163117	127.623
0.0164059	127.991
0.0165006	128.36
0.0165959	128.73
0.0166917	129.101
0.016788	129.473
0.016885	129.846
0.0169824	130.22
0.0170805	130.595
0.0171791	130.972
0.0172783	131.349
0.017378	131.728
0.0174783	132.108
0.0175792	132.488
0.0176807	132.87
0.0177828	133.253
0.0178855	133.637
0.0179887	134.023
0.0180926	134.409
0.018197	134.796
0.0183021	135.185
0.0184077	135.575
0.018514	135.965
0.0186209	136.357
0.0187284	136.75
0.0188365	137.144
0.0189452	137.54
0.0190546	137.936
0.0191646	138.334
0.0192752	138.732
0.0193865	139.132
0.0194984	139.533
0.019611	139.936
0.0197242	140.339
0.0198381	140.743
0.0199526	141.149
0.0200678	141.556
0.0201837	141.964
0.0203002	142.373
0.0204174	142.784
0.0205353	143.195
0.0206538	143.608
0.020773	144.022
0.020893	144.437
0.0210136	144.853
0.0211349	145.271
0.0212569	145.689
0.0213796	146.109
0.021503	146.531
0.0216272	146.953
0.021752	147.376
0.0218776	147.801
0.0220039	148.227
0.0221309	148.655
0.0222587	149.083
0.0223872	149.513
0.0225165	149.944
0.0226464	150.376
0.0227772	150.809
0.0229087	151.244
0.0230409	151.68
0.0231739	152.117
0.0233077	152.556
0.0234423	152.995
0.0235776	153.436
0.0237137	153.879
0.0238506	154.322
0.0239883	154.767
0.0241268	155.213
0.0242661	155.66
0.0244062	156.109
0.0245471	156.559
0.0246888	157.01
0.0248313	157.463
0.0249747	157.917
0.0251189	158.372
0.0252639	158.828
0.0254097	159.286
0.0255564	159.745
0.025704	160.206
0.0258523	160.668
0.0260016	161.131
0.0261517	161.595
0.0263027	162.061
0.0264545	162.528
0.0266073	162.996
0.0267609	163.466
0.0269153	163.937
0.0270707	164.41
0.027227	164.884
0.0273842	165.359
0.0275423	165.836
0.0277013	166.314
0.0278612	166.793
0.0280221	167.274
0.0281838	167.756
0.0283465	168.24
0.0285102	168.724
0.0286748	169.211
0.0288403	169.699
0.0290068	170.188
0.0291743	170.678
0.0293427	171.17
0.0295121	171.664
0.0296825	172.158
0.0298538	172.655
0.0300262	173.152
0.0301995	173.651
0.0303739	174.152
0.0305492	174.654
0.0307256	175.157
0.030903	175.662
0.0310814	176.168
0.0312608	176.676
0.0314413	177.185
0.0316228	177.696
0.0318053	178.208
0.031989	178.722
0.0321736	179.237
0.0323594	179.754
0.0325462	180.272
0.0327341	180.792
0.032923	181.313
0.0331131	181.835
0.0333043	182.359
0.0334965	182.885
0.0336899	183.412
0.0338844	183.941
0.03408	184.471
0.0342768	185.003
0.0344747	185.536
0.0346737	186.071
0.0348739	186.607
0.0350752	187.145
0.0352777	187.684
0.0354813	188.225
0.0356862	188.768
0.0358922	189.312
0.0360994	189.858
0.0363078	190.405
0.0365174	190.954
0.0367282	191.504
0.0369403	192.056
0.0371535	192.61
0.037368	193.165
0.0375837	193.722
0.0378007	194.28
0.0380189	194.84
0.0382384	195.402
0.0384592	195.965
0.0386812	196.53
0.0389045	197.096
0.0391291	197.664
0.039355	198.234
0.0395822	198.805
0.0398107	199.378
0.0400405	199.953
0.0402717	200.529
0.0405042	201.107
0.040738	201.687
0.0409732	202.268
0.0412098	202.851
0.0414477	203.436
0.0416869	204.023
0.0419276	204.611
0.0421697	205.2
0.0424131	205.792
0.042658	206.385
0.0429042	206.98
0.0431519	207.576
0.043401	208.175
0.0436516	208.775
0.0439036	209.377
0.044157	209.98
0.044412	210.585
0.0446684	211.192
0.0449262	211.801
0.0451856	212.412
0.0454465	213.024
0.0457088	213.638
0.0459727	214.254
0.0462381	214.871
0.046505	215.491
0.0467735	216.112
0.0470435	216.735
0.0473151	217.359
0.0475883	217.986
0.047863	218.614
0.0481393	219.244
0.0484172	219.876
0.0486968	220.51
0.0489779	221.146
0.0492606	221.783
0.049545	222.422
0.049831	223.063
0.0501187	223.706
0.0504081	224.351
0.0506991	224.998
0.0509918	225.646
0.0512861	226.297
0.0515822	226.949
0.05188	227.603
0.0521795	228.259
0.0524807	228.917
0.0527837	229.577
0.0530884	230.239
0.0533949	230.902
0.0537032	231.568
0.0540132	232.235
0.054325	232.905
0.0546387	233.576
0.0549541	234.249
0.0552713	234.924
0.0555904	235.602
0.0559114	236.281
0.0562341	236.962
0.0565588	237.645
0.0568853	238.33
0.0572137	239.017
0.057544	239.706
0.0578762	240.397
0.0582103	241.089
0.0585464	241.784
0.0588844	242.481
0.0592243	243.18
0.0595662	243.881
0.0599101	244.584
0.060256	245.289
0.0606038	245.996
0.0609537	246.705
0.0613056	247.416
0.0616595	248.129
0.0620155	248.845
0.0623735	249.562
0.0627336	250.281
0.0630957	251.003
0.06346	251.726
0.0638263	252.452
0.0641948	253.179
0.0645654	253.909
0.0649382	254.641
0.0653131	255.375
0.0656901	256.111
0.0660693	256.849
0.0664508	257.589
0.0668344	258.332
0.0672202	259.077
0.0676083	259.823
0.0679986	260.572
0.0683912	261.323
0.068786	262.077
0.0691831	262.832
0.0695825	263.59
0.0699842	264.349
0.0703882	265.111
0.0707946	265.875
0.0712033	266.642
0.0716143	267.41
0.0720278	268.181
0.0724436	268.954
0.0728618	269.729
0.0732825	270.507
0.0737055	271.286
0.074131	272.068
0.074559	272.853
0.0749894	273.639
0.0754223	274.428
0.0758578	275.219
0.0762957	276.012
0.0767361	276.808
0.0771792	277.606
0.0776247	278.406
0.0780728	279.208
0.0785236	280.013
0.0789769	280.82
0.0794328	281.63
0.0798914	282.441
0.0803526	283.255
0.0808165	284.072
0.0812831	284.891
0.0817523	285.712
0.0822243	286.535
0.082699	287.361
0.0831764	288.189
0.0836566	289.02
0.0841395	289.853
0.0846253	290.689
0.0851138	291.527
0.0856052	292.367
0.0860994	293.21
0.0865964	294.055
0.0870964	294.902
0.0875992	295.752
0.0881049	296.605
0.0886135	297.46
0.0891251	298.317
0.0896396	299.177
0.0901571	300.039
0.0906776	300.904
0.0912011	301.771
0.0917276	302.641
0.0922571	303.514
0.0927897	304.388
0.0933254	305.266
0.0938642	306.146
0.0944061	307.028
0.0949511	307.913
0.0954993	308.801
0.0960506	309.691
0.0966051	310.583
0.0971628	311.479
0.0977237	312.376
0.0982879	313.277
0.0988553	314.18
0.099426	315.085
0.1	315.993
0.100577	316.904
0.101158	317.818
0.101742	318.734
0.102329	319.653
0.10292	320.574
0.103514	321.498
0.104112	322.425
0.104713	323.354
0.105317	324.286
0.105925	325.221
0.106537	326.158
0.107152	327.098
0.107771	328.041
0.108393	328.987
0.109018	329.935
0.109648	330.886
0.110281	331.84
0.110917	332.796
0.111558	333.755
0.112202	334.717
0.11285	335.682
0.113501	336.65
0.114156	337.62
0.114815	338.593
0.115478	339.569
0.116145	340.548
0.116815	341.529
0.11749	342.514
0.118168	343.501
0.11885	344.491
0.119536	345.484
0.120226	346.48
0.120921	347.479
0.121619	348.48
0.122321	349.485
0.123027	350.492
0.123737	351.502
0.124451	352.515
0.12517	353.532
0.125893	354.551
0.126619	355.572
0.12735	356.597
0.128086	357.625
0.128825	358.656
0.129569	359.69
0.130317	360.727
0.131069	361.766
0.131826	362.809
0.132587	363.855
0.133352	364.904
0.134122	365.955
0.134896	367.01
0.135675	368.068
0.136458	369.129
0.137246	370.193
0.138038	371.26
0.138835	372.33
0.139637	373.403
0.140443	374.48
0.141254	375.559
0.142069	376.641
0.142889	377.727
0.143714	378.816
0.144544	379.908
0.145378	381.003
0.146218	382.101
0.147062	383.202
0.147911	384.307
0.148765	385.415
0.149624	386.525
0.150487	387.64
0.151356	388.757
0.15223	389.877
0.153109	391.001
0.153993	392.128
0.154882	393.259
0.155776	394.392
0.156675	395.529
0.15758	396.669
0.158489	397.812
0.159404	398.959
0.160325	400.109
0.16125	401.262
0.162181	402.419
0.163117	403.579
0.164059	404.742
0.165006	405.909
0.165959	407.078
0.166917	408.252
0.16788	409.429
0.16885	410.609
0.169824	411.792
0.170805	412.979
0.171791	414.17
0.172783	415.363
0.17378	416.561
0.174783	417.761
0.175792	418.965
0.176807	420.173
0.177828	421.384
0.178855	422.599
0.179887	423.817
0.180926	425.038
0.18197	426.263
0.183021	427.492
0.184077	428.724
0.18514	429.96
0.186209	431.199
0.187284	432.442
0.188365	433.689
0.189452	434.939
0.190546	436.192
0.191646	437.45
0.192752	438.711
0.193865	439.975
0.194984	441.243
0.19611	442.515
0.197242	443.791
0.198381	445.07
0.199526	446.353
0.200678	447.639
0.201837	448.93
0.203002	450.223
0.204174	451.521
0.205353	452.823
0.206538	454.128
0.20773	455.437
0.20893	456.75
0.210136	458.066
0.211349	459.386
0.212569	460.711
0.213796	462.038
0.21503	463.37
0.216272	464.706
0.21752	466.045
0.218776	467.389
0.220039	468.736
0.221309	470.087
0.222587	471.442
0.223872	472.801
0.225165	474.164
0.226464	475.53
0.227772	476.901
0.229087	478.276
0.230409	479.654
0.231739	481.037
0.233077	482.423
0.234423	483.814
0.235776	485.208
0.237137	486.607
0.238506	488.009
0.239883	489.416
0.241268	490.827
0.242661	492.241
0.244062	493.66
0.245471	495.083
0.246888	496.51
0.248313	497.941
0.249747	499.377
0.251189	500.816
0.252639	502.259
0.254097	503.707
0.255564	505.159
0.25704	506.615
0.258523	508.075
0.260016	509.54
0.261517	511.009
0.263027	512.481
0.264545	513.959
0.266073	515.44
0.267609	516.926
0.269153	518.416
0.270707	519.91
0.27227	521.409
0.273842	522.911
0.275423	524.419
0.277013	525.93
0.278612	527.446
0.280221	528.966
0.281838	530.491
0.283465	532.02
0.285102	533.554
0.286748	535.092
0.288403	536.634
0.290068	538.181
0.291743	539.732
0.293427	541.288
0.295121	542.848
0.296825	544.413
0.298538	545.982
0.300262	547.556
0.301995	549.134
0.303739	550.717
0.305492	552.304
0.307256	553.896
0.30903	555.492
0.310814	557.094
0.312608	558.699
0.314413	560.31
0.316228	561.925
0.318053	563.544
0.31989	565.169
0.321736	566.798
0.323594	568.432
0.325462	570.07
0.327341	571.713
0.32923	573.361
0.331131	575.014
0.333043	576.671
0.334965	578.333
0.336899	580
0.338844	581.672
0.3408	583.349
0.342768	585.03
0.344747	586.716
0.346737	588.407
0.348739	590.103
0.350752	591.804
0.352777	593.51
0.354813	595.221
0.356862	596.937
0.358922	598.657
0.360994	600.383
0.363078	602.113
0.365174	603.849
0.367282	605.589
0.369403	607.335
0.371535	609.085
0.37368	610.841
0.375837	612.602
0.378007	614.367
0.380189	616.138
0.382384	617.914
0.384592	619.695
0.386812	621.481
0.389045	623.273
0.391291	625.069
0.39355	626.871
0.395822	628.678
0.398107	630.49
0.400405	632.307
0.402717	634.13
0.405042	635.958
0.40738	637.791
0.409732	639.629
0.412098	641.473
0.414477	643.322
0.416869	645.176
0.419276	647.036
0.421697	648.901
0.424131	650.771
0.42658	652.647
0.429042	654.528
0.431519	656.414
0.43401	658.307
0.436516	660.204
0.439036	662.107
0.44157	664.015
0.44412	665.929
0.446684	667.849
0.449262	669.774
0.451856	671.704
0.454465	673.64
0.457088	675.582
0.459727	677.529
0.462381	679.482
0.46505	681.441
0.467735	683.405
0.470435	685.375
0.473151	687.35
0.475883	689.332
0.47863	691.318
0.481393	693.311
0.484172	695.309
0.486968	697.314
0.489779	699.324
0.492606	701.339
0.49545	703.361
0.49831	705.388
0.501187	707.421
0.504081	709.46
0.506991	711.505
0.509918	713.556
0.512861	715.613
0.515822	717.676
0.5188	719.744
0.521795	721.819
0.524807	723.899
0.527837	725.986
0.530884	728.078
0.533949	730.177
0.537032	732.282
0.540132	734.392
0.54325	736.509
0.546387	738.632
0.549541	740.761
0.552713	742.896
0.555904	745.038
0.559114	747.185
0.562341	749.339
0.565588	751.499
0.568853	753.665
0.572137	755.837
0.57544	758.016
0.578762	760.2
0.582103	762.392
0.585464	764.589
0.588844	766.793
0.592243	769.003
0.595662	771.22
0.599101	773.443
0.60256	775.672
0.606038	777.908
0.609537	780.15
0.613056	782.399
0.616595	784.654
0.620155	786.916
0.623735	789.184
0.627336	791.458
0.630957	793.74
0.6346	796.028
0.638263	798.322
0.641948	800.623
0.645654	802.931
0.649382	805.245
0.653131	807.566
0.656901	809.894
0.660693	812.228
0.664508	814.57
0.668344	816.917
0.672202	819.272
0.676083	821.634
0.679986	824.002
0.683912	826.377
0.68786	828.759
0.691831	831.148
0.695825	833.543
0.699842	835.946
0.703882	838.355
0.707946	840.772
0.712033	843.195
0.716143	845.626
0.720278	848.063
0.724436	850.507
0.728618	852.959
0.732825	855.418
0.737055	857.883
0.74131	860.356
0.74559	862.836
0.749894	865.323
0.754223	867.817
0.758578	870.318
0.762957	872.827
0.767361	875.343
0.771792	877.866
0.776247	880.396
0.780728	882.934
0.785236	885.479
0.789769	888.031
0.794328	890.591
0.798914	893.158
0.803526	895.732
0.808165	898.314
0.812831	900.903
0.817523	903.5
0.822243	906.104
0.82699	908.716
0.831764	911.335
0.836566	913.962
0.841395	916.596
0.846253	919.238
0.851138	921.888
0.856052	924.545
0.860994	927.21
0.865964	929.883
0.870964	932.563
0.875992	935.251
0.881049	937.947
0.886135	940.65
0.891251	943.361
0.896396	946.081
0.901571	948.808
0.906776	951.542
0.912011	954.285
0.917276	957.036
0.922571	959.794
0.927897	962.561
0.933254	965.335
0.938642	968.118
0.944061	970.908
0.949511	973.707
0.954993	976.513
0.960506	979.328
0.966051	982.151
0.971628	984.982
0.977237	987.821
0.982879	990.668
0.988553	993.524
0.99426	996.387
1	999.259
1.00577	1002.5
1.01158	1005.76
1.01742	1009.03
1.02329	1012.32
1.0292	1015.63
1.03514	1018.96
1.04112	1022.3
1.04713	1025.66
1.05317	1029.04
1.05925	1032.43
1.06537	1035.84
1.07152	1039.27
1.07771	1042.72
1.08393	1046.18
1.09018	1049.66
1.09648	1053.16
1.10281	1056.67
1.10917	1060.21
1.11558	1063.76
1.12202	1067.32
1.1285	1070.91
1.13501	1074.51
1.14156	1078.13
1.14815	1081.77
1.15478	1085.43
1.16145	1089.1
1.16815	1092.79
1.1749	1096.5
1.18168	1100.23
1.1885	1103.97
1.19536	1107.73
1.20226	1111.45
1.20921	1115.04
1.21619	1118.66
1.22321	1122.29
1.23027	1125.94
1.23737	1129.6
1.24451	1133.28
1.2517	1136.98
1.25893	1140.7
1.26619	1144.43
1.2735	1148.17
1.28086	1151.94
1.28825	1155.72
1.29569	1159.51
1.30317	1163.32
1.31069	1167.15
1.31826	1171
1.32587	1174.86
1.33352	1178.74
1.34122	1182.63
1.34896	1186.54
1.35675	1190.46
1.36458	1194.41
1.37246	1198.36
1.38038	1202.34
1.38835	1206.33
1.39637	1210.33
1.40443	1214.35
1.41254	1218.39
1.42069	1222.44
1.42889	1226.5
1.43714	1230.59
1.44544	1234.68
1.45378	1238.79
1.46218	1242.92
1.47062	1247.06
1.47911	1251.22
1.48765	1255.39
1.49624	1259.58
1.50487	1263.78
1.51356	1267.99
1.5223	1272.22
1.53109	1276.46
1.53993	1280.72
1.54882	1284.99
1.55776	1289.27
1.56675	1293.57
1.5758	1297.88
1.58489	1302.2
1.59404	1306.54
1.60325	1310.87
1.6125	1315.18
1.62181	1319.5
1.63117	1323.83
1.64059	1328.17
1.65006	1332.53
1.65959	1336.9
1.66917	1341.28
1.6788	1345.68
1.6885	1350.09
1.69824	1354.51
1.70805	1358.94
1.71791	1363.39
1.72783	1367.85
1.7378	1372.32
1.74783	1376.81
1.75792	1381.31
1.76807	1385.82
1.77828	1390.35
1.78855	1394.89
1.79887	1399.45
1.80926	1404.01
1.8197	1408.6
1.83021	1413.19
1.84077	1417.81
1.8514	1422.43
1.86209	1427.07
1.87284	1431.73
1.88365	1436.4
1.89452	1441.09
1.90546	1445.79
1.91646	1450.51
1.92752	1455.24
1.93865	1459.99
1.94984	1464.75
1.9611	1469.53
1.97242	1474.33
1.98381	1479.14
1.99526	1483.97
2.00678	1488.82
2.01837	1493.69
2.03002	1498.57
2.04174	1503.46
2.05353	1508.38
2.06538	1513.32
2.0773	1518.27
2.0893	1523.24
2.10136	1528.23
2.11349	1533.24
2.12569	1538.27
2.13796	1543.32
2.1503	1548.39
2.16272	1553.48
2.1752	1558.58
2.18776	1563.71
2.20039	1568.86
2.21309	1574.03
2.22587	1579.23
2.23872	1584.44
2.25165	1589.68
2.26464	1594.94
2.27772	1600.22
2.29087	1605.53
2.30409	1610.85
2.31739	1616.21
2.33077	1621.58
2.34423	1626.99
2.35776	1632.41
2.37137	1637.87
2.38506	1643.34
2.39883	1648.85
2.41268	1654.38
2.42661	1659.94
2.44062	1665.52
2.45471	1671.14
2.46888	1676.78
2.48313	1682.45
2.49747	1688.14
2.51189	1693.87
2.52639	1699.62
2.54097	1705.4
2.55564	1711.22
2.5704	1717.06
2.58523	1722.93
2.60016	1728.83
2.61517	1734.75
2.63027	1740.71
2.64545	1746.7
2.66073	1752.72
2.67609	1758.78
2.69153	1764.86
2.70707	1770.97
2.7227	1777.12
2.73842	1783.3
2.75423	1789.51
2.77013	1795.75
2.78612	1802.03
2.80221	1808.34
2.81838	1814.68
2.83465	1821.06
2.85102	1827.47
2.86748	1833.91
2.88403	1840.38
2.90068	1846.89
2.91743	1853.44
2.93427	1860.01
2.95121	1866.62
2.96825	1873.26
2.98538	1879.93
3.00262	1886.64
3.01995	1893.37
3.03739	1900.14
3.05492	1906.94
3.07256	1913.77
3.0903	1920.64
3.10814	1927.53
3.12608	1934.46
3.14413	1941.41
3.16228	1948.4
3.18053	1955.41
3.1989	1962.46
3.21736	1969.54
3.23594	1976.64
3.25462	1983.77
3.27341	1990.94
3.2923	1998.13
3.31131	2005.35
3.33043	2012.59
3.34965	2019.87
3.36899	2027.17
3.38844	2034.5
3.408	2041.85
3.42768	2049.23
3.44747	2056.63
3.46737	2064.06
3.48739	2071.51
3.50752	2078.99
3.52777	2086.49
3.54813	2094.02
3.56862	2101.56
3.58922	2109.13
3.60994	2116.72
3.63078	2124.33
3.65174	2131.96
3.67282	2139.61
3.69403	2147.28
3.71535	2154.96
3.7368	2162.67
3.75837	2170.39
3.78007	2178.13
3.80189	2185.88
3.82384	2193.65
3.84592	2201.44
3.86812	2209.23
3.89045	2217.04
3.91291	2224.86
3.9355	2232.7
3.95822	2240.54
3.98107	2248.39
4.00405	2256.26
4.02717	2264.13
4.05042	2272.01
4.0738	2279.9
4.09732	2287.8
4.12098	2295.71
4.14477	2303.62
4.16869	2311.54
4.19276	2319.46
4.21697	2327.39
4.24131	2335.33
4.2658	2343.27
4.29042	2351.22
4.31519	2359.17
4.3401	2367.13
4.36516	2375.09
4.39036	2383.06
4.4157	2391.03
4.4412	2399.01
4.46684	2406.99
4.49262	2414.97
4.51856	2422.96
4.54465	2430.95
4.57088	2438.94
4.59727	2446.94
4.62381	2454.94
4.6505	2462.94
4.67735	2470.94
4.70435	2478.95
4.73151	2486.95
4.75883	2494.96
4.7863	2502.97
4.81393	2510.98
4.84172	2518.99
4.86968	2527
4.89779	2535.01
4.92606	2543.03
4.9545	2551.04
4.9831	2559.05
5.01187	2567.06
5.04081	2575.07
5.06991	2583.08
5.09918	2591.09
5.12861	2599.09
5.15822	2607.1
5.188	2615.1
5.21795	2623.1
5.24807	2631.1
5.27837	2639.1
5.30884	2647.09
5.33949	2655.08
5.37032	2663.07
5.40132	2671.06
5.4325	2679.04
5.46387	2687.02
5.49541	2694.99
5.52713	2702.97
5.55904	2710.93
5.59114	2718.9
5.62341	2726.86
5.65588	2734.81
5.68853	2742.76
5.72137	2750.71
5.7544	2758.65
5.78762	2766.59
5.82103	2774.52
5.85464	2782.45
5.88844	2790.37
5.92243	2798.29
5.95662	2806.2
5.99101	2814.11
6.0256	2821.94
6.06038	2829.73
6.09537	2837.53
6.13056	2845.31
6.16595	2853.09
6.20155	2860.86
6.23735	2868.63
6.27336	2876.38
6.30957	2884.13
6.346	2891.87
6.38263	2899.6
6.41948	2907.33
6.45654	2915.04
6.49382	2922.74
6.53131	2930.44
6.56901	2938.12
6.60693	2945.79
6.64508	2953.45
6.68344	2961.11
6.72202	2968.75
6.76083	2976.37
6.79986	2983.99
6.83912	2991.6
6.8786	2999.19
6.91831	3006.77
6.95825	3014.34
6.99842	3021.89
7.03882	3029.43
7.07946	3036.96
7.12033	3044.48
7.16143	3051.98
7.20278	3059.46
7.24436	3066.94
7.28618	3074.39
7.32825	3081.84
7.37055	3089.27
7.4131	3096.68
7.4559	3104.08
7.49894	3111.46
7.54223	3118.83
7.58578	3126.18
7.62957	3133.52
7.67361	3140.84
7.71792	3148.15
7.76247	3155.44
7.80728	3162.71
7.85236	3169.97
7.89769	3177.21
7.94328	3184.43
7.98914	3191.64
8.03526	3198.86
8.08165	3206.07
8.12831	3213.26
8.17523	3220.43
8.22243	3227.59
8.2699	3234.73
8.31764	3241.85
8.36566	3248.95
8.41395	3256.04
8.46253	3263.11
8.51138	3270.17
8.56052	3277.2
8.60994	3284.22
8.65964	3291.21
8.70964	3298.19
8.75992	3305.15
8.81049	3312.1
8.86135	3319.02
8.91251	3325.93
8.96396	3332.81
9.01571	3339.68
9.06776	3346.53
9.12011	3353.36
9.17276	3360.17
9.22571	3366.97
9.27897	3373.74
9.33254	3380.5
9.38642	3387.23
9.44061	3393.95
9.49511	3400.65
9.54993	3407.34
9.60506	3414
9.66051	3420.65
9.71628	3427.28
9.77237	3433.89
9.82879	3440.48
9.88553	3447.06
9.9426	3453.62
10	3460.16
10.0577	3466.69
10.1158	3473.21
10.1742	3479.7
10.2329	3486.18
10.292	3492.65
10.3514	3499.09
10.4112	3505.52
10.4713	3511.94
10.5317	3518.33
10.5925	3524.71
10.6537	3531.07
10.7152	3537.41
10.7771	3543.74
10.8393	3550.04
10.9018	3556.33
10.9648	3562.6
11.0281	3568.86
11.0917	3575.09
11.1558	3581.31
11.2202	3587.51
11.285	3593.69
11.3501	3599.86
11.4156	3606
11.4815	3612.13
11.5478	3618.24
11.6145	3624.34
11.6815	3630.41
11.749	3636.47
11.8168	3642.51
11.885	3648.54
11.9536	3654.55
12.0226	3660.54
12.0921	3666.53
12.1619	3672.5
12.2321	3678.45
12.3027	3684.38
12.3737	3690.3
12.4451	3696.2
12.517	3702.08
12.5893	3707.95
12.6619	3713.79
12.735	3719.62
12.8086	3725.43
12.8825	3731.22
12.9569	3736.99
13.0317	3742.75
13.1069	3748.48
13.1826	3754.19
13.2587	3759.89
13.3352	3765.57
13.4122	3771.22
13.4896	3776.86
13.5675	3782.48
13.6458	3788.07
13.7246	3793.65
13.8038	3799.21
13.8835	3804.74
13.9637	3810.26
14.0443	3815.76
14.1254	3821.24
14.2069	3826.69
14.2889	3832.13
14.3714	3837.55
14.4544	3842.94
14.5378	3848.32
14.6218	3853.68
14.7062	3859.02
14.7911	3864.34
14.8765	3869.63
14.9624	3874.91
15.0487	3880.17
15.1356	3885.42
15.223	3890.64
15.3109	3895.84
15.3993	3901.03
15.4882	3906.2
15.5776	3911.35
15.6675	3916.48
15.758	3921.6
15.8489	3926.7
15.9404	3931.79
16.0325	3936.84
16.125	3941.86
16.2181	3946.86
16.3117	3951.84
16.4059	3956.81
16.5006	3961.76
16.5959	3966.69
16.6917	3971.61
16.788	3976.51
16.885	3981.39
16.9824	3986.25
17.0805	3991.09
17.1791	3995.91
17.2783	4000.71
17.378	4005.49
17.4783	4010.25
17.5792	4014.99
17.6807	4019.71
17.7828	4024.41
17.8855	4029.08
17.9887	4033.74
18.0926	4038.37
18.197	4042.98
18.3021	4047.56
18.4077	4052.13
18.514	4056.67
18.6209	4061.18
18.7284	4065.67
18.8365	4070.14
18.9452	4074.58
19.0546	4079
19.1646	4083.39
19.2752	4087.75
19.3865	4092.09
19.4984	4096.4
19.611	4100.69
19.7242	4104.95
19.8381	4109.18
19.9526	4113.39
20.0678	4117.57
20.1837	4121.74
20.3002	4125.87
20.4174	4129.97
20.5353	4134.05
20.6538	4138.09
20.773	4142.11
20.893	4146.1
21.0136	4150.06
21.1349	4153.98
21.2569	4157.88
21.3796	4161.75
21.503	4165.58
21.6272	4169.38
21.752	4173.15
21.8776	4176.89
22.0039	4180.6
22.1309	4184.27
22.2587	4187.91
22.3872	4191.52
22.5165	4195.1
22.6464	4198.64
22.7772	4202.14
22.9087	4205.62
23.0409	4209.05
23.1739	4212.46
23.3077	4215.83
23.4423	4219.16
23.5776	4222.46
23.7137	4225.72
23.8506	4228.95
23.9883	4232.14
24.1268	4235.3
24.2661	4238.42
24.4062	4241.51
24.5471	4244.56
24.6888	4247.57
24.8313	4250.54
24.9747	4253.48
25.1189	4256.38
25.2639	4259.23
25.4097	4262.06
25.5564	4264.84
25.704	4267.58
25.8523	4270.29
26.0016	4272.95
26.1517	4275.57
26.3027	4278.16
26.4545	4280.7
26.6073	4283.2
26.7609	4285.67
26.9153	4288.09
27.0707	4290.47
27.227	4292.8
27.3842	4295.1
27.5423	4297.36
27.7013	4299.57
27.8612	4301.74
28.0221	4303.87
28.1838	4305.95
28.3465	4308
28.5102	4310
28.6748	4311.96
28.8403	4313.87
29.0068	4315.74
29.1743	4317.57
29.3427	4319.35
29.5121	4321.09
29.6825	4322.79
29.8538	4324.44
30.0262	4326.05
30.1995	4327.61
30.3739	4329.12
30.5492	4330.6
30.7256	4332.02
30.903	4333.4
31.0814	4334.74
31.2608	4336.03
31.4413	4337.28
31.6228	4338.48
31.8053	4339.64
31.989	4340.75
32.1736	4341.81
32.3594	4342.83
32.5462	4343.81
32.7341	4344.74
32.923	4345.62
33.1131	4346.46
33.3043	4347.25
33.4965	4348
33.6899	4348.7
33.8844	4349.35
34.08	4349.95
34.2768	4350.51
34.4747	4351.03
34.6737	4351.49
34.8739	4351.91
35.0752	4352.28
35.2777	4352.6
35.4813	4352.88
35.6862	4353.11
35.8922	4353.29
36.0994	4353.43
36.3078	4353.52
36.5174	4353.56
36.7282	4353.56
36.9403	4353.51
37.1535	4353.42
37.368	4353.27
37.5837	4353.09
37.8007	4352.86
38.0189	4352.58
38.2384	4352.25
38.4592	4351.89
38.6812	4351.48
38.9045	4351.02
39.1291	4350.52
39.355	4349.98
39.5822	4349.4
39.8107	4348.77
40.0405	4348.11
40.2717	4347.41
40.5042	4346.67
40.738	4345.89
40.9732	4345.07
41.2098	4344.2
41.4477	4343.3
41.6869	4342.35
41.9276	4341.36
42.1697	4340.33
42.4131	4339.25
42.658	4338.13
42.9042	4336.97
43.1519	4335.76
43.401	4334.51
43.6516	4333.22
43.9036	4331.88
44.157	4330.5
44.412	4329.07
44.6684	4327.6
44.9262	4326.09
45.1856	4324.53
45.4465	4322.93
45.7088	4321.28
45.9727	4319.59
46.2381	4317.85
46.505	4316.06
46.7735	4314.24
47.0435	4312.36
47.3151	4310.45
47.5883	4308.48
47.863	4306.48
48.1393	4304.42
48.4172	4302.33
48.6968	4300.18
48.9779	4298
49.2606	4295.76
49.545	4293.49
49.831	4291.17
50.1187	4288.8
50.4081	4286.4
50.6991	4283.94
50.9918	4281.45
51.2861	4278.91
51.5822	4276.33
51.88	4273.7
52.1795	4271.03
52.4807	4268.32
52.7837	4265.57
53.0884	4262.78
53.3949	4259.95
53.7032	4257.07
54.0132	4254.16
54.325	4251.2
54.6387	4248.21
54.9541	4245.18
55.2713	4242.11
55.5904	4239
55.9114	4235.85
56.2341	4232.67
56.5588	4229.46
56.8853	4226.21
57.2137	4222.92
57.544	4219.6
57.8762	4216.25
58.2103	4212.87
58.5464	4209.46
58.8844	4206.02
59.2243	4202.55
59.5662	4199.05
59.9101	4195.53
60.256	4191.92
60.6038	4188.27
60.9537	4184.59
61.3056	4180.88
61.6595	4177.15
62.0155	4173.4
62.3735	4169.62
62.7336	4165.81
63.0957	4161.98
63.46	4158.11
63.8263	4154.23
64.1948	4150.32
64.5654	4146.38
64.9382	4142.41
65.3131	4138.42
65.6901	4134.4
66.0693	4130.36
66.4508	4126.29
66.8344	4122.19
67.2202	4118.06
67.6083	4113.91
67.9986	4109.73
68.3912	4105.53
68.786	4101.29
69.1831	4097.04
69.5825	4092.75
69.9842	4088.44
70.3882	4084.1
70.7946	4079.73
71.2033	4075.34
71.6143	4070.92
72.0278	4066.47
72.4436	4062
72.8618	4057.5
73.2825	4052.97
73.7055	4048.42
74.131	4043.84
74.559	4039.23
74.9894	4034.6
75.4223	4029.94
75.8578	4025.25
76.2957	4020.54
76.7361	4015.8
77.1792	4011.03
77.6247	4006.24
78.0728	4001.42
78.5236	3996.58
78.9769	3991.71
79.4328	3986.82
79.8914	3981.9
80.3526	3976.95
80.8165	3971.99
81.2831	3966.99
81.7523	3961.97
82.2243	3956.93
82.699	3951.86
83.1764	3946.77
83.6566	3941.65
84.1395	3936.51
84.6253	3931.34
85.1138	3926.15
85.6052	3920.94
86.0994	3915.7
86.5964	3910.43
87.0964	3905.15
87.5992	3899.84
88.1049	3894.5
88.6135	3889.15
89.1251	3883.77
89.6396	3878.36
90.1571	3872.94
90.6776	3867.49
91.2011	3862.02
91.7276	3856.52
92.2571	3851.01
92.7897	3845.47
93.3254	3839.92
93.8642	3834.34
94.4061	3828.74
94.9511	3823.12
95.4993	3817.48
96.0506	3811.82
96.6051	3806.14
97.1628	3800.44
97.7237	3794.72
98.2879	3788.99
98.8553	3783.24
99.426	3777.46
100	3771.68
100.577	3765.87
101.158	3760.05
101.742	3754.21
102.329	3748.35
102.92	3742.48
103.514	3736.59
104.112	3730.69
104.713	3724.77
105.317	3718.83
105.925	3712.88
106.537	3706.91
107.152	3700.92
107.771	3694.92
108.393	3688.9
109.018	3682.87
109.648	3676.82
110.281	3670.76
110.917	3664.68
111.558	3658.58
112.202	3652.47
112.85	3646.35
113.501	3640.21
114.156	3634.06
114.815	3627.89
115.478	3621.7
116.145	3615.5
116.815	3609.29
117.49	3603.06
118.168	3596.82
118.85	3590.57
119.536	3584.3
120.226	3578.02
120.921	3571.72
121.619	3565.41
122.321	3559.08
123.027	3552.74
123.737	3546.39
124.451	3540.02
125.17	3533.64
125.893	3527.25
126.619	3520.85
127.35	3514.43
128.086	3508
128.825	3501.56
129.569	3495.1
130.317	3488.64
131.069	3482.16
131.826	3475.67
132.587	3469.16
133.352	3462.65
134.122	3456.12
134.896	3449.58
135.675	3443.03
136.458	3436.47
137.246	3429.89
138.038	3423.31
138.835	3416.71
139.637	3410.11
140.443	3403.49
141.254	3396.86
142.069	3390.22
142.889	3383.57
143.714	3376.91
144.544	3370.23
145.378	3363.55
146.218	3356.86
147.062	3350.16
147.911	3343.44
148.765	3336.72
149.624	3329.99
150.487	3323.25
151.356	3316.49
152.23	3309.73
153.109	3302.96
153.993	3296.18
154.882	3289.39
155.776	3282.59
156.675	3275.78
157.58	3268.96
158.489	3262.14
159.404	3255.3
160.325	3248.47
161.25	3241.63
162.181	3234.79
163.117	3227.93
164.059	3221.07
165.006	3214.21
165.959	3207.33
166.917	3200.45
167.88	3193.56
168.85	3186.66
169.824	3179.75
170.805	3172.84
171.791	3165.92
172.783	3158.99
173.78	3152.06
174.783	3145.12
175.792	3138.17
176.807	3131.22
177.828	3124.26
178.855	3117.3
179.887	3110.33
180.926	3103.35
181.97	3096.37
183.021	3089.38
184.077	3082.39
185.14	3075.39
186.209	3068.39
187.284	3061.38
188.365	3054.37
189.452	3047.35
190.546	3040.33
191.646	3033.31
192.752	3026.28
193.865	3019.24
194.984	3012.21
196.11	3005.17
197.242	2998.12
198.381	2991.07
199.526	2984.02
200.678	2976.96
201.837	2969.89
203.002	2962.82
204.174	2955.75
205.353	2948.67
206.538	2941.6
207.73	2934.51
208.93	2927.43
210.136	2920.35
211.349	2913.26
212.569	2906.17
213.796	2899.07
215.03	2891.98
216.272	2884.88
217.52	2877.78
218.776	2870.68
220.039	2863.58
221.309	2856.48
222.587	2849.37
223.872	2842.27
225.165	2835.16
226.464	2828.05
227.772	2820.94
229.087	2813.83
230.409	2806.72
231.739	2799.6
233.077	2792.49
234.423	2785.38
235.776	2778.26
237.137	2771.14
238.506	2764.03
239.883	2756.91
241.268	2749.79
242.661	2742.67
244.062	2735.55
245.471	2728.43
246.888	2721.3
248.313	2714.18
249.747	2707.06
251.189	2699.94
252.639	2692.82
254.097	2685.7
255.564	2678.58
257.04	2671.46
258.523	2664.34
260.016	2657.22
261.517	2650.1
263.027	2642.99
264.545	2635.88
266.073	2628.76
267.609	2621.65
269.153	2614.54
270.707	2607.43
272.27	2600.33
273.842	2593.22
275.423	2586.12
277.013	2579.02
278.612	2571.92
280.221	2564.83
281.838	2557.73
283.465	2550.64
285.102	2543.55
286.748	2536.46
288.403	2529.38
290.068	2522.3
291.743	2515.22
293.427	2508.14
295.121	2501.07
296.825	2494
298.538	2486.94
300.262	2479.88
301.995	2472.82
303.739	2465.77
305.492	2458.72
307.256	2451.67
309.03	2444.63
310.814	2437.59
312.608	2430.56
314.413	2423.53
316.228	2416.51
318.053	2409.49
319.89	2402.48
321.736	2395.47
323.594	2388.46
325.462	2381.47
327.341	2374.47
329.23	2367.48
331.131	2360.5
333.043	2353.52
334.965	2346.55
336.899	2339.58
338.844	2332.62
340.8	2325.66
342.768	2318.71
344.747	2311.77
346.737	2304.83
348.739	2297.9
350.752	2290.98
352.777	2284.06
354.813	2277.14
356.862	2270.24
358.922	2263.34
360.994	2256.44
363.078	2249.55
365.174	2242.67
367.282	2235.79
369.403	2228.92
371.535	2222.06
373.68	2215.21
375.837	2208.36
378.007	2201.51
380.189	2194.67
382.384	2187.84
384.592	2181.02
386.812	2174.2
389.045	2167.39
391.291	2160.59
393.55	2153.79
395.822	2147
398.107	2140.22
400.405	2133.44
402.717	2126.66
405.042	2119.88
407.38	2113.11
409.732	2106.35
412.098	2099.6
414.477	2092.85
416.869	2086.11
419.276	2079.38
421.697	2072.66
424.131	2065.95
426.58	2059.24
429.042	2052.54
431.519	2045.85
434.01	2039.17
436.516	2032.5
439.036	2025.84
441.57	2019.19
444.12	2012.55
446.684	2005.92
449.262	1999.3
451.856	1992.69
454.465	1986.09
457.088	1979.5
459.727	1972.93
462.381	1966.36
465.05	1959.8
467.735	1953.26
470.435	1946.73
473.151	1940.21
475.883	1933.7
478.63	1927.2
481.393	1920.72
484.172	1914.25
486.968	1907.78
489.779	1901.34
492.606	1894.9
495.45	1888.48
498.31	1882.07
501.187	1875.67
504.081	1869.28
506.991	1862.91
509.918	1856.55
512.861	1850.2
515.822	1843.86
518.8	1837.54
521.795	1831.22
524.807	1824.93
527.837	1818.64
530.884	1812.36
533.949	1806.1
537.032	1799.85
540.132	1793.61
543.25	1787.38
546.387	1781.17
549.541	1774.96
552.713	1768.77
555.904	1762.59
559.114	1756.42
562.341	1750.25
565.588	1744.1
568.853	1737.96
572.137	1731.83
575.44	1725.71
578.762	1719.59
582.103	1713.48
585.464	1707.39
588.844	1701.3
592.243	1695.21
595.662	1689.13
599.101	1683.06
602.56	1677.08
606.038	1671.13
609.537	1665.18
613.056	1659.24
616.595	1653.31
620.155	1647.39
623.735	1641.47
627.336	1635.56
630.957	1629.66
634.6	1623.77
638.263	1617.88
641.948	1612.01
645.654	1606.14
649.382	1600.28
653.131	1594.43
656.901	1588.59
660.693	1582.77
664.508	1576.95
668.344	1571.14
672.202	1565.34
676.083	1559.55
679.986	1553.78
683.912	1548.01
687.86	1542.26
691.831	1536.52
695.825	1530.79
699.842	1525.07
703.882	1519.37
707.946	1513.68
712.033	1508
716.143	1502.33
720.278	1496.68
724.436	1491.04
728.618	1485.42
732.825	1479.81
737.055	1474.21
741.31	1468.63
745.59	1463.06
749.894	1457.5
754.223	1451.96
758.578	1446.44
762.957	1440.93
767.361	1435.43
771.792	1429.95
776.247	1424.49
780.728	1419.04
785.236	1413.61
789.769	1408.19
794.328	1402.79
798.914	1397.4
803.526	1392.01
808.165	1386.64
812.831	1381.27
817.523	1375.93
822.243	1370.6
826.99	1365.28
831.764	1359.99
836.566	1354.71
841.395	1349.44
846.253	1344.2
851.138	1338.97
856.052	1333.76
860.994	1328.56
865.964	1323.38
870.964	1318.22
875.992	1313.07
881.049	1307.95
886.135	1302.84
891.251	1297.74
896.396	1292.66
901.571	1287.61
906.776	1282.56
912.011	1277.54
917.276	1272.53
922.571	1267.53
927.897	1262.56
933.254	1257.6
938.642	1252.65
944.061	1247.73
949.511	1242.81
954.993	1237.92
960.506	1233.04
966.051	1228.17
971.628	1223.32
977.237	1218.49
982.879	1213.66
988.553	1208.86
994.26	1204.06
1000	1199.28
1005.77	1194.51
1011.58	1189.76
1017.42	1185.01
1023.29	1180.28
1029.2	1175.57
1035.14	1170.86
1041.12	1166.18
1047.13	1161.5
1053.17	1156.84
1059.25	1152.19
1065.37	1147.56
1071.52	1142.94
1077.71	1138.34
1083.93	1133.75
1090.18	1129.17
1096.48	1124.61
1102.81	1120.06
1109.17	1115.53
1115.58	1111.02
1122.02	1106.51
1128.5	1102.03
1135.01	1097.55
1141.56	1093.09
1148.15	1088.65
1154.78	1084.22
1161.45	1079.81
1168.15	1075.41
1174.9	1071.02
1181.68	1066.65
1188.5	1062.3
1195.36	1057.96
1202.26	1053.62
1209.21	1049.3
1216.19	1045
1223.21	1040.7
1230.27	1036.42
1237.37	1032.16
1244.51	1027.91
1251.7	1023.68
1258.93	1019.46
1266.19	1015.25
1273.5	1011.07
1280.86	1006.89
1288.25	1002.74
1295.69	998.593
1303.17	994.467
1310.69	990.356
1318.26	986.261
1325.87	982.182
1333.52	978.118
1341.22	974.071
1348.96	970.039
1356.75	966.024
1364.58	962.025
1372.46	958.041
1380.38	954.074
1388.35	950.122
1396.37	946.187
1404.43	942.267
1412.54	938.364
1420.69	934.476
1428.89	930.603
1437.14	926.747
1445.44	922.906
1453.78	919.08
1462.18	915.269
1470.62	911.474
1479.11	907.693
1487.65	903.928
1496.24	900.177
1504.87	896.44
1513.56	892.717
1522.3	889.008
1531.09	885.313
1539.93	881.631
1548.82	877.963
1557.76	874.307
1566.75	870.663
1575.8	867.031
1584.89	863.411
1594.04	859.802
1603.25	856.213
1612.5	852.653
1621.81	849.103
1631.17	845.565
1640.59	842.037
1650.06	838.521
1659.59	835.016
1669.17	831.523
1678.8	828.042
1688.5	824.572
1698.24	821.114
1708.05	817.669
1717.91	814.235
1727.83	810.814
1737.8	807.405
1747.83	804.009
1757.92	800.626
1768.07	797.255
1778.28	793.897
1788.55	790.551
1798.87	787.219
1809.26	783.9
1819.7	780.594
1830.21	777.301
1840.77	774.021
1851.4	770.755
1862.09	767.501
1872.84	764.262
1883.65	761.035
1894.52	757.822
1905.46	754.622
1916.46	751.436
1927.52	748.263
1938.65	745.103
1949.84	741.957
1961.1	738.823
1972.42	735.704
1983.81	732.597
1995.26	729.503
2006.78	726.419
2018.37	723.344
2030.02	720.283
2041.74	717.235
2053.53	714.2
2065.38	711.178
2077.3	708.17
2089.3	705.174
2101.36	702.192
2113.49	699.223
2125.69	696.268
2137.96	693.326
2150.3	690.397
2162.72	687.481
2175.2	684.578
2187.76	681.689
2200.39	678.813
2213.09	675.949
2225.87	673.099
2238.72	670.262
2251.65	667.437
2264.64	664.626
2277.72	661.826
2290.87	659.04
2304.09	656.265
2317.39	653.503
2330.77	650.753
2344.23	648.015
2357.76	645.288
2371.37	642.572
2385.06	639.868
2398.83	637.175
2412.68	634.492
2426.61	631.821
2440.62	629.159
2454.71	626.509
2468.88	623.87
2483.13	621.242
2497.47	618.624
2511.89	616.018
2526.39	613.423
2540.97	610.839
2555.64	608.267
2570.4	605.705
2585.23	603.155
2600.16	600.616
2615.17	598.088
2630.27	595.572
2645.45	593.066
2660.73	590.572
2676.09	588.089
2691.53	585.617
2707.07	583.156
2722.7	580.706
2738.42	578.267
2754.23	575.839
2770.13	573.422
2786.12	571.015
2802.21	568.619
2818.38	566.233
2834.65	563.858
2851.02	561.493
2867.48	559.139
2884.03	556.796
2900.68	554.463
2917.43	552.141
2934.27	549.829
2951.21	547.528
2968.25	545.238
2985.38	542.958
3002.62	540.688
3019.95	538.429
3037.39	536.181
3054.92	533.943
3072.56	531.715
3090.3	529.497
3108.14	527.29
3126.08	525.092
3144.13	522.905
3162.28	520.728
3180.53	518.56
3198.9	516.402
3217.36	514.253
3235.94	512.114
3254.62	509.985
3273.41	507.865
3292.3	505.754
3311.31	503.654
3330.43	501.563
3349.65	499.481
3368.99	497.41
3388.44	495.348
3408	493.296
3427.68	491.253
3447.47	489.22
3467.37	487.197
3487.39	485.183
3507.52	483.179
3527.77	481.185
3548.13	479.2
3568.62	477.224
3589.22	475.258
3609.94	473.301
3630.78	471.353
3651.74	469.414
3672.82	467.485
3694.03	465.565
3715.35	463.653
3736.8	461.751
3758.37	459.857
3780.07	457.972
3801.89	456.096
3823.84	454.228
3845.92	452.368
3868.12	450.517
3890.45	448.674
3912.91	446.839
3935.5	445.011
3958.22	443.192
3981.07	441.379
4004.05	439.574
4027.17	437.772
4050.42	435.977
4073.8	434.19
4097.32	432.41
4120.98	430.637
4144.77	428.872
4168.69	427.114
4192.76	425.364
4216.97	423.622
4241.31	421.888
4265.8	420.162
4290.42	418.443
4315.19	416.733
4340.1	415.031
4365.16	413.337
4390.36	411.651
4415.7	409.974
4441.2	408.305
4466.84	406.644
4492.62	404.992
4518.56	403.349
4544.65	401.714
4570.88	400.088
4597.27	398.47
4623.81	396.861
4650.5	395.261
4677.35	393.67
4704.35	392.087
4731.51	390.513
4758.83	388.948
4786.3	387.392
4813.93	385.845
4841.72	384.306
4869.68	382.776
4897.79	381.255
4926.06	379.743
4954.5	378.24
4983.1	376.745
5011.87	375.259
5040.81	373.782
5069.91	372.314
5099.18	370.854
5128.61	369.402
5158.22	367.959
5188	366.524
5217.95	365.098
5248.07	363.68
5278.37	362.269
5308.84	360.867
5339.49	359.473
5370.32	358.087
5401.32	356.708
5432.5	355.336
5463.87	353.972
5495.41	352.615
5527.13	351.266
5559.04	349.923
5591.14	348.586
5623.41	347.257
5655.88	345.933
5688.53	344.615
5721.37	343.283
5754.4	341.869
5787.62	340.463
5821.03	339.062
5854.64	337.667
5888.44	336.277
5922.43	334.893
5956.62	333.513
5991.01	332.138
6025.6	330.797
6060.38	329.47
6095.37	328.147
6130.56	326.829
6165.95	325.516
6201.55	324.207
6237.35	322.902
6273.36	321.603
6309.57	320.308
6346	319.018
6382.63	317.732
6419.48	316.452
6456.54	315.176
6493.82	313.906
6531.31	312.64
6569.01	311.38
6606.93	310.125
6645.08	308.875
6683.44	307.631
6722.02	306.391
6760.83	305.158
6799.86	303.929
6839.12	302.707
6878.6	301.489
6918.31	300.278
6958.25	299.072
6998.42	297.872
7038.82	296.677
7079.46	295.489
7120.33	294.306
7161.43	293.129
7202.78	291.958
7244.36	290.794
7286.18	289.635
7328.25	288.482
7370.55	287.335
7413.1	286.195
7455.9	285.06
7498.94	283.932
7542.23	282.81
7585.78	281.694
7629.57	280.585
7673.61	279.482
7717.92	278.385
7762.47	277.294
7807.28	276.21
7852.36	275.132
7897.69	274.061
7943.28	272.996
7989.14	271.937
8035.26	270.88
8081.65	269.828
8128.31	268.783
8175.23	267.743
8222.43	266.71
8269.9	265.684
8317.64	264.664
8365.66	263.65
8413.95	262.643
8462.53	261.642
8511.38	260.648
8560.52	259.659
8609.94	258.678
8659.64	257.702
8709.64	256.733
8759.92	255.77
8810.49	254.813
8861.35	253.863
8912.51	252.918
8963.96	251.98
9015.71	251.048
9067.76	250.121
9120.11	249.201
9172.76	248.286
9225.71	247.378
9278.97	246.475
9332.54	245.577
9386.42	244.686
9440.61	243.799
9495.11	242.918
9549.93	242.042
9605.06	241.172
9660.51	240.306
9716.28	239.445
9772.37	238.589
9828.79	237.738
9885.53	236.891
9942.6	236.049
10000	235.21
10057.7	234.375
10115.8	233.545
10174.2	232.718
10232.9	231.895
10292	231.077
10351.4	230.263
10411.2	229.452
10471.3	228.646
10531.7	227.844
10592.5	227.046
10653.7	226.252
10715.2	225.463
10777.1	224.678
10839.3	223.896
10901.8	223.119
10964.8	222.347
11028.1	221.578
11091.7	220.814
11155.8	220.054
11220.2	219.298
11285	218.546
11350.1	217.798
11415.6	217.055
11481.5	216.315
11547.8	215.58
11614.5	214.849
11681.5	214.122
11749	213.399
11816.8	212.68
11885	211.964
11953.6	211.253
12022.6	210.545
12092.1	209.84
12161.9	209.139
12232.1	208.442
12302.7	207.749
12373.7	207.06
12445.1	206.374
12517	205.693
12589.3	205.016
12661.9	204.342
12735	203.673
12808.6	203.008
12882.5	202.346
12956.9	201.689
13031.7	201.036
13106.9	200.387
13182.6	199.742
13258.7	199.101
13335.2	198.464
13412.2	197.831
13489.6	197.203
13567.5	196.578
13645.8	195.957
13724.6	195.341
13803.8	194.728
13883.5	194.12
13963.7	193.515
14044.3	192.914
14125.4	192.317
14206.9	191.725
14288.9	191.136
14371.4	190.55
14454.4	189.969
14537.8	189.391
14621.8	188.817
14706.2	188.247
14791.1	187.681
14876.5	187.117
14962.4	186.558
15048.7	186.002
15135.6	185.449
15223	184.899
15310.9	184.353
15399.3	183.81
15488.2	183.27
15577.6	182.733
15667.5	182.199
15758	181.668
15848.9	181.139
15940.4	180.613
16032.5	180.091
16125	179.575
16218.1	179.061
16311.7	178.55
16405.9	178.042
16500.6	177.535
16595.9	177.032
16691.7	176.531
16788	176.033
16885	175.537
16982.4	175.044
17080.5	174.553
17179.1	174.065
17278.3	173.58
17378	173.098
17478.3	172.618
17579.2	172.141
17680.7	171.667
17782.8	171.195
17885.5	170.726
17988.7	170.26
18092.6	169.797
18197	169.336
18302.1	168.879
18407.7	168.424
18514	167.971
18620.9	167.522
18728.4	167.076
18836.5	166.632
18945.2	166.191
19054.6	165.753
19164.6	165.317
19275.2	164.884
19386.5	164.454
19498.4	164.027
19611	163.603
19724.2	163.181
19838.1	162.762
19952.6	162.346
20067.8	161.932
20183.7	161.52
20300.2	161.11
20417.4	160.704
20535.3	160.299
20653.8	159.898
20773	159.499
20893	159.103
21013.6	158.71
21134.9	158.319
21256.9	157.931
21379.6	157.546
21503	157.163
21627.2	156.783
21752	156.406
21877.6	156.031
22003.9	155.658
22130.9	155.289
22258.7	154.922
22387.2	154.557
22516.5	154.195
22646.4	153.835
22777.2	153.478
22908.7	153.123
23040.9	152.771
23173.9	152.421
23307.7	152.073
23442.3	151.728
23577.6	151.385
23713.7	151.044
23850.6	150.705
23988.3	150.369
24126.8	150.034
24266.1	149.701
24406.2	149.371
24547.1	149.042
24688.8	148.716
24831.3	148.391
24974.7	148.069
25118.9	147.749
25263.9	147.431
25409.7	147.115
25556.4	146.801
25704	146.489
25852.3	146.18
26001.6	145.872
26151.7	145.566
26302.7	145.263
26454.5	144.961
26607.3	144.662
26760.9	144.365
26915.3	144.07
27070.7	143.776
27227	143.485
27384.2	143.196
27542.3	142.909
27701.3	142.623
27861.2	142.34
28022.1	142.059
28183.8	141.779
28346.5	141.502
28510.2	141.226
28674.8	140.952
28840.3	140.68
29006.8	140.41
29174.3	140.142
29342.7	139.876
29512.1	139.612
29682.5	139.35
29853.8	139.089
30026.2	138.831
30199.5	138.574
30373.9	138.319
30549.2	138.066
30725.6	137.815
30903	137.566
31081.4	137.318
31260.8	137.073
31441.3	136.829
31622.8	136.587
31805.3	136.346
31989	136.107
32173.6	135.871
32359.4	135.635
32546.2	135.402
32734.1	135.17
32923	134.94
33113.1	134.711
33304.3	134.484
33496.5	134.259
33689.9	134.035
33884.4	133.814
34080	133.593
34276.8	133.375
34474.7	133.158
34673.7	132.943
34873.9	132.729
35075.2	132.517
35277.7	132.306
35481.3	132.097
35686.2	131.89
35892.2	131.684
36099.4	131.479
36307.8	131.276
36517.4	131.074
36728.2	130.874
36940.3	130.675
37153.5	130.478
37368	130.282
37583.7	130.087
37800.7	129.893
38018.9	129.701
38238.4	129.509
38459.2	129.319
38681.2	129.13
38904.5	128.942
39129.1	128.755
39355	128.569
39582.2	128.384
39810.7	128.2
40040.5	128.015
40271.7	127.824
40504.2	127.636
40738	127.448
40973.2	127.262
41209.8	127.078
41447.7	126.895
41686.9	126.713
41927.6	126.533
42169.7	126.354
42413.1	126.177
42658	126.001
42904.2	125.826
43151.9	125.653
43401	125.481
43651.6	125.31
43903.6	125.141
44157	124.973
44412	124.807
44668.4	124.641
44926.2	124.477
45185.6	124.315
45446.5	124.153
45708.8	123.993
45972.7	123.834
46238.1	123.677
46505	123.521
46773.5	123.366
47043.5	123.212
47315.1	123.06
47588.3	122.908
47863	122.758
48139.3	122.61
48417.2	122.462
48696.8	122.316
48977.9	122.171
49260.6	122.027
49545	121.884
49831	121.743
50118.7	121.602
50408.1	121.463
50699.1	121.325
50991.8	121.188
51286.1	121.053
51582.2	120.918
51880	120.785
52179.5	120.652
52480.7	120.521
52783.7	120.391
53088.4	120.262
53394.9	120.134
53703.2	120.008
54013.2	119.882
54325	119.758
54638.7	119.634
54954.1	119.512
55271.3	119.391
55590.4	119.27
55911.4	119.151
56234.1	119.033
56558.8	118.916
56885.3	118.8
57213.7	118.685
57544	118.571
57876.2	118.458
58210.3	118.346
58546.4	118.235
58884.4	118.125
59224.3	118.016
59566.2	117.908
59910.1	117.801
60256	117.695
60603.8	117.59
60953.7	117.486
61305.6	117.383
61659.5	117.281
62015.5	117.18
62373.5	117.08
62733.6	116.981
63095.7	116.882
63460	116.785
63826.3	116.688
64194.8	116.593
64565.4	116.498
64938.2	116.404
65313.1	116.311
65690.1	116.22
66069.3	116.128
66450.8	116.038
66834.4	115.949
67220.2	115.86
67608.3	115.773
67998.6	115.686
68391.2	115.6
68786	115.515
69183.1	115.431
69582.5	115.348
69984.2	115.265
70388.2	115.184
70794.6	115.103
71203.3	115.023
71614.3	114.944
72027.8	114.865
72443.6	114.788
72861.8	114.711
73282.5	114.635
73705.5	114.56
74131	114.485
74559	114.412
74989.4	114.339
75422.3	114.267
75857.8	114.196
76295.7	114.125
76736.1	114.055
77179.2	113.986
77624.7	113.918
78072.8	113.85
78523.6	113.783
78976.9	113.717
79432.8	113.652
79891.4	113.587
80352.6	113.523
80816.5	113.46
81283.1	113.398
81752.3	113.336
82224.3	113.275
82699	113.214
83176.4	113.155
83656.6	113.096
84139.5	113.037
84625.3	112.98
85113.8	112.923
85605.2	112.866
86099.4	112.81
86596.4	112.755
87096.4	112.701
87599.2	112.647
88104.9	112.594
88613.5	112.542
89125.1	112.49
89639.6	112.439
90157.1	112.388
90677.6	112.338
91201.1	112.289
91727.6	112.24
92257.1	112.192
92789.7	112.145
93325.4	112.098
93864.2	112.052
94406.1	112.006
94951.1	111.961
95499.3	111.917
96050.6	111.873
96605.1	111.829
97162.8	111.786
97723.7	111.744
98287.9	111.703
98855.3	111.662
99426	111.621
100000	111.581
100577	111.542
101158	111.503
101742	111.464
102329	111.427
102920	111.389
103514	111.353
104112	111.317
104713	111.281
105317	111.246
105925	111.211
106537	111.177
107152	111.143
107771	111.11
108393	111.078
109018	111.045
109648	111.014
110281	110.983
110917	110.952
111558	110.922
112202	110.892
112850	110.863
113501	110.834
114156	110.806
114815	110.778
115478	110.751
116145	110.724
116815	110.697
117490	110.671
118168	110.646
118850	110.621
119536	110.596
120226	110.572
120921	110.548
121619	110.525
122321	110.502
123027	110.479
123737	110.457
124451	110.435
125170	110.414
125893	110.393
126619	110.373
127350	110.353
128086	110.333
128825	110.314
129569	110.295
130317	110.276
131069	110.258
131826	110.24
132587	110.223
133352	110.206
134122	110.19
134896	110.173
135675	110.158
136458	110.142
137246	110.127
138038	110.112
138835	110.098
139637	110.084
140443	110.07
141254	110.057
142069	110.044
142889	110.031
143714	110.019
144544	110.007
145378	109.995
146218	109.984
147062	109.973
147911	109.962
148765	109.952
149624	109.942
150487	109.932
151356	109.923
152230	109.914
153109	109.905
153993	109.896
154882	109.888
155776	109.88
156675	109.873
157580	109.866
158489	109.859
159404	109.852
160325	109.846
161250	109.839
162181	109.834
163117	109.828
164059	109.823
165006	109.818
165959	109.813
166917	109.809
167880	109.804
168850	109.8
169824	109.797
170805	109.793
171791	109.79
172783	109.787
173780	109.785
174783	109.782
175792	109.78
176807	109.778
177828	109.776
178855	109.775
179887	109.774
180926	109.773
181970	109.772
183021	109.772
184077	109.771
185140	109.771
186209	109.772
187284	109.772
188365	109.773
189452	109.773
190546	109.775
191646	109.776
192752	109.777
193865	109.779
194984	109.781
196110	109.783
197242	109.785
198381	109.788
199526	109.791
200678	109.793
201837	109.797
203002	109.8
204174	109.803
205353	109.807
206538	109.811
207730	109.815
208930	109.819
210136	109.824
211349	109.828
212569	109.833
213796	109.838
215030	109.843
216272	109.848
217520	109.854
218776	109.859
220039	109.865
221309	109.871
222587	109.877
223872	109.883
225165	109.89
226464	109.896
227772	109.903
229087	109.91
230409	109.917
231739	109.924
233077	109.932
234423	109.939
235776	109.947
237137	109.954
238506	109.962
239883	109.97
241268	109.978
242661	109.987
244062	109.995
245471	110.004
246888	110.013
248313	110.021
249747	110.03
251189	110.039
252639	110.049
254097	110.058
255564	110.067
257040	110.077
258523	110.087
260016	110.097
261517	110.107
263027	110.117
264545	110.127
266073	110.137
267609	110.147
269153	110.158
270707	110.168
272270	110.179
273842	110.19
275423	110.201
277013	110.212
278612	110.223
280221	110.234
281838	110.245
283465	110.257
285102	110.268
286748	110.28
288403	110.292
290068	110.303
291743	110.315
293427	110.327
295121	110.339
296825	110.351
298538	110.363
300262	110.376
301995	110.388
303739	110.4
305492	110.413
307256	110.426
309030	110.438
310814	110.451
312608	110.464
314413	110.477
316228	110.49
318053	110.503
319890	110.516
321736	110.529
323594	110.542
325462	110.555
327341	110.569
329230	110.582
331131	110.596
333043	110.609
334965	110.623
336899	110.636
338844	110.65
340800	110.664
342768	110.678
344747	110.692
346737	110.705
348739	110.719
350752	110.733
352777	110.748
354813	110.762
356862	110.776
358922	110.79
360994	110.804
363078	110.819
365174	110.833
367282	110.847
369403	110.862
371535	110.876
373680	110.891
375837	110.906
378007	110.92
380189	110.935
382384	110.95
384592	110.964
386812	110.979
389045	110.994
391291	111.009
393550	111.024
395822	111.038
398107	111.053
400405	111.068
402717	111.083
405042	111.098
407380	111.113
409732	111.128
412098	111.143
414477	111.159
416869	111.174
419276	111.189
421697	111.204
424131	111.219
426580	111.235
429042	111.25
431519	111.265
434010	111.28
436516	111.296
439036	111.311
441570	111.326
444120	111.342
446684	111.357
449262	111.373
451856	111.388
454465	111.403
457088	111.419
459727	111.434
462381	111.45
465050	111.465
467735	111.481
470435	111.496
473151	111.512
475883	111.527
478630	111.543
481393	111.558
484172	111.574
486968	111.589
489779	111.605
492606	111.62
495450	111.636
498310	111.651
501187	111.667
504081	111.683
506991	111.698
509918	111.714
512861	111.729
515822	111.745
518800	111.76
521795	111.776
524807	111.792
527837	111.807
530884	111.823
533949	111.838
537032	111.854
540132	111.869
543250	111.885
546387	111.9
549541	111.916
552713	111.931
555904	111.947
559114	111.962
562341	111.978
565588	111.993
568853	112.009
572137	112.024
575440	112.04
578762	112.055
582103	112.071
585464	112.086
588844	112.102
592243	112.117
595662	112.133
599101	112.148
602560	112.163
606038	112.179
609537	112.194
613056	112.209
616595	112.225
620155	112.24
623735	112.255
627336	112.271
630957	112.286
634600	112.301
638263	112.316
641948	112.332
645654	112.347
649382	112.362
653131	112.377
656901	112.392
660693	112.407
664508	112.422
668344	112.438
672202	112.453
676083	112.468
679986	112.483
683912	112.498
687860	112.513
691831	112.528
695825	112.543
699842	112.557
703882	112.572
707946	112.587
712033	112.602
716143	112.617
720278	112.632
724436	112.646
728618	112.661
732825	112.676
737055	112.691
741310	112.705
745590	112.72
749894	112.735
754223	112.749
758578	112.764
762957	112.778
767361	112.793
771792	112.807
776247	112.822
780728	112.836
785236	112.851
789769	112.865
794328	112.879
798914	112.894
803526	112.908
808165	112.922
812831	112.937
817523	112.951
822243	112.965
826990	112.979
831764	112.993
836566	113.007
841395	113.022
846253	113.036
851138	113.05
856052	113.064
860994	113.077
865964	113.091
870964	113.105
875992	113.119
881049	113.133
886135	113.147
891251	113.161
896396	113.174
901571	113.188
906776	113.202
912011	113.215
917276	113.229
922571	113.242
927897	113.256
933254	113.269
938642	113.283
944061	113.296
949511	113.31
954993	113.323
960506	113.336
966051	113.35
971628	113.363
977237	113.376
982879	113.389
988553	113.403
994260	113.416
1e+06	113.429
1.00577e+06	113.442
1.01158e+06	113.455
1.01742e+06	113.468
1.02329e+06	113.481
1.0292e+06	113.494
1.03514e+06	113.507
1.04112e+06	113.519
1.04713e+06	113.532
1.05317e+06	113.545
1.05925e+06	113.558
1.06537e+06	113.57
1.07152e+06	113.583
1.07771e+06	113.596
1.08393e+06	113.608
1.09018e+06	113.621
1.09648e+06	113.633
1.10281e+06	113.646
1.10917e+06	113.658
1.11558e+06	113.671
1.12202e+06	113.683
1.1285e+06	113.695
1.13501e+06	113.708
1.14156e+06	113.72
1.14815e+06	113.732
1.15478e+06	113.744
1.16145e+06	113.757
1.16815e+06	113.769
1.1749e+06	113.781
1.18168e+06	113.793
1.1885e+06	113.805
1.19536e+06	113.817
1.20226e+06	113.829
1.20921e+06	113.841
1.21619e+06	113.852
1.22321e+06	113.864
1.23027e+06	113.876
1.23737e+06	113.888
1.24451e+06	113.899
1.2517e+06	113.911
1.25893e+06	113.923
1.26619e+06	113.934
1.2735e+06	113.946
1.28086e+06	113.957
1.28825e+06	113.969
1.29569e+06	113.98
1.30317e+06	113.992
1.31069e+06	114.003
1.31826e+06	114.014
1.32587e+06	114.025
1.33352e+06	114.037
1.34122e+06	114.048
1.34896e+06	114.059
1.35675e+06	114.07
1.36458e+06	114.081
1.37246e+06	114.092
1.38038e+06	114.103
1.38835e+06	114.114
1.39637e+06	114.125
1.40443e+06	114.136
1.41254e+06	114.147
1.42069e+06	114.158
1.42889e+06	114.169
1.43714e+06	114.179
1.44544e+06	114.19
1.45378e+06	114.201
1.46218e+06	114.211
1.47062e+06	114.222
1.47911e+06	114.232
1.48765e+06	114.243
1.49624e+06	114.253
1.50487e+06	114.264
1.51356e+06	114.274
1.5223e+06	114.284
1.53109e+06	114.295
1.53993e+06	114.305
1.54882e+06	114.315
1.55776e+06	114.325
1.56675e+06	114.336
1.5758e+06	114.346
1.58489e+06	114.356
1.59404e+06	114.366
1.60325e+06	114.376
1.6125e+06	114.386
1.62181e+06	114.396
1.63117e+06	114.406
1.64059e+06	114.415
1.65006e+06	114.425
1.65959e+06	114.435
1.66917e+06	114.445
1.6788e+06	114.454
1.6885e+06	114.464
1.69824e+06	114.474
1.70805e+06	114.483
1.71791e+06	114.493
1.72783e+06	114.502
1.7378e+06	114.512
1.74783e+06	114.521
1.75792e+06	114.53
1.76807e+06	114.54
1.77828e+06	114.549
1.78855e+06	114.558
1.79887e+06	114.568
1.80926e+06	114.577
1.8197e+06	114.586
1.83021e+06	114.595
1.84077e+06	114.604
1.8514e+06	114.613
1.86209e+06	114.622
1.87284e+06	114.631
1.88365e+06	114.64
1.89452e+06	114.649
1.90546e+06	114.658
1.91646e+06	114.667
1.92752e+06	114.675
1.93865e+06	114.684
1.94984e+06	114.693
1.9611e+06	114.701
1.97242e+06	114.71
1.98381e+06	114.719
1.99526e+06	114.727
2.00678e+06	114.736
2.01837e+06	114.744
2.03002e+06	114.752
2.04174e+06	114.761
2.05353e+06	114.769
2.06538e+06	114.778
2.0773e+06	114.786
2.0893e+06	114.794
2.10136e+06	114.802
2.11349e+06	114.81
2.12569e+06	114.819
2.13796e+06	114.827
2.1503e+06	114.835
2.16272e+06	114.843
2.1752e+06	114.851
2.18776e+06	114.859
2.20039e+06	114.866
2.21309e+06	114.874
2.22587e+06	114.882
2.23872e+06	114.89
2.25165e+06	114.898
2.26464e+06	114.905
2.27772e+06	114.913
2.29087e+06	114.921
2.30409e+06	114.928
2.31739e+06	114.936
2.33077e+06	114.943
2.34423e+06	114.951
2.35776e+06	114.958
2.37137e+06	114.966
2.38506e+06	114.973
2.39883e+06	114.981
2.41268e+06	114.988
2.42661e+06	114.995
2.44062e+06	115.002
2.45471e+06	115.01
2.46888e+06	115.017
2.48313e+06	115.024
2.49747e+06	115.031
2.51189e+06	115.038
2.52639e+06	115.045
2.54097e+06	115.052
2.55564e+06	115.059
2.5704e+06	115.066
2.58523e+06	115.073
2.60016e+06	115.08
2.61517e+06	115.087
2.63027e+06	115.093
2.64545e+06	115.1
2.66073e+06	115.107
2.67609e+06	115.114
2.69153e+06	115.12
2.70707e+06	115.127
2.7227e+06	115.133
2.73842e+06	115.14
2.75423e+06	115.146
2.77013e+06	115.153
2.78612e+06	115.159
2.80221e+06	115.166
2.81838e+06	115.172
2.83465e+06	115.178
2.85102e+06	115.185
2.86748e+06	115.191
2.88403e+06	115.197
2.90068e+06	115.203
2.91743e+06	115.21
2.93427e+06	115.216
2.95121e+06	115.222
2.96825e+06	115.228
2.98538e+06	115.234
3.00262e+06	115.24
3.01995e+06	115.246
3.03739e+06	115.252
3.05492e+06	115.258
3.07256e+06	115.264
3.0903e+06	115.269
3.10814e+06	115.275
3.12608e+06	115.281
3.14413e+06	115.287
3.16228e+06	115.292
3.18053e+06	115.298
3.1989e+06	115.304
3.21736e+06	115.309
3.23594e+06	115.315
3.25462e+06	115.32
3.27341e+06	115.326
3.2923e+06	115.331
3.31131e+06	115.337
3.33043e+06	115.342
3.34965e+06	115.348
3.36899e+06	115.353
3.38844e+06	115.358
3.408e+06	115.364
3.42768e+06	115.369
3.44747e+06	115.374
3.46737e+06	115.379
3.48739e+06	115.384
3.50752e+06	115.39
3.52777e+06	115.395
3.54813e+06	115.4
3.56862e+06	115.405
3.58922e+06	115.41
3.60994e+06	115.415
3.63078e+06	115.42
3.65174e+06	115.425
3.67282e+06	115.43
3.69403e+06	115.434
3.71535e+06	115.439
3.7368e+06	115.444
3.75837e+06	115.449
3.78007e+06	115.454
3.80189e+06	115.458
3.82384e+06	115.463
3.84592e+06	115.468
3.86812e+06	115.472
3.89045e+06	115.477
3.91291e+06	115.481
3.9355e+06	115.486
3.95822e+06	115.49
3.98107e+06	115.495
4.00405e+06	115.499
4.02717e+06	115.504
4.05042e+06	115.508
4.0738e+06	115.512
4.09732e+06	115.517
4.12098e+06	115.521
4.14477e+06	115.525
4.16869e+06	115.53
4.19276e+06	115.534
4.21697e+06	115.538
4.24131e+06	115.542
4.2658e+06	115.546
4.29042e+06	115.55
4.31519e+06	115.554
4.3401e+06	115.558
4.36516e+06	115.562
4.39036e+06	115.566
4.4157e+06	115.57
4.4412e+06	115.574
4.46684e+06	115.578
4.49262e+06	115.582
4.51856e+06	115.586
4.54465e+06	115.59
4.57088e+06	115.594
4.59727e+06	115.597
4.62381e+06	115.601
4.6505e+06	115.605
4.67735e+06	115.609
4.70435e+06	115.612
4.73151e+06	115.616
4.75883e+06	115.619
4.7863e+06	115.623
4.81393e+06	115.627
4.84172e+06	115.63
4.86968e+06	115.634
4.89779e+06	115.637
4.92606e+06	115.641
4.9545e+06	115.644
4.9831e+06	115.647
5.01187e+06	115.651
5.04081e+06	115.654
5.06991e+06	115.658
5.09918e+06	115.661
5.12861e+06	115.664
5.15822e+06	115.667
5.188e+06	115.671
5.21795e+06	115.674
5.24807e+06	115.677
5.27837e+06	115.68
5.30884e+06	115.683
5.33949e+06	115.686
5.37032e+06	115.689
5.40132e+06	115.693
5.4325e+06	115.696
5.46387e+06	115.699
5.49541e+06	115.702
5.52713e+06	115.705
5.55904e+06	115.707
5.59114e+06	115.71
5.62341e+06	115.713
5.65588e+06	115.716
5.68853e+06	115.719
5.72137e+06	115.722
5.7544e+06	115.725
5.78762e+06	115.727
5.82103e+06	115.73
5.85464e+06	115.733
5.88844e+06	115.736
5.92243e+06	115.738
5.95662e+06	115.741
5.99101e+06	115.744
6.0256e+06	115.746
6.06038e+06	115.749
6.09537e+06	115.751
6.13056e+06	115.754
6.16595e+06	115.757
6.20155e+06	115.759
6.23735e+06	115.762
6.27336e+06	115.764
6.30957e+06	115.766
6.346e+06	115.769
6.38263e+06	115.771
6.41948e+06	115.774
6.45654e+06	115.776
6.49382e+06	115.778
6.53131e+06	115.781
6.56901e+06	115.783
6.60693e+06	115.785
6.64508e+06	115.788
6.68344e+06	115.79
6.72202e+06	115.792
6.76083e+06	115.794
6.79986e+06	115.796
6.83912e+06	115.799
6.8786e+06	115.801
6.91831e+06	115.803
6.95825e+06	115.805
6.99842e+06	115.807
7.03882e+06	115.809
7.07946e+06	115.811
7.12033e+06	115.813
7.16143e+06	115.815
7.20278e+06	115.817
7.24436e+06	115.819
7.28618e+06	115.821
7.32825e+06	115.823
7.37055e+06	115.825
7.4131e+06	115.827
7.4559e+06	115.829
7.49894e+06	115.83
7.54223e+06	115.832
7.58578e+06	115.834
7.62957e+06	115.836
7.67361e+06	115.838
7.71792e+06	115.839
7.76247e+06	115.841
7.80728e+06	115.843
7.85236e+06	115.845
7.89769e+06	115.846
7.94328e+06	115.848
7.98914e+06	115.85
8.03526e+06	115.851
8.08165e+06	115.853
8.12831e+06	115.854
8.17523e+06	115.856
8.22243e+06	115.858
8.2699e+06	115.859
8.31764e+06	115.861
8.36566e+06	115.862
8.41395e+06	115.864
8.46253e+06	115.865
8.51138e+06	115.867
8.56052e+06	115.868
8.60994e+06	115.87
8.65964e+06	115.871
8.70964e+06	115.872
8.75992e+06	115.874
8.81049e+06	115.875
8.86135e+06	115.877
8.91251e+06	115.878
8.96396e+06	115.879
9.01571e+06	115.881
9.06776e+06	115.882
9.12011e+06	115.883
9.17276e+06	115.884
9.22571e+06	115.886
9.27897e+06	115.887
9.33254e+06	115.888
9.38642e+06	115.889
9.44061e+06	115.89
9.49511e+06	115.892
9.54993e+06	115.893
9.60506e+06	115.894
9.66051e+06	115.895
9.71628e+06	115.896
9.77237e+06	115.897
9.82879e+06	115.898
9.88553e+06	115.899
9.9426e+06	115.901
1e+07	115.902
