Stopping power dEdx from Ionisation for Ar40[0.0] Z = 18 in Water, process name: ionIoni
E [MeV]	dEdx [MeV/mm]
0.001	21.6095
0.00100577	21.6721
0.00101158	21.7349
0.00101742	21.7979
0.00102329	21.8611
0.0010292	21.9244
0.00103514	21.988
0.00104112	22.0517
0.00104713	22.1156
0.00105317	22.1797
0.00105925	22.2439
0.00106537	22.3084
0.00107152	22.373
0.00107771	22.4379
0.00108393	22.5029
0.00109018	22.5681
0.00109648	22.6335
0.00110281	22.699
0.00110917	22.7648
0.00111558	22.8308
0.00112202	22.8969
0.0011285	22.9632
0.00113501	23.0298
0.00114156	23.0965
0.00114815	23.1634
0.00115478	23.2305
0.00116145	23.2978
0.00116815	23.3653
0.0011749	23.433
0.00118168	23.5009
0.0011885	23.569
0.00119536	23.6372
0.00120226	23.7057
0.00120921	23.7744
0.00121619	23.8432
0.00122321	23.9123
0.00123027	23.9816
0.00123737	24.051
0.00124451	24.1207
0.0012517	24.1906
0.00125893	24.2606
0.00126619	24.3309
0.0012735	24.4014
0.00128086	24.472
0.00128825	24.5429
0.00129569	24.614
0.00130317	24.6853
0.00131069	24.7568
0.00131826	24.8285
0.00132587	24.9004
0.00133352	24.9725
0.00134122	25.0448
0.00134896	25.1173
0.00135675	25.1901
0.00136458	25.263
0.00137246	25.3362
0.00138038	25.4096
0.00138835	25.4831
0.00139637	25.5569
0.00140443	25.6309
0.00141254	25.7052
0.00142069	25.7796
0.00142889	25.8542
0.00143714	25.9291
0.00144544	26.0042
0.00145378	26.0795
0.00146218	26.155
0.00147062	26.2307
0.00147911	26.3067
0.00148765	26.3828
0.00149624	26.4592
0.00150487	26.5358
0.00151356	26.6126
0.0015223	26.6897
0.00153109	26.767
0.00153993	26.8444
0.00154882	26.9222
0.00155776	27.0001
0.00156675	27.0783
0.0015758	27.1567
0.00158489	27.2353
0.00159404	27.3141
0.00160325	27.3932
0.0016125	27.4725
0.00162181	27.552
0.00163117	27.6318
0.00164059	27.7117
0.00165006	27.792
0.00165959	27.8724
0.00166917	27.9531
0.0016788	28.034
0.0016885	28.1151
0.00169824	28.1965
0.00170805	28.2781
0.00171791	28.36
0.00172783	28.4421
0.0017378	28.5244
0.00174783	28.607
0.00175792	28.6897
0.00176807	28.7728
0.00177828	28.8561
0.00178855	28.9396
0.00179887	29.0233
0.00180926	29.1073
0.0018197	29.1916
0.00183021	29.276
0.00184077	29.3608
0.0018514	29.4457
0.00186209	29.5309
0.00187284	29.6164
0.00188365	29.7021
0.00189452	29.7881
0.00190546	29.8743
0.00191646	29.9607
0.00192752	30.0474
0.00193865	30.1344
0.00194984	30.2216
0.0019611	30.309
0.00197242	30.3967
0.00198381	30.4847
0.00199526	30.5729
0.00200678	30.6613
0.00201837	30.7501
0.00203002	30.839
0.00204174	30.9283
0.00205353	31.0177
0.00206538	31.1075
0.0020773	31.1975
0.0020893	31.2878
0.00210136	31.3783
0.00211349	31.4691
0.00212569	31.5601
0.00213796	31.6514
0.0021503	31.743
0.00216272	31.8348
0.0021752	31.9269
0.00218776	32.0193
0.00220039	32.1119
0.00221309	32.2048
0.00222587	32.298
0.00223872	32.3914
0.00225165	32.4851
0.00226464	32.5791
0.00227772	32.6734
0.00229087	32.7679
0.00230409	32.8627
0.00231739	32.9577
0.00233077	33.0531
0.00234423	33.1487
0.00235776	33.2446
0.00237137	33.3407
0.00238506	33.4372
0.00239883	33.5339
0.00241268	33.6309
0.00242661	33.7282
0.00244062	33.8257
0.00245471	33.9236
0.00246888	34.0217
0.00248313	34.1201
0.00249747	34.2188
0.00251189	34.3177
0.00252639	34.417
0.00254097	34.5165
0.00255564	34.6164
0.0025704	34.7165
0.00258523	34.8169
0.00260016	34.9176
0.00261517	35.0186
0.00263027	35.1198
0.00264545	35.2214
0.00266073	35.3233
0.00267609	35.4254
0.00269153	35.5279
0.00270707	35.6306
0.0027227	35.7337
0.00273842	35.837
0.00275423	35.9406
0.00277013	36.0446
0.00278612	36.1488
0.00280221	36.2533
0.00281838	36.3582
0.00283465	36.4633
0.00285102	36.5688
0.00286748	36.6745
0.00288403	36.7806
0.00290068	36.8869
0.00291743	36.9936
0.00293427	37.1005
0.00295121	37.2078
0.00296825	37.3154
0.00298538	37.4233
0.00300262	37.5315
0.00301995	37.64
0.00303739	37.7489
0.00305492	37.858
0.00307256	37.9675
0.0030903	38.0773
0.00310814	38.1873
0.00312608	38.2978
0.00314413	38.4085
0.00316228	38.5195
0.00318053	38.6309
0.0031989	38.7426
0.00321736	38.8546
0.00323594	38.9669
0.00325462	39.0796
0.00327341	39.1926
0.0032923	39.3059
0.00331131	39.4195
0.00333043	39.5335
0.00334965	39.6478
0.00336899	39.7624
0.00338844	39.8773
0.003408	39.9926
0.00342768	40.1082
0.00344747	40.2242
0.00346737	40.3405
0.00348739	40.4571
0.00350752	40.574
0.00352777	40.6913
0.00354813	40.809
0.00356862	40.9269
0.00358922	41.0452
0.00360994	41.1639
0.00363078	41.2829
0.00365174	41.4022
0.00367282	41.5219
0.00369403	41.6419
0.00371535	41.7623
0.0037368	41.883
0.00375837	42.004
0.00378007	42.1255
0.00380189	42.2472
0.00382384	42.3693
0.00384592	42.4918
0.00386812	42.6146
0.00389045	42.7378
0.00391291	42.8613
0.0039355	42.9852
0.00395822	43.1094
0.00398107	43.234
0.00400405	43.359
0.00402717	43.4843
0.00405042	43.61
0.0040738	43.736
0.00409732	43.8624
0.00412098	43.9892
0.00414477	44.1163
0.00416869	44.2438
0.00419276	44.3717
0.00421697	44.4999
0.00424131	44.6285
0.0042658	44.7575
0.00429042	44.8869
0.00431519	45.0166
0.0043401	45.1467
0.00436516	45.2771
0.00439036	45.408
0.0044157	45.5392
0.0044412	45.6708
0.00446684	45.8028
0.00449262	45.9352
0.00451856	46.0679
0.00454465	46.201
0.00457088	46.3345
0.00459727	46.4684
0.00462381	46.6027
0.0046505	46.7374
0.00467735	46.8724
0.00470435	47.0079
0.00473151	47.2617
0.00475883	47.398
0.0047863	47.5346
0.00481393	47.6716
0.00484172	47.809
0.00486968	47.9468
0.00489779	48.085
0.00492606	48.2236
0.0049545	48.3626
0.0049831	48.502
0.00501187	48.6418
0.00504081	48.782
0.00506991	48.9226
0.00509918	49.0636
0.00512861	49.205
0.00515822	49.3469
0.005188	49.4891
0.00521795	49.6318
0.00524807	49.7748
0.00527837	49.9183
0.00530884	50.0622
0.00533949	50.2065
0.00537032	50.3512
0.00540132	50.4963
0.0054325	50.6419
0.00546387	50.7878
0.00549541	50.9342
0.00552713	51.081
0.00555904	51.2283
0.00559114	51.3759
0.00562341	51.524
0.00565588	51.6725
0.00568853	51.8215
0.00572137	51.9708
0.0057544	52.1206
0.00578762	52.2709
0.00582103	52.4215
0.00585464	52.5726
0.00588844	52.7242
0.00592243	52.8761
0.00595662	53.0285
0.00599101	53.1814
0.0060256	53.3347
0.00606038	53.4884
0.00609537	53.6426
0.00613056	53.7972
0.00616595	53.9523
0.00620155	54.1078
0.00623735	54.2637
0.00627336	54.4201
0.00630957	54.577
0.006346	54.7343
0.00638263	54.8921
0.00641948	55.0503
0.00645654	55.209
0.00649382	55.3681
0.00653131	55.5277
0.00656901	55.6877
0.00660693	55.8483
0.00664508	56.0092
0.00668344	56.1707
0.00672202	56.3326
0.00676083	56.4949
0.00679986	56.6578
0.00683912	56.8211
0.0068786	56.9849
0.00691831	57.1491
0.00695825	57.3139
0.00699842	57.4791
0.00703882	57.6447
0.00707946	57.8109
0.00712033	57.9775
0.00716143	58.1446
0.00720278	58.3122
0.00724436	58.4803
0.00728618	58.6489
0.00732825	58.8179
0.00737055	58.9874
0.0074131	59.1575
0.0074559	59.328
0.00749894	59.499
0.00754223	59.6705
0.00758578	59.8425
0.00762957	60.015
0.00767361	60.188
0.00771792	60.3614
0.00776247	60.5354
0.00780728	60.7099
0.00785236	60.8849
0.00789769	61.0604
0.00794328	61.2364
0.00798914	61.4129
0.00803526	61.5899
0.00808165	61.7674
0.00812831	61.9455
0.00817523	62.124
0.00822243	62.3031
0.0082699	62.4827
0.00831764	62.6628
0.00836566	62.8434
0.00841395	63.0245
0.00846253	63.2062
0.00851138	63.3884
0.00856052	63.5711
0.00860994	63.7543
0.00865964	63.9381
0.00870964	64.1224
0.00875992	64.3072
0.00881049	64.4926
0.00886135	64.6785
0.00891251	64.8649
0.00896396	65.0518
0.00901571	65.2393
0.00906776	65.4274
0.00912011	65.616
0.00917276	65.8051
0.00922571	65.9948
0.00927897	66.185
0.00933254	66.3758
0.00938642	66.5671
0.00944061	66.759
0.00949511	66.9514
0.00954993	67.1444
0.00960506	67.3379
0.00966051	67.532
0.00971628	67.7267
0.00977237	67.9219
0.00982879	68.1176
0.00988553	68.314
0.0099426	68.5109
0.01	68.7084
0.0100577	68.9064
0.0101158	69.105
0.0101742	69.3042
0.0102329	69.504
0.010292	69.7043
0.0103514	69.9052
0.0104112	70.1067
0.0104713	70.3088
0.0105317	70.5114
0.0105925	70.7147
0.0106537	70.9185
0.0107152	71.1229
0.0107771	71.3279
0.0108393	71.5335
0.0109018	71.7397
0.0109648	71.9465
0.0110281	72.1539
0.0110917	72.3618
0.0111558	72.5704
0.0112202	72.7796
0.011285	72.9894
0.0113501	73.1998
0.0114156	73.4107
0.0114815	73.6223
0.0115478	73.8345
0.0116145	74.0474
0.0116815	74.2608
0.011749	74.4748
0.0118168	74.6895
0.011885	74.9048
0.0119536	75.1207
0.0120226	75.3372
0.0120921	75.5544
0.0121619	75.7721
0.0122321	75.9906
0.0123027	76.2096
0.0123737	76.4293
0.0124451	76.6495
0.012517	76.8705
0.0125893	77.0921
0.0126619	77.3143
0.012735	77.5371
0.0128086	77.7606
0.0128825	77.9847
0.0129569	78.2095
0.0130317	78.4349
0.0131069	78.661
0.0131826	78.8878
0.0132587	79.1151
0.0133352	79.3432
0.0134122	79.5719
0.0134896	79.8012
0.0135675	80.0313
0.0136458	80.2619
0.0137246	80.4933
0.0138038	80.7253
0.0138835	80.958
0.0139637	81.1913
0.0140443	81.4253
0.0141254	81.66
0.0142069	81.8954
0.0142889	82.1315
0.0143714	82.3682
0.0144544	82.6056
0.0145378	82.8437
0.0146218	83.0825
0.0147062	83.322
0.0147911	83.5622
0.0148765	83.803
0.0149624	84.0446
0.0150487	84.2868
0.0151356	84.5298
0.015223	84.7734
0.0153109	85.0178
0.0153993	85.2628
0.0154882	85.5086
0.0155776	85.755
0.0156675	86.0022
0.015758	86.2501
0.0158489	86.4987
0.0159404	86.748
0.0160325	86.9981
0.016125	87.2488
0.0162181	87.5003
0.0163117	87.7525
0.0164059	88.0055
0.0165006	88.2591
0.0165959	88.5135
0.0166917	88.7686
0.016788	89.0245
0.016885	89.2811
0.0169824	89.5385
0.0170805	89.7965
0.0171791	90.0554
0.0172783	90.3149
0.017378	90.5753
0.0174783	90.8363
0.0175792	91.0982
0.0176807	91.3607
0.0177828	91.6241
0.0178855	91.8882
0.0179887	92.153
0.0180926	92.4186
0.018197	92.685
0.0183021	92.9522
0.0184077	93.2201
0.018514	93.4888
0.0186209	93.7583
0.0187284	94.0285
0.0188365	94.2995
0.0189452	94.5714
0.0190546	94.8439
0.0191646	95.1173
0.0192752	95.3915
0.0193865	95.6664
0.0194984	95.9422
0.019611	96.2187
0.0197242	96.4961
0.0198381	96.7742
0.0199526	97.0531
0.0200678	97.3329
0.0201837	97.6134
0.0203002	97.8948
0.0204174	98.177
0.0205353	98.4599
0.0206538	98.7437
0.020773	99.0284
0.020893	99.3138
0.0210136	99.6001
0.0211349	99.8871
0.0212569	100.175
0.0213796	100.464
0.021503	100.753
0.0216272	101.044
0.021752	101.335
0.0218776	101.627
0.0220039	101.92
0.0221309	102.214
0.0222587	102.508
0.0223872	102.804
0.0225165	103.1
0.0226464	103.397
0.0227772	103.695
0.0229087	103.994
0.0230409	104.294
0.0231739	104.595
0.0233077	104.896
0.0234423	105.199
0.0235776	105.502
0.0237137	105.806
0.0238506	106.111
0.0239883	106.417
0.0241268	106.723
0.0242661	107.031
0.0244062	107.34
0.0245471	107.649
0.0246888	107.959
0.0248313	108.27
0.0249747	108.582
0.0251189	108.895
0.0252639	109.209
0.0254097	109.524
0.0255564	109.84
0.025704	110.156
0.0258523	110.474
0.0260016	110.792
0.0261517	111.112
0.0263027	111.432
0.0264545	111.753
0.0266073	112.075
0.0267609	112.398
0.0269153	112.722
0.0270707	113.047
0.027227	113.373
0.0273842	113.7
0.0275423	114.028
0.0277013	114.356
0.0278612	114.686
0.0280221	115.016
0.0281838	115.348
0.0283465	115.68
0.0285102	116.014
0.0286748	116.348
0.0288403	116.684
0.0290068	117.02
0.0291743	117.357
0.0293427	117.695
0.0295121	118.035
0.0296825	118.375
0.0298538	118.716
0.0300262	119.058
0.0301995	119.401
0.0303739	119.746
0.0305492	120.091
0.0307256	120.437
0.030903	120.784
0.0310814	121.132
0.0312608	121.481
0.0314413	121.832
0.0316228	122.183
0.0318053	122.535
0.031989	122.888
0.0321736	123.242
0.0323594	123.597
0.0325462	123.954
0.0327341	124.311
0.032923	124.669
0.0331131	125.029
0.0333043	125.389
0.0334965	125.75
0.0336899	126.113
0.0338844	126.476
0.03408	126.841
0.0342768	127.207
0.0344747	127.573
0.0346737	127.941
0.0348739	128.31
0.0350752	128.68
0.0352777	129.05
0.0354813	129.422
0.0356862	129.795
0.0358922	130.17
0.0360994	130.545
0.0363078	130.921
0.0365174	131.298
0.0367282	131.677
0.0369403	132.056
0.0371535	132.437
0.037368	132.819
0.0375837	133.202
0.0378007	133.586
0.0380189	133.971
0.0382384	134.357
0.0384592	134.744
0.0386812	135.132
0.0389045	135.522
0.0391291	135.913
0.039355	136.304
0.0395822	136.697
0.0398107	137.091
0.0400405	137.486
0.0402717	137.883
0.0405042	138.28
0.040738	138.679
0.0409732	139.078
0.0412098	139.479
0.0414477	139.881
0.0416869	140.284
0.0419276	140.689
0.0421697	141.094
0.0424131	141.501
0.042658	141.909
0.0429042	142.318
0.0431519	142.728
0.043401	143.14
0.0436516	143.552
0.0439036	143.966
0.044157	144.381
0.044412	144.797
0.0446684	145.214
0.0449262	145.633
0.0451856	146.053
0.0454465	146.474
0.0457088	146.896
0.0459727	147.319
0.0462381	147.744
0.046505	148.17
0.0467735	148.597
0.0470435	149.025
0.0473151	149.455
0.0475883	149.885
0.047863	150.318
0.0481393	150.751
0.0484172	151.185
0.0486968	151.621
0.0489779	152.058
0.0492606	152.496
0.049545	152.936
0.049831	153.377
0.0501187	153.819
0.0504081	154.262
0.0506991	154.707
0.0509918	155.153
0.0512861	155.6
0.0515822	156.049
0.05188	156.498
0.0521795	156.949
0.0524807	157.402
0.0527837	157.855
0.0530884	158.31
0.0533949	158.767
0.0537032	159.224
0.0540132	159.683
0.054325	160.144
0.0546387	160.605
0.0549541	161.068
0.0552713	161.532
0.0555904	161.998
0.0559114	162.465
0.0562341	162.933
0.0565588	163.403
0.0568853	163.874
0.0572137	164.346
0.057544	164.82
0.0578762	165.295
0.0582103	165.771
0.0585464	166.249
0.0588844	166.728
0.0592243	167.209
0.0595662	167.691
0.0599101	168.174
0.060256	168.659
0.0606038	169.145
0.0609537	169.633
0.0613056	170.122
0.0616595	170.612
0.0620155	171.104
0.0623735	171.597
0.0627336	172.092
0.0630957	172.588
0.06346	173.085
0.0638263	173.584
0.0641948	174.084
0.0645654	174.586
0.0649382	175.089
0.0653131	175.594
0.0656901	176.1
0.0660693	176.608
0.0664508	177.117
0.0668344	177.627
0.0672202	178.139
0.0676083	178.653
0.0679986	179.168
0.0683912	179.684
0.068786	180.202
0.0691831	180.721
0.0695825	181.242
0.0699842	181.765
0.0703882	182.289
0.0707946	182.814
0.0712033	183.341
0.0716143	183.869
0.0720278	184.399
0.0724436	184.931
0.0728618	185.464
0.0732825	185.999
0.0737055	186.535
0.074131	187.072
0.074559	187.612
0.0749894	188.152
0.0754223	188.695
0.0758578	189.239
0.0762957	189.784
0.0767361	190.331
0.0771792	190.88
0.0776247	191.43
0.0780728	191.982
0.0785236	192.535
0.0789769	193.09
0.0794328	193.646
0.0798914	194.205
0.0803526	194.764
0.0808165	195.326
0.0812831	195.889
0.0817523	196.453
0.0822243	197.02
0.082699	197.588
0.0831764	198.157
0.0836566	198.728
0.0841395	199.301
0.0846253	199.876
0.0851138	200.452
0.0856052	201.029
0.0860994	201.609
0.0865964	202.19
0.0870964	202.773
0.0875992	203.357
0.0881049	203.943
0.0886135	204.531
0.0891251	205.121
0.0896396	205.712
0.0901571	206.305
0.0906776	206.9
0.0912011	207.496
0.0917276	208.094
0.0922571	208.694
0.0927897	209.295
0.0933254	209.899
0.0938642	210.504
0.0944061	211.11
0.0949511	211.719
0.0954993	212.329
0.0960506	212.941
0.0966051	213.555
0.0971628	214.17
0.0977237	214.788
0.0982879	215.407
0.0988553	216.028
0.099426	216.65
0.1	217.275
0.100577	217.901
0.101158	218.529
0.101742	219.159
0.102329	219.791
0.10292	220.424
0.103514	221.06
0.104112	221.697
0.104713	222.336
0.105317	222.977
0.105925	223.619
0.106537	224.264
0.107152	224.91
0.107771	225.559
0.108393	226.209
0.109018	226.861
0.109648	227.515
0.110281	228.171
0.110917	228.828
0.111558	229.488
0.112202	230.149
0.11285	230.813
0.113501	231.478
0.114156	232.145
0.114815	232.814
0.115478	233.485
0.116145	234.158
0.116815	234.833
0.11749	235.51
0.118168	236.189
0.11885	236.87
0.119536	237.553
0.120226	238.237
0.120921	238.924
0.121619	239.613
0.122321	240.303
0.123027	240.996
0.123737	241.691
0.124451	242.387
0.12517	243.086
0.125893	243.786
0.126619	244.489
0.12735	245.194
0.128086	245.901
0.128825	246.609
0.129569	247.32
0.130317	248.033
0.131069	248.748
0.131826	249.465
0.132587	250.184
0.133352	250.905
0.134122	251.628
0.134896	252.354
0.135675	253.081
0.136458	253.811
0.137246	254.542
0.138038	255.276
0.138835	256.012
0.139637	256.75
0.140443	257.49
0.141254	258.232
0.142069	258.976
0.142889	259.723
0.143714	260.471
0.144544	261.222
0.145378	261.975
0.146218	262.73
0.147062	263.487
0.147911	264.247
0.148765	265.008
0.149624	265.772
0.150487	266.538
0.151356	267.307
0.15223	268.077
0.153109	268.85
0.153993	269.625
0.154882	270.402
0.155776	271.181
0.156675	271.963
0.15758	272.747
0.158489	273.533
0.159404	274.321
0.160325	275.112
0.16125	275.905
0.162181	276.7
0.163117	277.498
0.164059	278.298
0.165006	279.1
0.165959	279.904
0.166917	280.711
0.16788	281.52
0.16885	282.332
0.169824	283.145
0.170805	283.962
0.171791	284.78
0.172783	285.601
0.17378	286.424
0.174783	287.25
0.175792	288.078
0.176807	288.908
0.177828	289.741
0.178855	290.576
0.179887	291.413
0.180926	292.253
0.18197	293.096
0.183021	293.941
0.184077	294.788
0.18514	295.638
0.186209	296.49
0.187284	297.344
0.188365	298.201
0.189452	299.061
0.190546	299.923
0.191646	300.787
0.192752	301.654
0.193865	302.524
0.194984	303.396
0.19611	304.27
0.197242	305.147
0.198381	306.027
0.199526	306.909
0.200678	307.794
0.201837	308.681
0.203002	309.571
0.204174	310.463
0.205353	311.358
0.206538	312.255
0.20773	313.155
0.20893	314.058
0.210136	314.963
0.211349	315.871
0.212569	316.781
0.213796	317.694
0.21503	318.61
0.216272	319.529
0.21752	320.45
0.218776	321.373
0.220039	322.299
0.221309	323.228
0.222587	324.16
0.223872	325.094
0.225165	326.032
0.226464	326.971
0.227772	327.914
0.229087	328.859
0.230409	329.807
0.231739	330.757
0.233077	331.711
0.234423	332.667
0.235776	333.626
0.237137	334.587
0.238506	335.552
0.239883	336.519
0.241268	337.489
0.242661	338.462
0.244062	339.437
0.245471	340.416
0.246888	341.397
0.248313	342.381
0.249747	343.368
0.251189	344.358
0.252639	345.35
0.254097	346.346
0.255564	347.344
0.25704	348.345
0.258523	349.349
0.260016	350.356
0.261517	351.366
0.263027	352.379
0.264545	353.394
0.266073	354.413
0.267609	355.435
0.269153	356.459
0.270707	357.486
0.27227	358.517
0.273842	359.55
0.275423	360.587
0.277013	361.626
0.278612	362.668
0.280221	363.714
0.281838	364.762
0.283465	365.813
0.285102	366.868
0.286748	367.925
0.288403	368.986
0.290068	370.049
0.291743	371.116
0.293427	372.186
0.295121	373.258
0.296825	374.334
0.298538	375.413
0.300262	376.495
0.301995	377.581
0.303739	378.669
0.305492	379.76
0.307256	380.855
0.30903	381.953
0.310814	383.054
0.312608	384.158
0.314413	385.265
0.316228	386.376
0.318053	387.489
0.31989	388.606
0.321736	389.726
0.323594	390.85
0.325462	391.976
0.327341	393.106
0.32923	394.239
0.331131	395.375
0.333043	396.515
0.334965	397.658
0.336899	398.804
0.338844	399.954
0.3408	401.106
0.342768	402.263
0.344747	403.422
0.346737	404.585
0.348739	405.751
0.350752	406.921
0.352777	408.093
0.354813	409.27
0.356862	410.449
0.358922	411.632
0.360994	412.819
0.363078	414.009
0.365174	415.202
0.367282	416.399
0.369403	417.599
0.371535	418.803
0.37368	420.01
0.375837	421.221
0.378007	422.435
0.380189	423.652
0.382384	424.873
0.384592	426.098
0.386812	427.326
0.389045	428.558
0.391291	429.793
0.39355	431.032
0.395822	432.274
0.398107	433.52
0.400405	434.77
0.402717	436.023
0.405042	437.28
0.40738	438.54
0.409732	439.804
0.412098	441.072
0.414477	442.343
0.416869	443.618
0.419276	444.897
0.421697	446.179
0.424131	447.466
0.42658	448.755
0.429042	450.049
0.431519	451.346
0.43401	452.647
0.436516	453.952
0.439036	455.26
0.44157	456.572
0.44412	457.888
0.446684	459.208
0.449262	460.532
0.451856	461.859
0.454465	463.19
0.457088	464.526
0.459727	465.864
0.462381	467.207
0.46505	468.554
0.467735	469.905
0.470435	471.259
0.473151	472.617
0.475883	473.98
0.47863	475.346
0.481393	476.716
0.484172	478.09
0.486968	479.468
0.489779	480.85
0.492606	482.236
0.49545	483.626
0.49831	485.02
0.501187	486.418
0.504081	487.82
0.506991	489.226
0.509918	490.636
0.512861	492.05
0.515822	493.469
0.5188	494.891
0.521795	496.318
0.524807	497.748
0.527837	499.183
0.530884	500.622
0.533949	502.065
0.537032	503.512
0.540132	504.963
0.54325	506.419
0.546387	507.878
0.549541	509.342
0.552713	510.81
0.555904	512.283
0.559114	513.759
0.562341	515.24
0.565588	516.725
0.568853	518.215
0.572137	519.708
0.57544	521.206
0.578762	522.709
0.582103	524.215
0.585464	525.726
0.588844	527.242
0.592243	528.761
0.595662	530.285
0.599101	531.814
0.60256	533.347
0.606038	534.884
0.609537	536.426
0.613056	537.972
0.616595	539.523
0.620155	541.078
0.623735	542.637
0.627336	544.201
0.630957	545.77
0.6346	547.343
0.638263	548.921
0.641948	550.503
0.645654	552.09
0.649382	553.681
0.653131	555.277
0.656901	556.877
0.660693	558.483
0.664508	560.092
0.668344	561.707
0.672202	563.326
0.676083	564.949
0.679986	566.578
0.683912	568.211
0.68786	569.849
0.691831	571.491
0.695825	573.139
0.699842	574.791
0.703882	576.447
0.707946	578.109
0.712033	579.775
0.716143	581.446
0.720278	583.122
0.724436	584.803
0.728618	586.489
0.732825	588.179
0.737055	589.874
0.74131	591.575
0.74559	593.28
0.749894	594.99
0.754223	596.705
0.758578	598.425
0.762957	600.15
0.767361	601.88
0.771792	603.614
0.776247	605.354
0.780728	607.099
0.785236	608.849
0.789769	610.604
0.794328	612.364
0.798914	614.129
0.803526	615.899
0.808165	617.674
0.812831	619.455
0.817523	621.24
0.822243	623.031
0.82699	624.827
0.831764	626.628
0.836566	628.434
0.841395	630.245
0.846253	632.062
0.851138	633.884
0.856052	635.711
0.860994	637.543
0.865964	639.381
0.870964	641.224
0.875992	643.072
0.881049	644.926
0.886135	646.785
0.891251	648.649
0.896396	650.518
0.901571	652.393
0.906776	654.274
0.912011	656.16
0.917276	658.051
0.922571	659.948
0.927897	661.85
0.933254	663.758
0.938642	665.671
0.944061	667.59
0.949511	669.514
0.954993	671.444
0.960506	673.379
0.966051	675.32
0.971628	677.267
0.977237	679.219
0.982879	681.176
0.988553	683.14
0.99426	685.109
1	687.084
1.00577	689.16
1.01158	691.247
1.01742	693.344
1.02329	695.453
1.0292	697.573
1.03514	699.704
1.04112	701.846
1.04713	703.999
1.05317	706.163
1.05925	708.338
1.06537	710.525
1.07152	712.723
1.07771	714.932
1.08393	717.153
1.09018	719.385
1.09648	721.628
1.10281	723.883
1.10917	726.15
1.11558	728.428
1.12202	730.718
1.1285	733.02
1.13501	735.333
1.14156	737.658
1.14815	739.995
1.15478	742.344
1.16145	744.705
1.16815	747.077
1.1749	749.462
1.18168	751.859
1.1885	754.267
1.19536	756.688
1.20226	759.094
1.20921	761.456
1.21619	763.829
1.22321	766.214
1.23027	768.611
1.23737	771.02
1.24451	773.44
1.2517	775.873
1.25893	778.318
1.26619	780.774
1.2735	783.243
1.28086	785.724
1.28825	788.217
1.29569	790.722
1.30317	793.239
1.31069	795.768
1.31826	798.31
1.32587	800.864
1.33352	803.43
1.34122	806.009
1.34896	808.6
1.35675	811.203
1.36458	813.819
1.37246	816.447
1.38038	819.088
1.38835	821.741
1.39637	824.407
1.40443	827.085
1.41254	829.776
1.42069	832.48
1.42889	835.196
1.43714	837.925
1.44544	840.667
1.45378	843.421
1.46218	846.188
1.47062	848.968
1.47911	851.761
1.48765	854.566
1.49624	857.385
1.50487	860.216
1.51356	863.06
1.5223	865.917
1.53109	868.787
1.53993	871.669
1.54882	874.565
1.55776	877.474
1.56675	880.396
1.5758	883.33
1.58489	886.278
1.59404	889.238
1.60325	892.204
1.6125	895.168
1.62181	898.145
1.63117	901.136
1.64059	904.139
1.65006	907.155
1.65959	910.185
1.66917	913.228
1.6788	916.284
1.6885	919.353
1.69824	922.437
1.70805	925.533
1.71791	928.643
1.72783	931.767
1.7378	934.905
1.74783	938.056
1.75792	941.221
1.76807	944.401
1.77828	947.594
1.78855	950.801
1.79887	954.023
1.80926	957.259
1.8197	960.509
1.83021	963.773
1.84077	967.052
1.8514	970.346
1.86209	973.654
1.87284	976.977
1.88365	980.315
1.89452	983.668
1.90546	987.035
1.91646	990.418
1.92752	993.816
1.93865	997.229
1.94984	1000.66
1.9611	1004.1
1.97242	1007.56
1.98381	1011.04
1.99526	1014.53
2.00678	1018.03
2.01837	1021.56
2.03002	1025.09
2.04174	1028.65
2.05353	1032.22
2.06538	1035.81
2.0773	1039.41
2.0893	1043.03
2.10136	1046.66
2.11349	1050.31
2.12569	1053.98
2.13796	1057.66
2.1503	1061.36
2.16272	1065.08
2.1752	1068.81
2.18776	1072.56
2.20039	1076.32
2.21309	1080.11
2.22587	1083.9
2.23872	1087.72
2.25165	1091.55
2.26464	1095.4
2.27772	1099.26
2.29087	1103.14
2.30409	1107.04
2.31739	1110.96
2.33077	1114.89
2.34423	1118.84
2.35776	1122.8
2.37137	1126.78
2.38506	1130.78
2.39883	1134.79
2.41268	1138.83
2.42661	1142.87
2.44062	1146.94
2.45471	1151.02
2.46888	1155.12
2.48313	1159.24
2.49747	1163.37
2.51189	1167.52
2.52639	1171.68
2.54097	1175.87
2.55564	1180.07
2.5704	1184.29
2.58523	1188.52
2.60016	1192.77
2.61517	1197.04
2.63027	1201.33
2.64545	1205.63
2.66073	1209.95
2.67609	1214.29
2.69153	1218.64
2.70707	1223.01
2.7227	1227.4
2.73842	1231.8
2.75423	1236.23
2.77013	1240.67
2.78612	1245.12
2.80221	1249.6
2.81838	1254.09
2.83465	1258.59
2.85102	1263.12
2.86748	1267.66
2.88403	1272.22
2.90068	1276.8
2.91743	1281.39
2.93427	1286
2.95121	1290.62
2.96825	1295.27
2.98538	1299.93
3.00262	1304.61
3.01995	1309.3
3.03739	1314.01
3.05492	1318.74
3.07256	1323.48
3.0903	1328.24
3.10814	1333.02
3.12608	1337.82
3.14413	1342.63
3.16228	1347.46
3.18053	1352.3
3.1989	1357.16
3.21736	1362.04
3.23594	1366.93
3.25462	1371.84
3.27341	1376.77
3.2923	1381.71
3.31131	1386.67
3.33043	1391.64
3.34965	1396.63
3.36899	1401.64
3.38844	1406.66
3.408	1411.7
3.42768	1416.75
3.44747	1421.82
3.46737	1426.9
3.48739	1432
3.50752	1437.12
3.52777	1442.25
3.54813	1447.4
3.56862	1452.56
3.58922	1457.74
3.60994	1462.93
3.63078	1468.14
3.65174	1473.36
3.67282	1478.6
3.69403	1483.85
3.71535	1489.12
3.7368	1494.4
3.75837	1499.7
3.78007	1505.01
3.80189	1510.34
3.82384	1515.68
3.84592	1521.03
3.86812	1526.4
3.89045	1531.78
3.91291	1537.18
3.9355	1542.59
3.95822	1548.01
3.98107	1553.45
4.00405	1558.9
4.02717	1564.37
4.05042	1569.85
4.0738	1575.34
4.09732	1580.85
4.12098	1586.37
4.14477	1591.9
4.16869	1597.45
4.19276	1603.01
4.21697	1608.58
4.24131	1614.16
4.2658	1619.76
4.29042	1625.37
4.31519	1630.99
4.3401	1636.63
4.36516	1642.27
4.39036	1647.93
4.4157	1653.6
4.4412	1659.28
4.46684	1664.98
4.49262	1670.68
4.51856	1676.4
4.54465	1682.13
4.57088	1687.87
4.59727	1693.62
4.62381	1699.38
4.6505	1705.15
4.67735	1710.94
4.70435	1716.73
4.73151	1722.53
4.75883	1728.35
4.7863	1734.17
4.81393	1740.01
4.84172	1745.85
4.86968	1751.71
4.89779	1757.57
4.92606	1763.45
4.9545	1769.33
4.9831	1775.23
5.01187	1781.13
5.04081	1787.04
5.06991	1792.96
5.09918	1798.89
5.12861	1804.83
5.15822	1810.78
5.188	1816.73
5.21795	1822.69
5.24807	1828.66
5.27837	1834.64
5.30884	1840.63
5.33949	1846.62
5.37032	1852.63
5.40132	1858.63
5.4325	1864.65
5.46387	1870.67
5.49541	1876.7
5.52713	1882.74
5.55904	1888.78
5.59114	1894.83
5.62341	1900.89
5.65588	1906.95
5.68853	1913.01
5.72137	1919.09
5.7544	1925.16
5.78762	1931.25
5.82103	1937.34
5.85464	1943.43
5.88844	1949.53
5.92243	1955.63
5.95662	1961.74
5.99101	1967.85
6.0256	1973.93
6.06038	1980
6.09537	1986.07
6.13056	1992.14
6.16595	1998.22
6.20155	2004.3
6.23735	2010.39
6.27336	2016.47
6.30957	2022.56
6.346	2028.65
6.38263	2034.74
6.41948	2040.82
6.45654	2046.91
6.49382	2053
6.53131	2059.09
6.56901	2065.18
6.60693	2071.27
6.64508	2077.35
6.68344	2083.44
6.72202	2089.52
6.76083	2095.6
6.79986	2101.67
6.83912	2107.75
6.8786	2113.82
6.91831	2119.88
6.95825	2125.94
6.99842	2132
7.03882	2138.05
7.07946	2144.1
7.12033	2150.14
7.16143	2156.17
7.20278	2162.2
7.24436	2168.22
7.28618	2174.24
7.32825	2180.24
7.37055	2186.24
7.4131	2192.23
7.4559	2198.2
7.49894	2204.17
7.54223	2210.13
7.58578	2216.08
7.62957	2222.02
7.67361	2227.95
7.71792	2233.86
7.76247	2239.76
7.80728	2245.65
7.85236	2251.53
7.89769	2257.39
7.94328	2263.24
7.98914	2269.07
8.03526	2274.91
8.08165	2280.73
8.12831	2286.53
8.17523	2292.33
8.22243	2298.1
8.2699	2303.86
8.31764	2309.6
8.36566	2315.32
8.41395	2321.02
8.46253	2326.71
8.51138	2332.38
8.56052	2338.03
8.60994	2343.66
8.65964	2349.27
8.70964	2354.86
8.75992	2360.43
8.81049	2365.98
8.86135	2371.51
8.91251	2377.02
8.96396	2382.51
9.01571	2387.97
9.06776	2393.42
9.12011	2398.84
9.17276	2404.24
9.22571	2409.62
9.27897	2414.97
9.33254	2420.3
9.38642	2425.61
9.44061	2430.89
9.49511	2436.15
9.54993	2441.38
9.60506	2446.59
9.66051	2451.78
9.71628	2456.94
9.77237	2462.07
9.82879	2467.18
9.88553	2472.27
9.9426	2477.32
10	2482.36
10.0577	2487.36
10.1158	2492.34
10.1742	2497.3
10.2329	2502.22
10.292	2507.12
10.3514	2512
10.4112	2516.84
10.4713	2521.65
10.5317	2526.44
10.5925	2531.2
10.6537	2535.93
10.7152	2540.63
10.7771	2545.3
10.8393	2549.94
10.9018	2554.55
10.9648	2559.13
11.0281	2563.68
11.0917	2568.2
11.1558	2572.69
11.2202	2577.14
11.285	2581.57
11.3501	2585.97
11.4156	2590.33
11.4815	2594.66
11.5478	2598.96
11.6145	2603.23
11.6815	2607.47
11.749	2611.67
11.8168	2615.84
11.885	2619.98
11.9536	2624.09
12.0226	2628.17
12.0921	2632.23
12.1619	2636.25
12.2321	2640.24
12.3027	2644.19
12.3737	2648.12
12.4451	2652.01
12.517	2655.86
12.5893	2659.68
12.6619	2663.47
12.735	2667.23
12.8086	2670.95
12.8825	2674.63
12.9569	2678.28
13.0317	2681.9
13.1069	2685.48
13.1826	2689.02
13.2587	2692.53
13.3352	2696
13.4122	2699.44
13.4896	2702.84
13.5675	2706.21
13.6458	2709.54
13.7246	2712.84
13.8038	2716.1
13.8835	2719.32
13.9637	2722.51
14.0443	2725.66
14.1254	2728.78
14.2069	2731.86
14.2889	2734.91
14.3714	2737.92
14.4544	2740.9
14.5378	2743.84
14.6218	2746.74
14.7062	2749.61
14.7911	2752.45
14.8765	2755.25
14.9624	2758.02
15.0487	2760.76
15.1356	2763.46
15.223	2766.13
15.3109	2768.76
15.3993	2771.37
15.4882	2773.94
15.5776	2776.48
15.6675	2778.99
15.758	2781.47
15.8489	2783.92
15.9404	2786.34
16.0325	2788.72
16.125	2791.05
16.2181	2793.35
16.3117	2795.62
16.4059	2797.86
16.5006	2800.07
16.5959	2802.25
16.6917	2804.4
16.788	2806.53
16.885	2808.62
16.9824	2810.68
17.0805	2812.72
17.1791	2814.72
17.2783	2816.7
17.378	2818.64
17.4783	2820.55
17.5792	2822.43
17.6807	2824.28
17.7828	2826.1
17.8855	2827.89
17.9887	2829.65
18.0926	2831.38
18.197	2833.08
18.3021	2834.74
18.4077	2836.38
18.514	2837.98
18.6209	2839.56
18.7284	2841.1
18.8365	2842.61
18.9452	2844.09
19.0546	2845.54
19.1646	2846.96
19.2752	2848.35
19.3865	2849.71
19.4984	2851.04
19.611	2852.34
19.7242	2853.61
19.8381	2854.85
19.9526	2856.06
20.0678	2857.25
20.1837	2858.41
20.3002	2859.54
20.4174	2860.64
20.5353	2861.72
20.6538	2862.76
20.773	2863.78
20.893	2864.77
21.0136	2865.72
21.1349	2866.65
21.2569	2867.55
21.3796	2868.41
21.503	2869.25
21.6272	2870.06
21.752	2870.84
21.8776	2871.59
22.0039	2872.32
22.1309	2873.01
22.2587	2873.67
22.3872	2874.31
22.5165	2874.91
22.6464	2875.49
22.7772	2876.04
22.9087	2876.56
23.0409	2877.05
23.1739	2877.51
23.3077	2877.95
23.4423	2878.36
23.5776	2878.74
23.7137	2879.09
23.8506	2879.42
23.9883	2879.72
24.1268	2880
24.2661	2880.25
24.4062	2880.47
24.5471	2880.67
24.6888	2880.84
24.8313	2880.98
24.9747	2881.1
25.1189	2881.19
25.2639	2881.26
25.4097	2881.3
25.5564	2881.32
25.704	2881.3
25.8523	2881.26
26.0016	2881.2
26.1517	2881.11
26.3027	2880.99
26.4545	2880.85
26.6073	2880.68
26.7609	2880.49
26.9153	2880.27
27.0707	2880.03
27.227	2879.76
27.3842	2879.46
27.5423	2879.14
27.7013	2878.8
27.8612	2878.43
28.0221	2878.03
28.1838	2877.62
28.3465	2877.17
28.5102	2876.71
28.6748	2876.22
28.8403	2875.7
29.0068	2875.16
29.1743	2874.6
29.3427	2874.02
29.5121	2873.4
29.6825	2872.77
29.8538	2872.11
30.0262	2871.43
30.1995	2870.72
30.3739	2869.99
30.5492	2869.23
30.7256	2868.45
30.903	2867.65
31.0814	2866.82
31.2608	2865.97
31.4413	2865.1
31.6228	2864.2
31.8053	2863.28
31.989	2862.34
32.1736	2861.37
32.3594	2860.38
32.5462	2859.37
32.7341	2858.34
32.923	2857.28
33.1131	2856.2
33.3043	2855.1
33.4965	2853.98
33.6899	2852.83
33.8844	2851.66
34.08	2850.46
34.2768	2849.25
34.4747	2848.01
34.6737	2846.75
34.8739	2845.47
35.0752	2844.17
35.2777	2842.84
35.4813	2841.49
35.6862	2840.12
35.8922	2838.73
36.0994	2837.32
36.3078	2835.88
36.5174	2834.43
36.7282	2832.95
36.9403	2831.45
37.1535	2829.93
37.368	2828.39
37.5837	2826.83
37.8007	2825.25
38.0189	2823.65
38.2384	2822.03
38.4592	2820.39
38.6812	2818.73
38.9045	2817.05
39.1291	2815.35
39.355	2813.63
39.5822	2811.89
39.8107	2810.13
40.0405	2808.36
40.2717	2806.57
40.5042	2804.76
40.738	2802.93
40.9732	2801.09
41.2098	2799.22
41.4477	2797.34
41.6869	2795.44
41.9276	2793.52
42.1697	2791.58
42.4131	2789.62
42.658	2787.64
42.9042	2785.65
43.1519	2783.63
43.401	2781.6
43.6516	2779.55
43.9036	2777.48
44.157	2775.39
44.412	2773.28
44.6684	2771.15
44.9262	2769
45.1856	2766.83
45.4465	2764.64
45.7088	2762.44
45.9727	2760.21
46.2381	2757.97
46.505	2755.7
46.7735	2753.42
47.0435	2751.12
47.3151	2748.79
47.5883	2746.45
47.863	2744.09
48.1393	2741.71
48.4172	2739.31
48.6968	2736.89
48.9779	2734.45
49.2606	2732
49.545	2729.52
49.831	2727.02
50.1187	2724.51
50.4081	2721.98
50.6991	2719.43
50.9918	2716.85
51.2861	2714.26
51.5822	2711.66
51.88	2709.03
52.1795	2706.39
52.4807	2703.72
52.7837	2701.04
53.0884	2698.34
53.3949	2695.62
53.7032	2692.89
54.0132	2690.14
54.325	2687.37
54.6387	2684.58
54.9541	2681.77
55.2713	2678.95
55.5904	2676.11
55.9114	2673.26
56.2341	2670.39
56.5588	2667.5
56.8853	2664.6
57.2137	2661.68
57.544	2658.75
57.8762	2655.8
58.2103	2652.84
58.5464	2649.86
58.8844	2646.87
59.2243	2643.86
59.5662	2640.85
59.9101	2637.81
60.256	2634.76
60.6038	2631.69
60.9537	2628.61
61.3056	2625.51
61.6595	2622.4
62.0155	2619.28
62.3735	2616.14
62.7336	2613
63.0957	2609.84
63.46	2606.66
63.8263	2603.48
64.1948	2600.28
64.5654	2597.07
64.9382	2593.84
65.3131	2590.61
65.6901	2587.36
66.0693	2584.1
66.4508	2580.82
66.8344	2577.53
67.2202	2574.23
67.6083	2570.92
67.9986	2567.59
68.3912	2564.26
68.786	2560.9
69.1831	2557.54
69.5825	2554.16
69.9842	2550.77
70.3882	2547.37
70.7946	2543.96
71.2033	2540.53
71.6143	2537.09
72.0278	2533.64
72.4436	2530.17
72.8618	2526.69
73.2825	2523.2
73.7055	2519.7
74.131	2516.18
74.559	2512.66
74.9894	2509.12
75.4223	2505.56
75.8578	2502
76.2957	2498.42
76.7361	2494.83
77.1792	2491.23
77.6247	2487.61
78.0728	2483.98
78.5236	2480.35
78.9769	2476.69
79.4328	2473.03
79.8914	2469.35
80.3526	2465.66
80.8165	2461.96
81.2831	2458.25
81.7523	2454.52
82.2243	2450.78
82.699	2447.03
83.1764	2443.27
83.6566	2439.49
84.1395	2435.71
84.6253	2431.91
85.1138	2428.1
85.6052	2424.28
86.0994	2420.45
86.5964	2416.6
87.0964	2412.75
87.5992	2408.88
88.1049	2405.01
88.6135	2401.12
89.1251	2397.22
89.6396	2393.31
90.1571	2389.39
90.6776	2385.46
91.2011	2381.51
91.7276	2377.56
92.2571	2373.6
92.7897	2369.62
93.3254	2365.64
93.8642	2361.64
94.4061	2357.64
94.9511	2353.62
95.4993	2349.6
96.0506	2345.56
96.6051	2341.52
97.1628	2337.47
97.7237	2333.4
98.2879	2329.33
98.8553	2325.25
99.426	2321.16
100	2317.06
100.577	2312.95
101.158	2308.83
101.742	2304.7
102.329	2300.57
102.92	2296.42
103.514	2292.27
104.112	2288.11
104.713	2283.94
105.317	2279.76
105.925	2275.58
106.537	2271.38
107.152	2267.18
107.771	2262.97
108.393	2258.75
109.018	2254.52
109.648	2250.29
110.281	2246.05
110.917	2241.8
111.558	2237.54
112.202	2233.28
112.85	2229.01
113.501	2224.73
114.156	2220.44
114.815	2216.15
115.478	2211.85
116.145	2207.54
116.815	2203.22
117.49	2198.9
118.168	2194.57
118.85	2190.24
119.536	2185.9
120.226	2181.55
120.921	2177.19
121.619	2172.83
122.321	2168.46
123.027	2164.08
123.737	2159.7
124.451	2155.31
125.17	2150.91
125.893	2146.51
126.619	2142.11
127.35	2137.69
128.086	2133.28
128.825	2128.85
129.569	2124.42
130.317	2119.99
131.069	2115.55
131.826	2111.1
132.587	2106.65
133.352	2102.19
134.122	2097.73
134.896	2093.26
135.675	2088.79
136.458	2084.31
137.246	2079.83
138.038	2075.35
138.835	2070.85
139.637	2066.36
140.443	2061.85
141.254	2057.35
142.069	2052.84
142.889	2048.32
143.714	2043.8
144.544	2039.28
145.378	2034.75
146.218	2030.21
147.062	2025.68
147.911	2021.13
148.765	2016.59
149.624	2012.03
150.487	2007.48
151.356	2002.92
152.23	1998.36
153.109	1993.79
153.993	1989.22
154.882	1984.64
155.776	1980.06
156.675	1975.47
157.58	1970.88
158.489	1966.29
159.404	1961.69
160.325	1957.1
161.25	1952.5
162.181	1947.91
163.117	1943.31
164.059	1938.7
165.006	1934.1
165.959	1929.49
166.917	1924.87
167.88	1920.25
168.85	1915.63
169.824	1911.01
170.805	1906.38
171.791	1901.75
172.783	1897.12
173.78	1892.49
174.783	1887.85
175.792	1883.21
176.807	1878.57
177.828	1873.93
178.855	1869.28
179.887	1864.63
180.926	1859.98
181.97	1855.33
183.021	1850.68
184.077	1846.03
185.14	1841.37
186.209	1836.72
187.284	1832.06
188.365	1827.4
189.452	1822.74
190.546	1818.08
191.646	1813.42
192.752	1808.76
193.865	1804.1
194.984	1799.43
196.11	1794.77
197.242	1790.11
198.381	1785.45
199.526	1780.78
200.678	1776.12
201.837	1771.45
203.002	1766.78
204.174	1762.12
205.353	1757.45
206.538	1752.78
207.73	1748.12
208.93	1743.45
210.136	1738.79
211.349	1734.13
212.569	1729.46
213.796	1724.8
215.03	1720.14
216.272	1715.49
217.52	1710.83
218.776	1706.17
220.039	1701.52
221.309	1696.86
222.587	1692.21
223.872	1687.56
225.165	1682.91
226.464	1678.27
227.772	1673.62
229.087	1668.98
230.409	1664.33
231.739	1659.69
233.077	1655.06
234.423	1650.42
235.776	1645.78
237.137	1641.15
238.506	1636.52
239.883	1631.89
241.268	1627.26
242.661	1622.64
244.062	1618.01
245.471	1613.39
246.888	1608.77
248.313	1604.15
249.747	1599.53
251.189	1594.92
252.639	1590.31
254.097	1585.7
255.564	1581.1
257.04	1576.49
258.523	1571.89
260.016	1567.3
261.517	1562.7
263.027	1558.11
264.545	1553.52
266.073	1548.94
267.609	1544.36
269.153	1539.78
270.707	1535.2
272.27	1530.63
273.842	1526.06
275.423	1521.5
277.013	1516.93
278.612	1512.37
280.221	1507.82
281.838	1503.27
283.465	1498.72
285.102	1494.17
286.748	1489.63
288.403	1485.09
290.068	1480.56
291.743	1476.03
293.427	1471.5
295.121	1466.98
296.825	1462.46
298.538	1457.95
300.262	1453.44
301.995	1448.93
303.739	1444.43
305.492	1439.93
307.256	1435.44
309.03	1430.95
310.814	1426.46
312.608	1421.98
314.413	1417.51
316.228	1413.03
318.053	1408.57
319.89	1404.1
321.736	1399.65
323.594	1395.19
325.462	1390.74
327.341	1386.3
329.23	1381.86
331.131	1377.42
333.043	1372.99
334.965	1368.57
336.899	1364.15
338.844	1359.73
340.8	1355.33
342.768	1350.92
344.747	1346.53
346.737	1342.14
348.739	1337.75
350.752	1333.37
352.777	1329
354.813	1324.63
356.862	1320.27
358.922	1315.92
360.994	1311.57
363.078	1307.23
365.174	1302.89
367.282	1298.56
369.403	1294.24
371.535	1289.92
373.68	1285.62
375.837	1281.31
378.007	1277.02
380.189	1272.73
382.384	1268.44
384.592	1264.16
386.812	1259.89
389.045	1255.63
391.291	1251.37
393.55	1247.12
395.822	1242.87
398.107	1238.63
400.405	1234.39
402.717	1230.15
405.042	1225.92
407.38	1221.69
409.732	1217.48
412.098	1213.26
414.477	1209.05
416.869	1204.85
419.276	1200.66
421.697	1196.47
424.131	1192.29
426.58	1188.12
429.042	1183.95
431.519	1179.79
434.01	1175.64
436.516	1171.5
439.036	1167.36
441.57	1163.23
444.12	1159.11
446.684	1155
449.262	1150.89
451.856	1146.8
454.465	1142.71
457.088	1138.63
459.727	1134.56
462.381	1130.5
465.05	1126.44
467.735	1122.4
470.435	1118.36
473.151	1114.34
475.883	1110.32
478.63	1106.31
481.393	1102.31
484.172	1098.32
486.968	1094.34
489.779	1090.37
492.606	1086.41
495.45	1082.46
498.31	1078.52
501.187	1074.59
504.081	1070.66
506.991	1066.75
509.918	1062.85
512.861	1058.95
515.822	1055.07
518.8	1051.19
521.795	1047.33
524.807	1043.47
527.837	1039.62
530.884	1035.79
533.949	1031.96
537.032	1028.14
540.132	1024.33
543.25	1020.53
546.387	1016.73
549.541	1012.95
552.713	1009.17
555.904	1005.41
559.114	1001.65
562.341	997.895
565.588	994.152
568.853	990.416
572.137	986.687
575.44	982.966
578.762	979.251
582.103	975.543
585.464	971.84
588.844	968.144
592.243	964.454
595.662	960.768
599.101	957.088
602.56	953.464
606.038	949.865
609.537	946.27
613.056	942.68
616.595	939.096
620.155	935.517
623.735	931.944
627.336	928.377
630.957	924.816
634.6	921.261
638.263	917.713
641.948	914.171
645.654	910.635
649.382	907.107
653.131	903.585
656.901	900.071
660.693	896.564
664.508	893.064
668.344	889.572
672.202	886.088
676.083	882.611
679.986	879.143
683.912	875.682
687.86	872.23
691.831	868.787
695.825	865.351
699.842	861.925
703.882	858.507
707.946	855.099
712.033	851.699
716.143	848.309
720.278	844.927
724.436	841.556
728.618	838.193
732.825	834.841
737.055	831.498
741.31	828.165
745.59	824.842
749.894	821.529
754.223	818.226
758.578	814.933
762.957	811.65
767.361	808.378
771.792	805.116
776.247	801.864
780.728	798.623
785.236	795.393
789.769	792.173
794.328	788.964
798.914	785.765
803.526	782.566
808.165	779.373
812.831	776.192
817.523	773.021
822.243	769.861
826.99	766.712
831.764	763.574
836.566	760.447
841.395	757.331
846.253	754.226
851.138	751.133
856.052	748.051
860.994	744.98
865.964	741.92
870.964	738.872
875.992	735.834
881.049	732.808
886.135	729.794
891.251	726.79
896.396	723.798
901.571	720.817
906.776	717.847
912.011	714.888
917.276	711.94
922.571	709.003
927.897	706.077
933.254	703.162
938.642	700.257
944.061	697.363
949.511	694.479
954.993	691.605
960.506	688.741
966.051	685.887
971.628	683.043
977.237	680.208
982.879	677.383
988.553	674.567
994.26	671.759
1000	668.96
1005.77	666.169
1011.58	663.386
1017.42	660.612
1023.29	657.846
1029.2	655.089
1035.14	652.34
1041.12	649.601
1047.13	646.87
1053.17	644.148
1059.25	641.436
1065.37	638.732
1071.52	636.038
1077.71	633.353
1083.93	630.677
1090.18	628.01
1096.48	625.353
1102.81	622.705
1109.17	620.066
1115.58	617.437
1122.02	614.818
1128.5	612.208
1135.01	609.607
1141.56	607.016
1148.15	604.434
1154.78	601.861
1161.45	599.298
1168.15	596.745
1174.9	594.2
1181.68	591.665
1188.5	589.14
1195.36	586.623
1202.26	584.114
1209.21	581.611
1216.19	579.117
1223.21	576.632
1230.27	574.157
1237.37	571.691
1244.51	569.234
1251.7	566.787
1258.93	564.35
1266.19	561.922
1273.5	559.504
1280.86	557.096
1288.25	554.697
1295.69	552.309
1303.17	549.93
1310.69	547.562
1318.26	545.203
1325.87	542.855
1333.52	540.516
1341.22	538.188
1348.96	535.869
1356.75	533.561
1364.58	531.263
1372.46	528.975
1380.38	526.697
1388.35	524.429
1396.37	522.171
1404.43	519.922
1412.54	517.684
1420.69	515.456
1428.89	513.237
1437.14	511.029
1445.44	508.83
1453.78	506.64
1462.18	504.46
1470.62	502.289
1479.11	500.128
1487.65	497.975
1496.24	495.832
1504.87	493.698
1513.56	491.572
1522.3	489.454
1531.09	487.345
1539.93	485.245
1548.82	483.152
1557.76	481.067
1566.75	478.989
1575.8	476.918
1584.89	474.855
1594.04	472.798
1603.25	470.754
1612.5	468.726
1621.81	466.705
1631.17	464.69
1640.59	462.682
1650.06	460.681
1659.59	458.687
1669.17	456.699
1678.8	454.719
1688.5	452.745
1698.24	450.779
1708.05	448.819
1717.91	446.867
1727.83	444.923
1737.8	442.986
1747.83	441.056
1757.92	439.134
1768.07	437.219
1778.28	435.312
1788.55	433.413
1798.87	431.522
1809.26	429.638
1819.7	427.762
1830.21	425.894
1840.77	424.034
1851.4	422.182
1862.09	420.338
1872.84	418.502
1883.65	416.674
1894.52	414.854
1905.46	413.041
1916.46	411.237
1927.52	409.441
1938.65	407.653
1949.84	405.873
1961.1	404.101
1972.42	402.337
1983.81	400.581
1995.26	398.833
2006.78	397.091
2018.37	395.354
2030.02	393.626
2041.74	391.905
2053.53	390.193
2065.38	388.488
2077.3	386.791
2089.3	385.103
2101.36	383.422
2113.49	381.749
2125.69	380.084
2137.96	378.428
2150.3	376.779
2162.72	375.138
2175.2	373.505
2187.76	371.88
2200.39	370.262
2213.09	368.653
2225.87	367.051
2238.72	365.457
2251.65	363.87
2264.64	362.291
2277.72	360.72
2290.87	359.155
2304.09	357.599
2317.39	356.049
2330.77	354.506
2344.23	352.971
2357.76	351.442
2371.37	349.92
2385.06	348.404
2398.83	346.895
2412.68	345.392
2426.61	343.895
2440.62	342.405
2454.71	340.921
2468.88	339.443
2483.13	337.971
2497.47	336.506
2511.89	335.048
2526.39	333.596
2540.97	332.15
2555.64	330.711
2570.4	329.279
2585.23	327.853
2600.16	326.434
2615.17	325.021
2630.27	323.614
2645.45	322.214
2660.73	320.821
2676.09	319.434
2691.53	318.054
2707.07	316.68
2722.7	315.312
2738.42	313.951
2754.23	312.596
2770.13	311.247
2786.12	309.905
2802.21	308.568
2818.38	307.238
2834.65	305.914
2851.02	304.596
2867.48	303.284
2884.03	301.978
2900.68	300.679
2917.43	299.385
2934.27	298.098
2951.21	296.817
2968.25	295.542
2985.38	294.273
3002.62	293.01
3019.95	291.753
3037.39	290.503
3054.92	289.258
3072.56	288.019
3090.3	286.786
3108.14	285.559
3126.08	284.338
3144.13	283.123
3162.28	281.913
3180.53	280.709
3198.9	279.511
3217.36	278.318
3235.94	277.131
3254.62	275.949
3273.41	274.772
3292.3	273.602
3311.31	272.436
3330.43	271.277
3349.65	270.122
3368.99	268.974
3388.44	267.831
3408	266.693
3427.68	265.562
3447.47	264.435
3467.37	263.314
3487.39	262.199
3507.52	261.089
3527.77	259.985
3548.13	258.886
3568.62	257.793
3589.22	256.704
3609.94	255.622
3630.78	254.544
3651.74	253.472
3672.82	252.404
3694.03	251.342
3715.35	250.286
3736.8	249.234
3758.37	248.187
3780.07	247.145
3801.89	246.108
3823.84	245.076
3845.92	244.049
3868.12	242.988
3890.45	241.895
3912.91	240.807
3935.5	239.723
3958.22	238.646
3981.07	237.573
4004.05	236.504
4027.17	235.439
4050.42	234.378
4073.8	233.322
4097.32	232.271
4120.98	231.225
4144.77	230.184
4168.69	229.148
4192.76	228.117
4216.97	227.092
4241.31	226.071
4265.8	225.055
4290.42	224.045
4315.19	223.04
4340.1	222.04
4365.16	221.046
4390.36	220.057
4415.7	219.073
4441.2	218.095
4466.84	217.122
4492.62	216.154
4518.56	215.192
4544.65	214.236
4570.88	213.285
4597.27	212.339
4623.81	211.399
4650.5	210.464
4677.35	209.535
4704.35	208.612
4731.51	207.694
4758.83	206.782
4786.3	205.875
4813.93	204.974
4841.72	204.078
4869.68	203.188
4897.79	202.303
4926.06	201.424
4954.5	200.551
4983.1	199.683
5011.87	198.82
5040.81	197.963
5069.91	197.111
5099.18	196.264
5128.61	195.423
5158.22	194.587
5188	193.756
5217.95	192.93
5248.07	192.11
5278.37	191.294
5308.84	190.484
5339.49	189.678
5370.32	188.877
5401.32	188.081
5432.5	187.29
5463.87	186.503
5495.41	185.721
5527.13	184.943
5559.04	184.17
5591.14	183.4
5623.41	182.635
5655.88	181.874
5688.53	181.116
5721.37	180.362
5754.4	179.612
5787.62	178.865
5821.03	178.121
5854.64	177.381
5888.44	176.643
5922.43	175.908
5956.62	175.175
5991.01	174.445
6025.6	173.733
6060.38	173.029
6095.37	172.328
6130.56	171.629
6165.95	170.932
6201.55	170.238
6237.35	169.546
6273.36	168.856
6309.57	168.169
6346	167.484
6382.63	166.802
6419.48	166.123
6456.54	165.446
6493.82	164.771
6531.31	164.1
6569.01	163.431
6606.93	162.765
6645.08	162.101
6683.44	161.441
6722.02	160.783
6760.83	160.128
6799.86	159.476
6839.12	158.827
6878.6	158.181
6918.31	157.537
6958.25	156.897
6998.42	156.26
7038.82	155.626
7079.46	154.995
7120.33	154.367
7161.43	153.742
7202.78	153.121
7244.36	152.502
7286.18	151.887
7328.25	151.275
7370.55	150.666
7413.1	150.061
7455.9	149.459
7498.94	148.86
7542.23	148.264
7585.78	147.672
7629.57	147.083
7673.61	146.498
7717.92	145.916
7762.47	145.337
7807.28	144.762
7852.36	144.19
7897.69	143.621
7943.28	143.056
7989.14	142.495
8035.26	141.934
8081.65	141.375
8128.31	140.821
8175.23	140.269
8222.43	139.721
8269.9	139.177
8317.64	138.636
8365.66	138.098
8413.95	137.564
8462.53	137.033
8511.38	136.506
8560.52	135.982
8609.94	135.461
8659.64	134.944
8709.64	134.43
8759.92	133.92
8810.49	133.413
8861.35	132.909
8912.51	132.408
8963.96	131.911
9015.71	131.417
9067.76	130.926
9120.11	130.439
9172.76	129.954
9225.71	129.473
9278.97	128.994
9332.54	128.519
9386.42	128.047
9440.61	127.577
9495.11	127.11
9549.93	126.647
9605.06	126.185
9660.51	125.727
9716.28	125.271
9772.37	124.818
9828.79	124.367
9885.53	123.918
9942.6	123.472
10000	123.028
10057.7	122.586
10115.8	122.146
10174.2	121.708
10232.9	121.273
10292	120.839
10351.4	120.408
10411.2	119.978
10471.3	119.551
10531.7	119.127
10592.5	118.704
10653.7	118.284
10715.2	117.865
10777.1	117.449
10839.3	117.036
10901.8	116.624
10964.8	116.215
11028.1	115.808
11091.7	115.403
11155.8	115
11220.2	114.6
11285	114.201
11350.1	113.805
11415.6	113.411
11481.5	113.02
11547.8	112.63
11614.5	112.243
11681.5	111.858
11749	111.475
11816.8	111.094
11885	110.715
11953.6	110.339
12022.6	109.964
12092.1	109.591
12161.9	109.219
12232.1	108.85
12302.7	108.483
12373.7	108.118
12445.1	107.755
12517	107.394
12589.3	107.036
12661.9	106.679
12735	106.325
12808.6	105.973
12882.5	105.622
12956.9	105.275
13031.7	104.929
13106.9	104.585
13182.6	104.244
13258.7	103.905
13335.2	103.568
13412.2	103.233
13489.6	102.9
13567.5	102.569
13645.8	102.241
13724.6	101.915
13803.8	101.59
13883.5	101.268
13963.7	100.948
14044.3	100.631
14125.4	100.315
14206.9	100.001
14288.9	99.6896
14371.4	99.3801
14454.4	99.0725
14537.8	98.767
14621.8	98.4634
14706.2	98.1618
14791.1	97.8621
14876.5	97.5642
14962.4	97.2682
15048.7	96.9741
15135.6	96.6817
15223	96.391
15310.9	96.1021
15399.3	95.8148
15488.2	95.5292
15577.6	95.2451
15667.5	94.9625
15758	94.6814
15848.9	94.4017
15940.4	94.1233
16032.5	93.8472
16125	93.5742
16218.1	93.3024
16311.7	93.032
16405.9	92.7628
16500.6	92.495
16595.9	92.2285
16691.7	91.9633
16788	91.6995
16885	91.437
16982.4	91.1759
17080.5	90.9162
17179.1	90.6579
17278.3	90.401
17378	90.1455
17478.3	89.8914
17579.2	89.6388
17680.7	89.3875
17782.8	89.1378
17885.5	88.8894
17988.7	88.6425
18092.6	88.3971
18197	88.1531
18302.1	87.9106
18407.7	87.6696
18514	87.43
18620.9	87.1919
18728.4	86.9553
18836.5	86.7201
18945.2	86.4865
19054.6	86.2542
19164.6	86.0235
19275.2	85.7942
19386.5	85.5664
19498.4	85.3401
19611	85.1152
19724.2	84.8917
19838.1	84.6697
19952.6	84.4491
20067.8	84.2295
20183.7	84.0112
20300.2	83.7943
20417.4	83.5787
20535.3	83.3646
20653.8	83.152
20773	82.9407
20893	82.7309
21013.6	82.5224
21134.9	82.3154
21256.9	82.1099
21379.6	81.9057
21503	81.7029
21627.2	81.5016
21752	81.3016
21877.6	81.1031
22003.9	80.9059
22130.9	80.7101
22258.7	80.5156
22387.2	80.3225
22516.5	80.1307
22646.4	79.9403
22777.2	79.7512
22908.7	79.5634
23040.9	79.3768
23173.9	79.1915
23307.7	79.0075
23442.3	78.8247
23577.6	78.643
23713.7	78.4626
23850.6	78.2833
23988.3	78.1051
24126.8	77.928
24266.1	77.752
24406.2	77.577
24547.1	77.4032
24688.8	77.2305
24831.3	77.0589
24974.7	76.8884
25118.9	76.719
25263.9	76.5507
25409.7	76.3835
25556.4	76.2175
25704	76.0525
25852.3	75.8886
26001.6	75.7259
26151.7	75.5642
26302.7	75.4036
26454.5	75.2441
26607.3	75.0857
26760.9	74.9283
26915.3	74.772
27070.7	74.6168
27227	74.4626
27384.2	74.3095
27542.3	74.1574
27701.3	74.0063
27861.2	73.8562
28022.1	73.707
28183.8	73.5589
28346.5	73.4117
28510.2	73.2656
28674.8	73.1204
28840.3	72.9762
29006.8	72.8329
29174.3	72.6907
29342.7	72.5495
29512.1	72.4092
29682.5	72.27
29853.8	72.1317
30026.2	71.9944
30199.5	71.8582
30373.9	71.7229
30549.2	71.5886
30725.6	71.4553
30903	71.3229
31081.4	71.1916
31260.8	71.0612
31441.3	70.9317
31622.8	70.8032
31805.3	70.6757
31989	70.5491
32173.6	70.4235
32359.4	70.2987
32546.2	70.1749
32734.1	70.0521
32923	69.9301
33113.1	69.8091
33304.3	69.689
33496.5	69.5697
33689.9	69.4514
33884.4	69.334
34080	69.2175
34276.8	69.1018
34474.7	68.987
34673.7	68.8731
34873.9	68.76
35075.2	68.6477
35277.7	68.5363
35481.3	68.4257
35686.2	68.3159
35892.2	68.2069
36099.4	68.0986
36307.8	67.9911
36517.4	67.8843
36728.2	67.7783
36940.3	67.6729
37153.5	67.5682
37368	67.4641
37583.7	67.3607
37800.7	67.2579
38018.9	67.1557
38238.4	67.054
38459.2	66.9528
38681.2	66.8522
38904.5	66.752
39129.1	66.6522
39355	66.5528
39582.2	66.4538
39810.7	66.3551
40040.5	66.2559
40271.7	66.1536
40504.2	66.052
40738	65.9512
40973.2	65.8511
41209.8	65.7518
41447.7	65.6532
41686.9	65.5553
41927.6	65.4582
42169.7	65.3618
42413.1	65.2661
42658	65.1712
42904.2	65.0769
43151.9	64.9834
43401	64.8906
43651.6	64.7984
43903.6	64.707
44157	64.6163
44412	64.5262
44668.4	64.4369
44926.2	64.3482
45185.6	64.2602
45446.5	64.1729
45708.8	64.0863
45972.7	64.0003
46238.1	63.915
46505	63.8303
46773.5	63.7463
47043.5	63.663
47315.1	63.5803
47588.3	63.4982
47863	63.4168
48139.3	63.336
48417.2	63.2559
48696.8	63.1764
48977.9	63.0975
49260.6	63.0192
49545	62.9416
49831	62.8645
50118.7	62.7881
50408.1	62.7123
50699.1	62.6371
50991.8	62.5625
51286.1	62.4885
51582.2	62.4151
51880	62.3423
52179.5	62.2701
52480.7	62.1984
52783.7	62.1273
53088.4	62.0569
53394.9	61.9869
53703.2	61.9176
54013.2	61.8488
54325	61.7806
54638.7	61.713
54954.1	61.6459
55271.3	61.5793
55590.4	61.5133
55911.4	61.4479
56234.1	61.383
56558.8	61.3186
56885.3	61.2548
57213.7	61.1915
57544	61.1288
57876.2	61.0666
58210.3	61.0049
58546.4	60.9437
58884.4	60.883
59224.3	60.8229
59566.2	60.7632
59910.1	60.7041
60256	60.6455
60603.8	60.5874
60953.7	60.5298
61305.6	60.4726
61659.5	60.416
62015.5	60.3599
62373.5	60.3042
62733.6	60.2491
63095.7	60.1944
63460	60.1402
63826.3	60.0865
64194.8	60.0332
64565.4	59.9804
64938.2	59.9281
65313.1	59.8763
65690.1	59.8249
66069.3	59.7739
66450.8	59.7235
66834.4	59.6734
67220.2	59.6239
67608.3	59.5747
67998.6	59.5261
68391.2	59.4778
68786	59.43
69183.1	59.3827
69582.5	59.3357
69984.2	59.2892
70388.2	59.2431
70794.6	59.1975
71203.3	59.1523
71614.3	59.1075
72027.8	59.0631
72443.6	59.0191
72861.8	58.9755
73282.5	58.9324
73705.5	58.8896
74131	58.8473
74559	58.8053
74989.4	58.7638
75422.3	58.7226
75857.8	58.6819
76295.7	58.6415
76736.1	58.6015
77179.2	58.5619
77624.7	58.5227
78072.8	58.4839
78523.6	58.4454
78976.9	58.4073
79432.8	58.3696
79891.4	58.3323
80352.6	58.2953
80816.5	58.2587
81283.1	58.2225
81752.3	58.1866
82224.3	58.1511
82699	58.1159
83176.4	58.0811
83656.6	58.0466
84139.5	58.0125
84625.3	57.9787
85113.8	57.9453
85605.2	57.9122
86099.4	57.8795
86596.4	57.8471
87096.4	57.815
87599.2	57.7833
88104.9	57.7519
88613.5	57.7208
89125.1	57.69
89639.6	57.6596
90157.1	57.6295
90677.6	57.5997
91201.1	57.5702
91727.6	57.541
92257.1	57.5122
92789.7	57.4836
93325.4	57.4554
93864.2	57.4274
94406.1	57.3998
94951.1	57.3725
95499.3	57.3454
96050.6	57.3187
96605.1	57.2923
97162.8	57.2661
97723.7	57.2403
98287.9	57.2147
98855.3	57.1894
99426	57.1644
100000	57.1397
100577	57.1152
101158	57.0911
101742	57.0672
102329	57.0436
102920	57.0202
103514	56.9972
104112	56.9744
104713	56.9518
105317	56.9296
105925	56.9075
106537	56.8858
107152	56.8643
107771	56.843
108393	56.8221
109018	56.8013
109648	56.7808
110281	56.7606
110917	56.7406
111558	56.7209
112202	56.7014
112850	56.6821
113501	56.6631
114156	56.6443
114815	56.6257
115478	56.6074
116145	56.5893
116815	56.5715
117490	56.5538
118168	56.5364
118850	56.5192
119536	56.5023
120226	56.4855
120921	56.469
121619	56.4527
122321	56.4366
123027	56.4207
123737	56.4051
124451	56.3896
125170	56.3744
125893	56.3593
126619	56.3445
127350	56.3299
128086	56.3154
128825	56.3012
129569	56.2872
130317	56.2733
131069	56.2597
131826	56.2462
132587	56.233
133352	56.2199
134122	56.2071
134896	56.1944
135675	56.1819
136458	56.1695
137246	56.1574
138038	56.1454
138835	56.1337
139637	56.1221
140443	56.1106
141254	56.0994
142069	56.0883
142889	56.0774
143714	56.0667
144544	56.0561
145378	56.0457
146218	56.0355
147062	56.0254
147911	56.0155
148765	56.0057
149624	55.9961
150487	55.9867
151356	55.9774
152230	55.9683
153109	55.9594
153993	55.9505
154882	55.9419
155776	55.9334
156675	55.925
157580	55.9168
158489	55.9087
159404	55.9008
160325	55.893
161250	55.8854
162181	55.8779
163117	55.8705
164059	55.8633
165006	55.8562
165959	55.8493
166917	55.8425
167880	55.8358
168850	55.8292
169824	55.8228
170805	55.8165
171791	55.8103
172783	55.8043
173780	55.7984
174783	55.7926
175792	55.7869
176807	55.7814
177828	55.7759
178855	55.7706
179887	55.7654
180926	55.7604
181970	55.7554
183021	55.7506
184077	55.7458
185140	55.7412
186209	55.7367
187284	55.7323
188365	55.728
189452	55.7238
190546	55.7198
191646	55.7158
192752	55.7119
193865	55.7082
194984	55.7045
196110	55.7009
197242	55.6975
198381	55.6941
199526	55.6909
200678	55.6877
201837	55.6846
203002	55.6816
204174	55.6788
205353	55.676
206538	55.6733
207730	55.6707
208930	55.6681
210136	55.6657
211349	55.6634
212569	55.6611
213796	55.6589
215030	55.6568
216272	55.6548
217520	55.6529
218776	55.6511
220039	55.6493
221309	55.6476
222587	55.646
223872	55.6445
225165	55.6431
226464	55.6417
227772	55.6404
229087	55.6392
230409	55.638
231739	55.637
233077	55.636
234423	55.635
235776	55.6342
237137	55.6334
238506	55.6327
239883	55.632
241268	55.6314
242661	55.6309
244062	55.6304
245471	55.63
246888	55.6297
248313	55.6294
249747	55.6292
251189	55.6291
252639	55.629
254097	55.629
255564	55.629
257040	55.6291
258523	55.6292
260016	55.6294
261517	55.6297
263027	55.63
264545	55.6304
266073	55.6308
267609	55.6313
269153	55.6318
270707	55.6324
272270	55.633
273842	55.6337
275423	55.6344
277013	55.6352
278612	55.636
280221	55.6368
281838	55.6378
283465	55.6387
285102	55.6397
286748	55.6408
288403	55.6419
290068	55.643
291743	55.6442
293427	55.6454
295121	55.6466
296825	55.6479
298538	55.6493
300262	55.6506
301995	55.6521
303739	55.6535
305492	55.655
307256	55.6565
309030	55.6581
310814	55.6597
312608	55.6613
314413	55.663
316228	55.6647
318053	55.6664
319890	55.6682
321736	55.67
323594	55.6718
325462	55.6737
327341	55.6756
329230	55.6775
331131	55.6794
333043	55.6814
334965	55.6834
336899	55.6855
338844	55.6875
340800	55.6896
342768	55.6917
344747	55.6939
346737	55.696
348739	55.6982
350752	55.7004
352777	55.7027
354813	55.7049
356862	55.7072
358922	55.7095
360994	55.7118
363078	55.7142
365174	55.7166
367282	55.719
369403	55.7214
371535	55.7238
373680	55.7262
375837	55.7287
378007	55.7312
380189	55.7337
382384	55.7362
384592	55.7387
386812	55.7413
389045	55.7439
391291	55.7464
393550	55.749
395822	55.7517
398107	55.7543
400405	55.7569
402717	55.7596
405042	55.7622
407380	55.7649
409732	55.7676
412098	55.7703
414477	55.773
416869	55.7758
419276	55.7785
421697	55.7813
424131	55.784
426580	55.7868
429042	55.7896
431519	55.7924
434010	55.7952
436516	55.798
439036	55.8008
441570	55.8036
444120	55.8064
446684	55.8093
449262	55.8121
451856	55.815
454465	55.8178
457088	55.8207
459727	55.8235
462381	55.8264
465050	55.8293
467735	55.8322
470435	55.8351
473151	55.8379
475883	55.8408
478630	55.8437
481393	55.8466
484172	55.8495
486968	55.8524
489779	55.8554
492606	55.8583
495450	55.8612
498310	55.8641
501187	55.867
504081	55.8699
506991	55.8728
509918	55.8758
512861	55.8787
515822	55.8816
518800	55.8845
521795	55.8874
524807	55.8904
527837	55.8933
530884	55.8962
533949	55.8991
537032	55.902
540132	55.9049
543250	55.9078
546387	55.9107
549541	55.9136
552713	55.9165
555904	55.9194
559114	55.9223
562341	55.9252
565588	55.9281
568853	55.931
572137	55.9339
575440	55.9368
578762	55.9396
582103	55.9425
585464	55.9454
588844	55.9482
592243	55.9511
595662	55.9539
599101	55.9568
602560	55.9596
606038	55.9624
609537	55.9653
613056	55.9681
616595	55.9709
620155	55.9737
623735	55.9765
627336	55.9793
630957	55.9821
634600	55.9849
638263	55.9877
641948	55.9904
645654	55.9932
649382	55.9959
653131	55.9987
656901	56.0014
660693	56.0041
664508	56.0069
668344	56.0096
672202	56.0123
676083	56.015
679986	56.0177
683912	56.0203
687860	56.023
691831	56.0257
695825	56.0283
699842	56.031
703882	56.0336
707946	56.0362
712033	56.0388
716143	56.0414
720278	56.044
724436	56.0466
728618	56.0492
732825	56.0517
737055	56.0543
741310	56.0568
745590	56.0594
749894	56.0619
754223	56.0644
758578	56.0669
762957	56.0694
767361	56.0719
771792	56.0743
776247	56.0768
780728	56.0792
785236	56.0817
789769	56.0841
794328	56.0865
798914	56.0889
803526	56.0913
808165	56.0937
812831	56.096
817523	56.0984
822243	56.1007
826990	56.1031
831764	56.1054
836566	56.1077
841395	56.11
846253	56.1123
851138	56.1145
856052	56.1168
860994	56.119
865964	56.1213
870964	56.1235
875992	56.1257
881049	56.1279
886135	56.1301
891251	56.1322
896396	56.1344
901571	56.1366
906776	56.1387
912011	56.1408
917276	56.1429
922571	56.145
927897	56.1471
933254	56.1492
938642	56.1512
944061	56.1533
949511	56.1553
954993	56.1573
960506	56.1593
966051	56.1613
971628	56.1633
977237	56.1652
982879	56.1672
988553	56.1691
994260	56.1711
1e+06	56.173
1.00577e+06	56.1749
1.01158e+06	56.1768
1.01742e+06	56.1786
1.02329e+06	56.1805
1.0292e+06	56.1823
1.03514e+06	56.1842
1.04112e+06	56.186
1.04713e+06	56.1878
1.05317e+06	56.1896
1.05925e+06	56.1914
1.06537e+06	56.1931
1.07152e+06	56.1949
1.07771e+06	56.1966
1.08393e+06	56.1984
1.09018e+06	56.2001
1.09648e+06	56.2018
1.10281e+06	56.2034
1.10917e+06	56.2051
1.11558e+06	56.2068
1.12202e+06	56.2084
1.1285e+06	56.2101
1.13501e+06	56.2117
1.14156e+06	56.2133
1.14815e+06	56.2149
1.15478e+06	56.2165
1.16145e+06	56.218
1.16815e+06	56.2196
1.1749e+06	56.2211
1.18168e+06	56.2226
1.1885e+06	56.2241
1.19536e+06	56.2256
1.20226e+06	56.2271
1.20921e+06	56.2286
1.21619e+06	56.2301
1.22321e+06	56.2315
1.23027e+06	56.2329
1.23737e+06	56.2344
1.24451e+06	56.2358
1.2517e+06	56.2372
1.25893e+06	56.2385
1.26619e+06	56.2399
1.2735e+06	56.2413
1.28086e+06	56.2426
1.28825e+06	56.2439
1.29569e+06	56.2452
1.30317e+06	56.2465
1.31069e+06	56.2478
1.31826e+06	56.2491
1.32587e+06	56.2504
1.33352e+06	56.2516
1.34122e+06	56.2529
1.34896e+06	56.2541
1.35675e+06	56.2553
1.36458e+06	56.2565
1.37246e+06	56.2577
1.38038e+06	56.2589
1.38835e+06	56.26
1.39637e+06	56.2612
1.40443e+06	56.2623
1.41254e+06	56.2634
1.42069e+06	56.2645
1.42889e+06	56.2656
1.43714e+06	56.2667
1.44544e+06	56.2678
1.45378e+06	56.2688
1.46218e+06	56.2699
1.47062e+06	56.2709
1.47911e+06	56.2719
1.48765e+06	56.273
1.49624e+06	56.274
1.50487e+06	56.2749
1.51356e+06	56.2759
1.5223e+06	56.2769
1.53109e+06	56.2778
1.53993e+06	56.2788
1.54882e+06	56.2797
1.55776e+06	56.2806
1.56675e+06	56.2815
1.5758e+06	56.2824
1.58489e+06	56.2833
1.59404e+06	56.2841
1.60325e+06	56.285
1.6125e+06	56.2858
1.62181e+06	56.2867
1.63117e+06	56.2875
1.64059e+06	56.2883
1.65006e+06	56.2891
1.65959e+06	56.2899
1.66917e+06	56.2907
1.6788e+06	56.2914
1.6885e+06	56.2922
1.69824e+06	56.2929
1.70805e+06	56.2937
1.71791e+06	56.2944
1.72783e+06	56.2951
1.7378e+06	56.2958
1.74783e+06	56.2965
1.75792e+06	56.2972
1.76807e+06	56.2978
1.77828e+06	56.2985
1.78855e+06	56.2991
1.79887e+06	56.2997
1.80926e+06	56.3004
1.8197e+06	56.301
1.83021e+06	56.3016
1.84077e+06	56.3022
1.8514e+06	56.3028
1.86209e+06	56.3033
1.87284e+06	56.3039
1.88365e+06	56.3044
1.89452e+06	56.305
1.90546e+06	56.3055
1.91646e+06	56.306
1.92752e+06	56.3065
1.93865e+06	56.3071
1.94984e+06	56.3075
1.9611e+06	56.308
1.97242e+06	56.3085
1.98381e+06	56.309
1.99526e+06	56.3094
2.00678e+06	56.3099
2.01837e+06	56.3103
2.03002e+06	56.3107
2.04174e+06	56.3111
2.05353e+06	56.3115
2.06538e+06	56.3119
2.0773e+06	56.3123
2.0893e+06	56.3127
2.10136e+06	56.3131
2.11349e+06	56.3135
2.12569e+06	56.3138
2.13796e+06	56.3142
2.1503e+06	56.3145
2.16272e+06	56.3148
2.1752e+06	56.3151
2.18776e+06	56.3155
2.20039e+06	56.3158
2.21309e+06	56.3161
2.22587e+06	56.3163
2.23872e+06	56.3166
2.25165e+06	56.3169
2.26464e+06	56.3172
2.27772e+06	56.3174
2.29087e+06	56.3177
2.30409e+06	56.3179
2.31739e+06	56.3181
2.33077e+06	56.3184
2.34423e+06	56.3186
2.35776e+06	56.3188
2.37137e+06	56.319
2.38506e+06	56.3192
2.39883e+06	56.3194
2.41268e+06	56.3196
2.42661e+06	56.3197
2.44062e+06	56.3199
2.45471e+06	56.3201
2.46888e+06	56.3202
2.48313e+06	56.3204
2.49747e+06	56.3205
2.51189e+06	56.3207
2.52639e+06	56.3208
2.54097e+06	56.3209
2.55564e+06	56.321
2.5704e+06	56.3211
2.58523e+06	56.3213
2.60016e+06	56.3214
2.61517e+06	56.3214
2.63027e+06	56.3215
2.64545e+06	56.3216
2.66073e+06	56.3217
2.67609e+06	56.3218
2.69153e+06	56.3218
2.70707e+06	56.3219
2.7227e+06	56.3219
2.73842e+06	56.322
2.75423e+06	56.322
2.77013e+06	56.3221
2.78612e+06	56.3221
2.80221e+06	56.3221
2.81838e+06	56.3222
2.83465e+06	56.3222
2.85102e+06	56.3222
2.86748e+06	56.3222
2.88403e+06	56.3222
2.90068e+06	56.3222
2.91743e+06	56.3222
2.93427e+06	56.3222
2.95121e+06	56.3222
2.96825e+06	56.3222
2.98538e+06	56.3222
3.00262e+06	56.3221
3.01995e+06	56.3221
3.03739e+06	56.3221
3.05492e+06	56.3221
3.07256e+06	56.322
3.0903e+06	56.322
3.10814e+06	56.3219
3.12608e+06	56.3219
3.14413e+06	56.3218
3.16228e+06	56.3218
3.18053e+06	56.3217
3.1989e+06	56.3217
3.21736e+06	56.3216
3.23594e+06	56.3215
3.25462e+06	56.3215
3.27341e+06	56.3214
3.2923e+06	56.3213
3.31131e+06	56.3213
3.33043e+06	56.3212
3.34965e+06	56.3211
3.36899e+06	56.321
3.38844e+06	56.3209
3.408e+06	56.3209
3.42768e+06	56.3208
3.44747e+06	56.3207
3.46737e+06	56.3206
3.48739e+06	56.3205
3.50752e+06	56.3204
3.52777e+06	56.3203
3.54813e+06	56.3202
3.56862e+06	56.3201
3.58922e+06	56.32
3.60994e+06	56.3199
3.63078e+06	56.3198
3.65174e+06	56.3197
3.67282e+06	56.3196
3.69403e+06	56.3195
3.71535e+06	56.3194
3.7368e+06	56.3193
3.75837e+06	56.3192
3.78007e+06	56.3191
3.80189e+06	56.319
3.82384e+06	56.3189
3.84592e+06	56.3188
3.86812e+06	56.3187
3.89045e+06	56.3186
3.91291e+06	56.3185
3.9355e+06	56.3184
3.95822e+06	56.3183
3.98107e+06	56.3182
4.00405e+06	56.3181
4.02717e+06	56.318
4.05042e+06	56.3179
4.0738e+06	56.3178
4.09732e+06	56.3177
4.12098e+06	56.3176
4.14477e+06	56.3175
4.16869e+06	56.3175
4.19276e+06	56.3174
4.21697e+06	56.3173
4.24131e+06	56.3172
4.2658e+06	56.3171
4.29042e+06	56.317
4.31519e+06	56.3169
4.3401e+06	56.3168
4.36516e+06	56.3167
4.39036e+06	56.3167
4.4157e+06	56.3166
4.4412e+06	56.3165
4.46684e+06	56.3164
4.49262e+06	56.3163
4.51856e+06	56.3162
4.54465e+06	56.3162
4.57088e+06	56.3161
4.59727e+06	56.316
4.62381e+06	56.3159
4.6505e+06	56.3158
4.67735e+06	56.3158
4.70435e+06	56.3157
4.73151e+06	56.3156
4.75883e+06	56.3155
4.7863e+06	56.3155
4.81393e+06	56.3154
4.84172e+06	56.3153
4.86968e+06	56.3152
4.89779e+06	56.3152
4.92606e+06	56.3151
4.9545e+06	56.315
4.9831e+06	56.315
5.01187e+06	56.3149
5.04081e+06	56.3148
5.06991e+06	56.3147
5.09918e+06	56.3147
5.12861e+06	56.3146
5.15822e+06	56.3145
5.188e+06	56.3145
5.21795e+06	56.3144
5.24807e+06	56.3143
5.27837e+06	56.3143
5.30884e+06	56.3142
5.33949e+06	56.3142
5.37032e+06	56.3141
5.40132e+06	56.314
5.4325e+06	56.314
5.46387e+06	56.3139
5.49541e+06	56.3138
5.52713e+06	56.3138
5.55904e+06	56.3137
5.59114e+06	56.3137
5.62341e+06	56.3136
5.65588e+06	56.3136
5.68853e+06	56.3135
5.72137e+06	56.3134
5.7544e+06	56.3134
5.78762e+06	56.3133
5.82103e+06	56.3133
5.85464e+06	56.3132
5.88844e+06	56.3132
5.92243e+06	56.3131
5.95662e+06	56.313
5.99101e+06	56.313
6.0256e+06	56.3129
6.06038e+06	56.3129
6.09537e+06	56.3128
6.13056e+06	56.3128
6.16595e+06	56.3127
6.20155e+06	56.3127
6.23735e+06	56.3126
6.27336e+06	56.3126
6.30957e+06	56.3125
6.346e+06	56.3125
6.38263e+06	56.3124
6.41948e+06	56.3124
6.45654e+06	56.3123
6.49382e+06	56.3123
6.53131e+06	56.3122
6.56901e+06	56.3122
6.60693e+06	56.3121
6.64508e+06	56.3121
6.68344e+06	56.3121
6.72202e+06	56.312
6.76083e+06	56.312
6.79986e+06	56.3119
6.83912e+06	56.3119
6.8786e+06	56.3118
6.91831e+06	56.3118
6.95825e+06	56.3117
6.99842e+06	56.3117
7.03882e+06	56.3117
7.07946e+06	56.3116
7.12033e+06	56.3116
7.16143e+06	56.3115
7.20278e+06	56.3115
7.24436e+06	56.3115
7.28618e+06	56.3114
7.32825e+06	56.3114
7.37055e+06	56.3113
7.4131e+06	56.3113
7.4559e+06	56.3113
7.49894e+06	56.3112
7.54223e+06	56.3112
7.58578e+06	56.3111
7.62957e+06	56.3111
7.67361e+06	56.3111
7.71792e+06	56.311
7.76247e+06	56.311
7.80728e+06	56.311
7.85236e+06	56.3109
7.89769e+06	56.3109
7.94328e+06	56.3108
7.98914e+06	56.3108
8.03526e+06	56.3108
8.08165e+06	56.3107
8.12831e+06	56.3107
8.17523e+06	56.3107
8.22243e+06	56.3106
8.2699e+06	56.3106
8.31764e+06	56.3106
8.36566e+06	56.3105
8.41395e+06	56.3105
8.46253e+06	56.3105
8.51138e+06	56.3104
8.56052e+06	56.3104
8.60994e+06	56.3104
8.65964e+06	56.3103
8.70964e+06	56.3103
8.75992e+06	56.3103
8.81049e+06	56.3102
8.86135e+06	56.3102
8.91251e+06	56.3102
8.96396e+06	56.3102
9.01571e+06	56.3101
9.06776e+06	56.3101
9.12011e+06	56.3101
9.17276e+06	56.31
9.22571e+06	56.31
9.27897e+06	56.31
9.33254e+06	56.3099
9.38642e+06	56.3099
9.44061e+06	56.3099
9.49511e+06	56.3099
9.54993e+06	56.3098
9.60506e+06	56.3098
9.66051e+06	56.3098
9.71628e+06	56.3098
9.77237e+06	56.3097
9.82879e+06	56.3097
9.88553e+06	56.3097
9.9426e+06	56.3096
1e+07	56.3096
