Stopping power dEdx from Ionisation for Be9[0.0] Z = 4 in G4_Si, process name: ionIoni
E [MeV]	dEdx [MeV/mm]
0.001	29.1433
0.00100577	29.228
0.00101158	29.3128
0.00101742	29.3979
0.00102329	29.4833
0.0010292	29.5689
0.00103514	29.6548
0.00104112	29.7408
0.00104713	29.8272
0.00105317	29.9138
0.00105925	30.0006
0.00106537	30.0877
0.00107152	30.1751
0.00107771	30.2627
0.00108393	30.3505
0.00109018	30.4386
0.00109648	30.527
0.00110281	30.6156
0.00110917	30.7045
0.00111558	30.7936
0.00112202	30.883
0.0011285	30.9726
0.00113501	31.0625
0.00114156	31.1526
0.00114815	31.2431
0.00115478	31.3337
0.00116145	31.4247
0.00116815	31.5159
0.0011749	31.6073
0.00118168	31.6991
0.0011885	31.791
0.00119536	31.8833
0.00120226	31.9758
0.00120921	32.0686
0.00121619	32.1617
0.00122321	32.255
0.00123027	32.3486
0.00123737	32.4424
0.00124451	32.5366
0.0012517	32.631
0.00125893	32.7257
0.00126619	32.8206
0.0012735	32.9158
0.00128086	33.0113
0.00128825	33.1071
0.00129569	33.2031
0.00130317	33.2995
0.00131069	33.3961
0.00131826	33.493
0.00132587	33.5901
0.00133352	33.6876
0.00134122	33.7853
0.00134896	33.8833
0.00135675	33.9816
0.00136458	34.0801
0.00137246	34.179
0.00138038	34.2781
0.00138835	34.3775
0.00139637	34.4773
0.00140443	34.5773
0.00141254	34.6775
0.00142069	34.7781
0.00142889	34.879
0.00143714	34.9801
0.00144544	35.0816
0.00145378	35.1833
0.00146218	35.2854
0.00147062	35.3877
0.00147911	35.4903
0.00148765	35.5932
0.00149624	35.6964
0.00150487	35.7999
0.00151356	35.9038
0.0015223	36.0079
0.00153109	36.1123
0.00153993	36.217
0.00154882	36.322
0.00155776	36.4273
0.00156675	36.5329
0.0015758	36.6389
0.00158489	36.7451
0.00159404	36.8516
0.00160325	36.9585
0.0016125	37.0656
0.00162181	37.1731
0.00163117	37.2808
0.00164059	37.3889
0.00165006	37.4973
0.00165959	37.606
0.00166917	37.715
0.0016788	37.8244
0.0016885	37.934
0.00169824	38.044
0.00170805	38.1542
0.00171791	38.2648
0.00172783	38.3757
0.0017378	38.487
0.00174783	38.5985
0.00175792	38.7104
0.00176807	38.8226
0.00177828	38.9351
0.00178855	39.048
0.00179887	39.1612
0.00180926	39.2747
0.0018197	39.3885
0.00183021	39.5026
0.00184077	39.6171
0.0018514	39.7319
0.00186209	39.8471
0.00187284	39.9625
0.00188365	40.0784
0.00189452	40.1945
0.00190546	40.311
0.00191646	40.4278
0.00192752	40.5449
0.00193865	40.6624
0.00194984	40.7802
0.0019611	40.8984
0.00197242	41.0169
0.00198381	41.1358
0.00199526	41.255
0.00200678	41.3745
0.00201837	41.4944
0.00203002	41.6146
0.00204174	41.7352
0.00205353	41.8561
0.00206538	41.9773
0.0020773	42.099
0.0020893	42.2209
0.00210136	42.3432
0.00211349	42.4659
0.00212569	42.5889
0.00213796	42.7123
0.0021503	42.8361
0.00216272	42.9601
0.0021752	43.0846
0.00218776	43.2094
0.00220039	43.3346
0.00221309	43.4601
0.00222587	43.586
0.00223872	43.7122
0.00225165	43.8388
0.00226464	43.9658
0.00227772	44.0932
0.00229087	44.2209
0.00230409	44.349
0.00231739	44.4774
0.00233077	44.6062
0.00234423	44.7354
0.00235776	44.865
0.00237137	44.9949
0.00238506	45.1253
0.00239883	45.2559
0.00241268	45.387
0.00242661	45.5185
0.00244062	45.6503
0.00245471	45.7825
0.00246888	45.9151
0.00248313	46.048
0.00249747	46.1814
0.00251189	46.3151
0.00252639	46.4492
0.00254097	46.5837
0.00255564	46.7186
0.0025704	46.8539
0.00258523	46.9896
0.00260016	47.1256
0.00261517	47.2621
0.00263027	47.399
0.00264545	47.5362
0.00266073	47.6738
0.00267609	47.8119
0.00269153	47.9503
0.00270707	48.0891
0.0027227	48.2284
0.00273842	48.368
0.00275423	48.508
0.00277013	48.6485
0.00278612	48.7893
0.00280221	48.9306
0.00281838	49.0722
0.00283465	49.2143
0.00285102	49.3568
0.00286748	49.4997
0.00288403	49.643
0.00290068	49.7867
0.00291743	49.9308
0.00293427	50.0753
0.00295121	50.2203
0.00296825	50.3657
0.00298538	50.5115
0.00300262	50.6577
0.00301995	50.8043
0.00303739	50.9514
0.00305492	51.0988
0.00307256	51.2467
0.0030903	51.3951
0.00310814	51.5438
0.00312608	51.693
0.00314413	51.8427
0.00316228	51.9927
0.00318053	52.1432
0.0031989	52.2941
0.00321736	52.4455
0.00323594	52.5972
0.00325462	52.7495
0.00327341	52.9021
0.0032923	53.0552
0.00331131	53.2088
0.00333043	53.3628
0.00334965	53.5172
0.00336899	53.6721
0.00338844	53.8274
0.003408	53.9832
0.00342768	54.1394
0.00344747	54.2961
0.00346737	54.4532
0.00348739	54.6108
0.00350752	54.7688
0.00352777	54.9273
0.00354813	55.0862
0.00356862	55.2456
0.00358922	55.4055
0.00360994	55.5658
0.00363078	55.7266
0.00365174	55.8878
0.00367282	56.0496
0.00369403	56.2117
0.00371535	56.3744
0.0037368	56.5375
0.00375837	56.7011
0.00378007	56.8651
0.00380189	57.0297
0.00382384	57.1947
0.00384592	57.3601
0.00386812	57.5261
0.00389045	57.6925
0.00391291	57.8594
0.0039355	58.0268
0.00395822	58.1947
0.00398107	58.3631
0.00400405	58.5319
0.00402717	58.7012
0.00405042	58.8711
0.0040738	59.0414
0.00409732	59.2122
0.00412098	59.3835
0.00414477	59.5553
0.00416869	59.7275
0.00419276	59.9003
0.00421697	60.0736
0.00424131	60.2474
0.0042658	60.4216
0.00429042	60.5964
0.00431519	60.7717
0.0043401	60.9475
0.00436516	61.1238
0.00439036	61.3006
0.0044157	61.4779
0.0044412	61.6557
0.00446684	61.8341
0.00449262	62.0129
0.00451856	62.1923
0.00454465	62.3722
0.00457088	62.5526
0.00459727	62.7335
0.00462381	62.9149
0.0046505	63.0969
0.00467735	63.2794
0.00470435	63.4624
0.00473151	63.6459
0.00475883	63.83
0.0047863	64.0146
0.00481393	64.1998
0.00484172	64.3854
0.00486968	64.5716
0.00489779	64.7584
0.00492606	64.9457
0.0049545	65.1335
0.0049831	65.3218
0.00501187	65.5107
0.00504081	65.7002
0.00506991	65.8902
0.00509918	66.0807
0.00512861	66.2718
0.00515822	66.4634
0.005188	66.6556
0.00521795	66.8484
0.00524807	67.0417
0.00527837	67.2356
0.00530884	67.43
0.00533949	67.625
0.00537032	67.8205
0.00540132	68.0166
0.0054325	68.2133
0.00546387	68.4105
0.00549541	68.6083
0.00552713	68.8067
0.00555904	69.0056
0.00559114	69.2052
0.00562341	69.4053
0.00565588	69.6059
0.00568853	69.8072
0.00572137	70.009
0.0057544	70.2114
0.00578762	70.4144
0.00582103	70.618
0.00585464	70.8222
0.00588844	71.0269
0.00592243	71.2323
0.00595662	71.4382
0.00599101	71.6448
0.0060256	71.8519
0.00606038	72.0596
0.00609537	72.2679
0.00613056	72.4769
0.00616595	72.6864
0.00620155	72.8965
0.00623735	73.1072
0.00627336	73.3186
0.00630957	73.5305
0.006346	73.7431
0.00638263	73.9563
0.00641948	74.1701
0.00645654	74.3845
0.00649382	74.5995
0.00653131	74.8152
0.00656901	75.0314
0.00660693	75.2483
0.00664508	75.4658
0.00668344	75.684
0.00672202	75.9027
0.00676083	76.1221
0.00679986	76.3422
0.00683912	76.5628
0.0068786	76.7841
0.00691831	77.0061
0.00695825	77.2287
0.00699842	77.4519
0.00703882	77.6758
0.00707946	77.9003
0.00712033	78.1254
0.00716143	78.3512
0.00720278	78.5777
0.00724436	78.8048
0.00728618	79.0326
0.00732825	79.261
0.00737055	79.4901
0.0074131	79.7198
0.0074559	79.9502
0.00749894	80.1813
0.00754223	80.413
0.00758578	80.6454
0.00762957	80.8785
0.00767361	81.1122
0.00771792	81.3467
0.00776247	81.5818
0.00780728	81.8175
0.00785236	82.054
0.00789769	82.2911
0.00794328	82.5289
0.00798914	82.7674
0.00803526	83.0066
0.00808165	83.2465
0.00812831	83.4871
0.00817523	83.7283
0.00822243	83.9703
0.0082699	84.2129
0.00831764	84.4563
0.00836566	84.7003
0.00841395	84.9451
0.00846253	85.1906
0.00851138	85.4367
0.00856052	85.6836
0.00860994	85.9312
0.00865964	86.395
0.00870964	86.644
0.00875992	86.8938
0.00881049	87.1442
0.00886135	87.3954
0.00891251	87.6473
0.00896396	87.9
0.00901571	88.1533
0.00906776	88.4074
0.00912011	88.6622
0.00917276	88.9178
0.00922571	89.1741
0.00927897	89.4311
0.00933254	89.6889
0.00938642	89.9474
0.00944061	90.2067
0.00949511	90.4667
0.00954993	90.7274
0.00960506	90.9889
0.00966051	91.2512
0.00971628	91.5142
0.00977237	91.778
0.00982879	92.0426
0.00988553	92.3079
0.0099426	92.5739
0.01	92.8408
0.0100577	93.1084
0.0101158	93.3767
0.0101742	93.6459
0.0102329	93.9158
0.010292	94.1865
0.0103514	94.458
0.0104112	94.7302
0.0104713	95.0033
0.0105317	95.2771
0.0105925	95.5517
0.0106537	95.8272
0.0107152	96.1034
0.0107771	96.3804
0.0108393	96.6582
0.0109018	96.9368
0.0109648	97.2162
0.0110281	97.4964
0.0110917	97.7774
0.0111558	98.0593
0.0112202	98.3419
0.011285	98.6254
0.0113501	98.9096
0.0114156	99.1947
0.0114815	99.4807
0.0115478	99.7674
0.0116145	100.055
0.0116815	100.343
0.011749	100.633
0.0118168	100.923
0.011885	101.214
0.0119536	101.505
0.0120226	101.798
0.0120921	102.091
0.0121619	102.386
0.0122321	102.681
0.0123027	102.977
0.0123737	103.273
0.0124451	103.571
0.012517	103.87
0.0125893	104.169
0.0126619	104.469
0.012735	104.77
0.0128086	105.072
0.0128825	105.375
0.0129569	105.679
0.0130317	105.984
0.0131069	106.289
0.0131826	106.595
0.0132587	106.903
0.0133352	107.211
0.0134122	107.52
0.0134896	107.83
0.0135675	108.141
0.0136458	108.452
0.0137246	108.765
0.0138038	109.078
0.0138835	109.393
0.0139637	109.708
0.0140443	110.024
0.0141254	110.341
0.0142069	110.659
0.0142889	110.978
0.0143714	111.298
0.0144544	111.619
0.0145378	111.941
0.0146218	112.264
0.0147062	112.587
0.0147911	112.912
0.0148765	113.237
0.0149624	113.563
0.0150487	113.891
0.0151356	114.219
0.015223	114.548
0.0153109	114.878
0.0153993	115.21
0.0154882	115.542
0.0155776	115.875
0.0156675	116.209
0.015758	116.544
0.0158489	116.88
0.0159404	117.216
0.0160325	117.554
0.016125	117.893
0.0162181	118.233
0.0163117	118.574
0.0164059	118.916
0.0165006	119.258
0.0165959	119.602
0.0166917	119.947
0.016788	120.293
0.016885	120.639
0.0169824	120.987
0.0170805	121.336
0.0171791	121.685
0.0172783	122.036
0.017378	122.388
0.0174783	122.741
0.0175792	123.094
0.0176807	123.449
0.0177828	123.805
0.0178855	124.162
0.0179887	124.52
0.0180926	124.879
0.018197	125.239
0.0183021	125.6
0.0184077	125.962
0.018514	126.325
0.0186209	126.689
0.0187284	127.054
0.0188365	127.42
0.0189452	127.788
0.0190546	128.156
0.0191646	128.525
0.0192752	128.896
0.0193865	129.267
0.0194984	129.64
0.019611	130.014
0.0197242	130.388
0.0198381	130.764
0.0199526	131.141
0.0200678	131.519
0.0201837	131.898
0.0203002	132.278
0.0204174	132.66
0.0205353	133.042
0.0206538	133.425
0.020773	133.81
0.020893	134.196
0.0210136	134.583
0.0211349	134.97
0.0212569	135.359
0.0213796	135.75
0.021503	136.141
0.0216272	136.533
0.021752	136.927
0.0218776	137.322
0.0220039	137.717
0.0221309	138.114
0.0222587	138.512
0.0223872	138.912
0.0225165	139.312
0.0226464	139.714
0.0227772	140.116
0.0229087	140.52
0.0230409	140.925
0.0231739	141.331
0.0233077	141.739
0.0234423	142.147
0.0235776	142.557
0.0237137	142.968
0.0238506	143.38
0.0239883	143.793
0.0241268	144.208
0.0242661	144.623
0.0244062	145.04
0.0245471	145.458
0.0246888	145.878
0.0248313	146.298
0.0249747	146.72
0.0251189	147.143
0.0252639	147.567
0.0254097	147.992
0.0255564	148.419
0.025704	148.847
0.0258523	149.276
0.0260016	149.706
0.0261517	150.137
0.0263027	150.57
0.0264545	151.004
0.0266073	151.439
0.0267609	151.876
0.0269153	152.314
0.0270707	152.753
0.027227	153.193
0.0273842	153.634
0.0275423	154.077
0.0277013	154.521
0.0278612	154.967
0.0280221	155.413
0.0281838	155.861
0.0283465	156.311
0.0285102	156.761
0.0286748	157.213
0.0288403	157.666
0.0290068	158.121
0.0291743	158.576
0.0293427	159.034
0.0295121	159.492
0.0296825	159.952
0.0298538	160.413
0.0300262	160.875
0.0301995	161.339
0.0303739	161.804
0.0305492	162.27
0.0307256	162.738
0.030903	163.207
0.0310814	163.677
0.0312608	164.149
0.0314413	164.622
0.0316228	165.097
0.0318053	165.573
0.031989	166.05
0.0321736	166.529
0.0323594	167.009
0.0325462	167.49
0.0327341	167.973
0.032923	168.457
0.0331131	168.942
0.0333043	169.429
0.0334965	169.918
0.0336899	170.407
0.0338844	170.899
0.03408	171.391
0.0342768	171.885
0.0344747	172.381
0.0346737	172.878
0.0348739	173.376
0.0350752	173.876
0.0352777	174.377
0.0354813	174.879
0.0356862	175.383
0.0358922	175.889
0.0360994	176.396
0.0363078	176.904
0.0365174	177.414
0.0367282	177.926
0.0369403	178.439
0.0371535	178.953
0.037368	179.469
0.0375837	179.986
0.0378007	180.505
0.0380189	181.025
0.0382384	181.547
0.0384592	182.07
0.0386812	182.595
0.0389045	183.121
0.0391291	183.649
0.039355	184.178
0.0395822	184.709
0.0398107	185.242
0.0400405	185.776
0.0402717	186.311
0.0405042	186.848
0.040738	187.387
0.0409732	187.927
0.0412098	188.468
0.0414477	189.012
0.0416869	189.556
0.0419276	190.103
0.0421697	190.651
0.0424131	191.2
0.042658	191.751
0.0429042	192.304
0.0431519	192.858
0.043401	193.414
0.0436516	193.972
0.0439036	194.531
0.044157	195.092
0.044412	195.654
0.0446684	196.218
0.0449262	196.783
0.0451856	197.351
0.0454465	197.92
0.0457088	198.49
0.0459727	199.062
0.0462381	199.636
0.046505	200.211
0.0467735	200.788
0.0470435	201.367
0.0473151	201.948
0.0475883	202.53
0.047863	203.113
0.0481393	203.699
0.0484172	204.286
0.0486968	204.875
0.0489779	205.465
0.0492606	206.058
0.049545	206.652
0.049831	207.247
0.0501187	207.845
0.0504081	208.444
0.0506991	209.044
0.0509918	209.647
0.0512861	210.251
0.0515822	210.857
0.05188	211.465
0.0521795	212.075
0.0524807	212.686
0.0527837	213.299
0.0530884	213.914
0.0533949	214.53
0.0537032	215.149
0.0540132	215.769
0.054325	216.391
0.0546387	217.014
0.0549541	217.64
0.0552713	218.267
0.0555904	218.896
0.0559114	219.527
0.0562341	220.16
0.0565588	220.795
0.0568853	221.431
0.0572137	222.069
0.057544	222.709
0.0578762	223.351
0.0582103	223.995
0.0585464	224.641
0.0588844	225.288
0.0592243	225.938
0.0595662	226.589
0.0599101	227.242
0.060256	227.897
0.0606038	228.554
0.0609537	229.213
0.0613056	229.873
0.0616595	230.536
0.0620155	231.2
0.0623735	231.867
0.0627336	232.535
0.0630957	233.205
0.06346	233.878
0.0638263	234.552
0.0641948	235.228
0.0645654	235.906
0.0649382	236.586
0.0653131	237.268
0.0656901	237.952
0.0660693	238.637
0.0664508	239.325
0.0668344	240.015
0.0672202	240.707
0.0676083	241.401
0.0679986	242.097
0.0683912	242.794
0.068786	243.494
0.0691831	244.196
0.0695825	244.9
0.0699842	245.606
0.0703882	246.314
0.0707946	247.024
0.0712033	247.736
0.0716143	248.45
0.0720278	249.166
0.0724436	249.884
0.0728618	250.604
0.0732825	251.327
0.0737055	252.051
0.074131	252.778
0.074559	253.506
0.0749894	254.237
0.0754223	254.97
0.0758578	255.705
0.0762957	256.442
0.0767361	257.181
0.0771792	257.922
0.0776247	258.666
0.0780728	259.411
0.0785236	260.159
0.0789769	260.909
0.0794328	261.661
0.0798914	262.415
0.0803526	263.171
0.0808165	263.93
0.0812831	264.691
0.0817523	265.454
0.0822243	266.219
0.082699	266.986
0.0831764	267.756
0.0836566	268.527
0.0841395	269.301
0.0846253	270.078
0.0851138	270.856
0.0856052	271.637
0.0860994	272.42
0.0865964	273.205
0.0870964	273.992
0.0875992	274.782
0.0881049	275.574
0.0886135	276.369
0.0891251	277.165
0.0896396	277.964
0.0901571	278.765
0.0906776	279.569
0.0912011	280.375
0.0917276	281.183
0.0922571	281.993
0.0927897	282.806
0.0933254	283.621
0.0938642	284.439
0.0944061	285.259
0.0949511	286.081
0.0954993	286.905
0.0960506	287.732
0.0966051	288.562
0.0971628	289.393
0.0977237	290.228
0.0982879	291.064
0.0988553	291.903
0.099426	292.744
0.1	293.588
0.100577	294.434
0.101158	295.283
0.101742	296.134
0.102329	296.988
0.10292	297.844
0.103514	298.702
0.104112	299.563
0.104713	300.427
0.105317	301.293
0.105925	302.161
0.106537	303.032
0.107152	303.906
0.107771	304.782
0.108393	305.66
0.109018	306.541
0.109648	307.425
0.110281	308.311
0.110917	309.199
0.111558	310.091
0.112202	310.984
0.11285	311.881
0.113501	312.78
0.114156	313.681
0.114815	314.585
0.115478	315.492
0.116145	316.402
0.116815	317.314
0.11749	318.228
0.118168	319.145
0.11885	320.065
0.119536	320.988
0.120226	321.913
0.120921	322.841
0.121619	323.772
0.122321	324.705
0.123027	325.641
0.123737	326.579
0.124451	327.521
0.12517	328.465
0.125893	329.411
0.126619	330.361
0.12735	331.313
0.128086	332.268
0.128825	333.226
0.129569	334.186
0.130317	335.15
0.131069	336.116
0.131826	337.084
0.132587	338.056
0.133352	339.03
0.134122	340.008
0.134896	340.988
0.135675	341.971
0.136458	342.956
0.137246	343.945
0.138038	344.936
0.138835	345.93
0.139637	346.927
0.140443	347.927
0.141254	348.93
0.142069	349.936
0.142889	350.945
0.143714	351.956
0.144544	352.971
0.145378	353.988
0.146218	355.008
0.147062	356.032
0.147911	357.058
0.148765	358.087
0.149624	359.119
0.150487	360.154
0.151356	361.192
0.15223	362.234
0.153109	363.278
0.153993	364.325
0.154882	365.375
0.155776	366.428
0.156675	367.484
0.15758	368.543
0.158489	369.606
0.159404	370.671
0.160325	371.739
0.16125	372.811
0.162181	373.886
0.163117	374.963
0.164059	376.044
0.165006	377.128
0.165959	378.215
0.166917	379.305
0.16788	380.398
0.16885	381.495
0.169824	382.594
0.170805	383.697
0.171791	384.803
0.172783	385.912
0.17378	387.025
0.174783	388.14
0.175792	389.259
0.176807	390.381
0.177828	391.506
0.178855	392.635
0.179887	393.766
0.180926	394.901
0.18197	396.04
0.183021	397.181
0.184077	398.326
0.18514	399.474
0.186209	400.626
0.187284	401.78
0.188365	402.938
0.189452	404.1
0.190546	405.265
0.191646	406.433
0.192752	407.604
0.193865	408.779
0.194984	409.957
0.19611	411.139
0.197242	412.324
0.198381	413.513
0.199526	414.704
0.200678	415.9
0.201837	417.099
0.203002	418.301
0.204174	419.506
0.205353	420.716
0.206538	421.928
0.20773	423.144
0.20893	424.364
0.210136	425.587
0.211349	426.814
0.212569	428.044
0.213796	429.278
0.21503	430.515
0.216272	431.756
0.21752	433.001
0.218776	434.249
0.220039	435.5
0.221309	436.756
0.222587	438.015
0.223872	439.277
0.225165	440.559
0.226464	441.958
0.227772	443.363
0.229087	444.776
0.230409	446.196
0.231739	447.623
0.233077	449.056
0.234423	450.497
0.235776	451.945
0.237137	453.4
0.238506	454.862
0.239883	456.331
0.241268	457.806
0.242661	459.289
0.244062	460.778
0.245471	462.274
0.246888	463.777
0.248313	465.287
0.249747	466.803
0.251189	468.326
0.252639	469.855
0.254097	471.392
0.255564	472.934
0.25704	474.483
0.258523	476.038
0.260016	477.6
0.261517	479.168
0.263027	480.742
0.264545	482.322
0.266073	483.909
0.267609	485.501
0.269153	487.099
0.270707	488.621
0.27227	490.049
0.273842	491.481
0.275423	492.918
0.277013	494.36
0.278612	495.806
0.280221	497.256
0.281838	498.71
0.283465	500.168
0.285102	501.631
0.286748	503.097
0.288403	504.566
0.290068	506.039
0.291743	507.516
0.293427	508.996
0.295121	510.478
0.296825	511.964
0.298538	513.453
0.300262	514.945
0.301995	516.439
0.303739	517.935
0.305492	519.434
0.307256	520.934
0.30903	522.437
0.310814	523.941
0.312608	525.446
0.314413	526.953
0.316228	528.462
0.318053	529.971
0.31989	531.48
0.321736	532.991
0.323594	534.501
0.325462	536.012
0.327341	537.522
0.32923	539.032
0.331131	540.542
0.333043	542.05
0.334965	543.557
0.336899	545.063
0.338844	546.567
0.3408	548.07
0.342768	549.569
0.344747	551.067
0.346737	552.561
0.348739	554.053
0.350752	555.541
0.352777	557.025
0.354813	558.505
0.356862	559.98
0.358922	561.451
0.360994	562.893
0.363078	564.305
0.365174	565.71
0.367282	567.11
0.369403	568.504
0.371535	569.893
0.37368	571.275
0.375837	572.652
0.378007	574.022
0.380189	575.387
0.382384	576.745
0.384592	578.097
0.386812	579.444
0.389045	580.784
0.391291	582.118
0.39355	583.446
0.395822	584.768
0.398107	586.084
0.400405	587.393
0.402717	588.697
0.405042	589.994
0.40738	591.285
0.409732	592.57
0.412098	593.849
0.414477	595.121
0.416869	596.388
0.419276	597.648
0.421697	598.903
0.424131	600.151
0.42658	601.394
0.429042	602.63
0.431519	603.861
0.43401	605.086
0.436516	606.305
0.439036	607.519
0.44157	608.727
0.44412	609.929
0.446684	611.126
0.449262	612.318
0.451856	613.503
0.454465	614.682
0.457088	615.855
0.459727	617.023
0.462381	618.186
0.46505	619.343
0.467735	620.495
0.470435	621.642
0.473151	622.783
0.475883	623.918
0.47863	625.048
0.481393	626.172
0.484172	627.29
0.486968	628.403
0.489779	629.51
0.492606	630.612
0.49545	631.708
0.49831	632.798
0.501187	633.882
0.504081	634.961
0.506991	636.033
0.509918	637.101
0.512861	638.162
0.515822	639.218
0.5188	640.268
0.521795	641.312
0.524807	642.351
0.527837	643.384
0.530884	644.412
0.533949	645.434
0.537032	646.45
0.540132	647.461
0.54325	648.466
0.546387	649.466
0.549541	650.46
0.552713	651.449
0.555904	652.433
0.559114	653.411
0.562341	654.383
0.565588	655.35
0.568853	656.311
0.572137	657.267
0.57544	658.217
0.578762	659.162
0.582103	660.101
0.585464	661.034
0.588844	661.963
0.592243	662.885
0.595662	663.803
0.599101	664.714
0.60256	665.621
0.606038	666.522
0.609537	667.418
0.613056	668.309
0.616595	669.194
0.620155	670.075
0.623735	670.95
0.627336	671.821
0.630957	672.686
0.6346	673.547
0.638263	674.402
0.641948	675.253
0.645654	676.099
0.649382	676.94
0.653131	677.776
0.656901	678.607
0.660693	679.432
0.664508	680.253
0.668344	681.069
0.672202	681.88
0.676083	682.686
0.679986	683.487
0.683912	684.283
0.68786	685.073
0.691831	685.859
0.695825	686.64
0.699842	687.416
0.703882	688.187
0.707946	688.953
0.712033	689.714
0.716143	690.47
0.720278	691.221
0.724436	691.968
0.728618	692.71
0.732825	693.447
0.737055	694.179
0.74131	694.906
0.74559	695.628
0.749894	696.345
0.754223	697.058
0.758578	697.765
0.762957	698.468
0.767361	699.165
0.771792	699.858
0.776247	700.545
0.780728	701.228
0.785236	701.906
0.789769	702.578
0.794328	703.246
0.798914	703.909
0.803526	704.567
0.808165	705.22
0.812831	705.868
0.817523	706.511
0.822243	707.15
0.82699	707.784
0.831764	708.412
0.836566	709.036
0.841395	709.655
0.846253	710.27
0.851138	710.879
0.856052	711.484
0.860994	712.084
0.865964	712.68
0.870964	713.271
0.875992	713.857
0.881049	714.439
0.886135	715.016
0.891251	715.589
0.896396	716.158
0.901571	716.723
0.906776	717.284
0.912011	717.842
0.917276	718.395
0.922571	718.943
0.927897	719.488
0.933254	720.027
0.938642	720.562
0.944061	721.093
0.949511	721.619
0.954993	722.14
0.960506	722.657
0.966051	723.169
0.971628	723.676
0.977237	724.179
0.982879	724.676
0.988553	725.169
0.99426	725.657
1	726.139
1.00577	726.617
1.01158	727.09
1.01742	727.558
1.02329	728.021
1.0292	728.478
1.03514	728.931
1.04112	729.378
1.04713	729.82
1.05317	730.258
1.05925	730.689
1.06537	731.116
1.07152	731.538
1.07771	731.954
1.08393	732.365
1.09018	732.771
1.09648	733.171
1.10281	733.566
1.10917	733.956
1.11558	734.341
1.12202	734.721
1.1285	735.095
1.13501	735.464
1.14156	735.828
1.14815	736.186
1.15478	736.54
1.16145	736.888
1.16815	737.231
1.1749	737.569
1.18168	737.902
1.1885	738.23
1.19536	738.553
1.20226	738.87
1.20921	739.183
1.21619	739.491
1.22321	739.794
1.23027	740.093
1.23737	740.386
1.24451	740.675
1.2517	740.959
1.25893	741.239
1.26619	741.515
1.2735	741.786
1.28086	742.052
1.28825	742.315
1.29569	742.573
1.30317	742.828
1.31069	743.078
1.31826	743.325
1.32587	743.568
1.33352	743.807
1.34122	744.044
1.34896	744.276
1.35675	744.491
1.36458	744.701
1.37246	744.907
1.38038	745.11
1.38835	745.309
1.39637	745.505
1.40443	745.697
1.41254	745.886
1.42069	746.072
1.42889	746.254
1.43714	746.432
1.44544	746.607
1.45378	746.777
1.46218	746.945
1.47062	747.108
1.47911	747.267
1.48765	747.423
1.49624	747.575
1.50487	747.722
1.51356	747.866
1.5223	748.006
1.53109	748.141
1.53993	748.273
1.54882	748.4
1.55776	748.523
1.56675	748.642
1.5758	748.757
1.58489	748.867
1.59404	748.973
1.60325	749.074
1.6125	749.171
1.62181	749.264
1.63117	749.352
1.64059	749.436
1.65006	749.515
1.65959	749.589
1.66917	749.659
1.6788	749.724
1.6885	749.784
1.69824	749.84
1.70805	749.89
1.71791	749.936
1.72783	749.978
1.7378	750.014
1.74783	750.045
1.75792	750.072
1.76807	750.093
1.77828	750.11
1.78855	750.121
1.79887	750.128
1.80926	750.132
1.8197	750.131
1.83021	750.125
1.84077	750.113
1.8514	750.097
1.86209	750.076
1.87284	750.049
1.88365	750.017
1.89452	749.98
1.90546	749.938
1.91646	749.89
1.92752	749.837
1.93865	749.779
1.94984	749.716
1.9611	749.647
1.97242	749.573
1.98381	749.494
1.99526	749.409
2.00678	749.32
2.01837	749.224
2.03002	749.124
2.04174	749.018
2.05353	748.907
2.06538	748.79
2.0773	748.668
2.0893	748.541
2.10136	748.408
2.11349	748.271
2.12569	748.128
2.13796	747.98
2.1503	747.826
2.16272	747.667
2.1752	747.504
2.18776	747.335
2.20039	747.161
2.21309	746.981
2.22587	746.797
2.23872	746.608
2.25165	746.414
2.26464	746.215
2.27772	746.011
2.29087	745.802
2.30409	745.588
2.31739	745.369
2.33077	745.145
2.34423	744.916
2.35776	744.682
2.37137	744.443
2.38506	744.198
2.39883	743.948
2.41268	743.693
2.42661	743.433
2.44062	743.167
2.45471	742.897
2.46888	742.62
2.48313	742.339
2.49747	742.052
2.51189	741.76
2.52639	741.462
2.54097	741.159
2.55564	740.85
2.5704	740.536
2.58523	740.216
2.60016	739.891
2.61517	739.561
2.63027	739.225
2.64545	738.883
2.66073	738.536
2.67609	738.184
2.69153	737.825
2.70707	737.462
2.7227	737.093
2.73842	736.719
2.75423	736.34
2.77013	735.954
2.78612	735.563
2.80221	735.167
2.81838	734.764
2.83465	734.356
2.85102	733.942
2.86748	733.523
2.88403	733.097
2.90068	732.666
2.91743	732.229
2.93427	731.786
2.95121	731.337
2.96825	730.883
2.98538	730.422
3.00262	729.956
3.01995	729.484
3.03739	729.006
3.05492	728.521
3.07256	728.031
3.0903	727.535
3.10814	727.034
3.12608	726.526
3.14413	726.012
3.16228	725.492
3.18053	724.966
3.1989	724.435
3.21736	723.897
3.23594	723.354
3.25462	722.804
3.27341	722.249
3.2923	721.688
3.31131	721.121
3.33043	720.548
3.34965	719.969
3.36899	719.385
3.38844	718.794
3.408	718.198
3.42768	717.596
3.44747	716.988
3.46737	716.375
3.48739	715.756
3.50752	715.132
3.52777	714.502
3.54813	713.866
3.56862	713.225
3.58922	712.578
3.60994	711.925
3.63078	711.266
3.65174	710.601
3.67282	709.931
3.69403	709.255
3.71535	708.574
3.7368	707.887
3.75837	707.195
3.78007	706.498
3.80189	705.795
3.82384	705.086
3.84592	704.373
3.86812	703.653
3.89045	702.929
3.91291	702.198
3.9355	701.463
3.95822	700.721
3.98107	699.975
4.00405	699.222
4.02717	698.465
4.05042	697.702
4.0738	696.933
4.09732	696.159
4.12098	695.379
4.14477	694.594
4.16869	693.804
4.19276	693.008
4.21697	692.207
4.24131	691.4
4.2658	690.588
4.29042	689.771
4.31519	688.948
4.3401	688.12
4.36516	687.286
4.39036	686.448
4.4157	685.604
4.4412	684.755
4.46684	683.9
4.49262	683.041
4.51856	682.176
4.54465	681.307
4.57088	680.432
4.59727	679.553
4.62381	678.668
4.6505	677.778
4.67735	676.883
4.70435	675.984
4.73151	675.079
4.75883	674.169
4.7863	673.254
4.81393	672.334
4.84172	671.409
4.86968	670.479
4.89779	669.544
4.92606	668.604
4.9545	667.659
4.9831	666.71
5.01187	665.756
5.04081	664.796
5.06991	663.832
5.09918	662.864
5.12861	661.89
5.15822	660.912
5.188	659.929
5.21795	658.942
5.24807	657.95
5.27837	656.954
5.30884	655.953
5.33949	654.947
5.37032	653.938
5.40132	652.924
5.4325	651.905
5.46387	650.883
5.49541	649.856
5.52713	648.825
5.55904	647.79
5.59114	646.75
5.62341	645.707
5.65588	644.659
5.68853	643.607
5.72137	642.551
5.7544	641.491
5.78762	640.427
5.82103	639.359
5.85464	638.286
5.88844	637.21
5.92243	636.13
5.95662	635.046
5.99101	633.958
6.0256	632.867
6.06038	631.771
6.09537	630.672
6.13056	629.569
6.16595	628.462
6.20155	627.352
6.23735	626.238
6.27336	625.12
6.30957	623.999
6.346	622.874
6.38263	621.746
6.41948	620.615
6.45654	619.48
6.49382	618.342
6.53131	617.2
6.56901	616.055
6.60693	614.907
6.64508	613.755
6.68344	612.601
6.72202	611.443
6.76083	610.282
6.79986	609.117
6.83912	607.95
6.8786	606.779
6.91831	605.606
6.95825	604.429
6.99842	603.25
7.03882	602.067
7.07946	600.882
7.12033	599.694
7.16143	598.503
7.20278	597.309
7.24436	596.112
7.28618	594.913
7.32825	593.711
7.37055	592.507
7.4131	591.3
7.4559	590.09
7.49894	588.878
7.54223	587.663
7.58578	586.446
7.62957	585.226
7.67361	584.003
7.71792	582.779
7.76247	581.552
7.80728	580.322
7.85236	579.091
7.89769	577.857
7.94328	576.62
7.98914	575.382
8.03526	574.141
8.08165	572.898
8.12831	571.653
8.17523	570.406
8.22243	569.157
8.2699	567.906
8.31764	566.653
8.36566	565.398
8.41395	564.141
8.46253	562.882
8.51138	561.622
8.56052	560.359
8.60994	559.095
8.65964	557.829
8.70964	556.561
8.75992	555.292
8.81049	554.021
8.86135	552.749
8.91251	551.475
8.96396	550.199
9.01571	548.922
9.06776	547.643
9.12011	546.362
9.17276	545.08
9.22571	543.796
9.27897	542.512
9.33254	541.226
9.38642	539.939
9.44061	538.65
9.49511	537.361
9.54993	536.07
9.60506	534.778
9.66051	533.485
9.71628	532.191
9.77237	530.896
9.82879	529.6
9.88553	528.303
9.9426	527.005
10	525.706
10.0577	524.406
10.1158	523.105
10.1742	521.804
10.2329	520.501
10.292	519.198
10.3514	517.894
10.4112	516.589
10.4713	515.284
10.5317	513.978
10.5925	512.671
10.6537	511.364
10.7152	510.056
10.7771	508.747
10.8393	507.438
10.9018	506.129
10.9648	504.818
11.0281	503.508
11.0917	502.196
11.1558	500.885
11.2202	499.573
11.285	498.26
11.3501	496.947
11.4156	495.634
11.4815	494.32
11.5478	493.006
11.6145	491.692
11.6815	490.377
11.749	489.062
11.8168	487.747
11.885	486.431
11.9536	485.116
12.0226	483.799
12.0921	482.483
12.1619	481.166
12.2321	479.85
12.3027	478.533
12.3737	477.215
12.4451	475.898
12.517	474.58
12.5893	473.262
12.6619	471.944
12.735	470.625
12.8086	469.306
12.8825	467.987
12.9569	466.668
13.0317	465.348
13.1069	464.029
13.1826	462.709
13.2587	461.388
13.3352	460.067
13.4122	458.746
13.4896	457.425
13.5675	456.116
13.6458	454.809
13.7246	453.501
13.8038	452.194
13.8835	450.886
13.9637	449.578
14.0443	448.27
14.1254	446.962
14.2069	445.654
14.2889	444.347
14.3714	443.039
14.4544	441.731
14.5378	440.424
14.6218	439.117
14.7062	437.81
14.7911	436.504
14.8765	435.198
14.9624	433.892
15.0487	432.587
15.1356	431.282
15.223	429.978
15.3109	428.674
15.3993	427.371
15.4882	426.069
15.5776	424.767
15.6675	423.467
15.758	422.167
15.8489	420.867
15.9404	419.569
16.0325	418.272
16.125	416.975
16.2181	415.68
16.3117	414.385
16.4059	413.092
16.5006	411.799
16.5959	410.508
16.6917	409.218
16.788	407.93
16.885	406.642
16.9824	405.356
17.0805	404.071
17.1791	402.787
17.2783	401.505
17.378	400.224
17.4783	398.944
17.5792	397.666
17.6807	396.39
17.7828	395.115
17.8855	393.841
17.9887	392.569
18.0926	391.295
18.197	390.022
18.3021	388.751
18.4077	387.481
18.514	386.212
18.6209	384.946
18.7284	383.681
18.8365	382.418
18.9452	381.157
19.0546	379.898
19.1646	378.64
19.2752	377.384
19.3865	376.131
19.4984	374.879
19.611	373.629
19.7242	372.381
19.8381	371.135
19.9526	369.891
20.0678	368.649
20.1837	367.409
20.3002	366.171
20.4174	364.935
20.5353	363.701
20.6538	362.469
20.773	361.239
20.893	360.011
21.0136	358.785
21.1349	357.561
21.2569	356.339
21.3796	355.12
21.503	353.902
21.6272	352.686
21.752	351.472
21.8776	350.26
22.0039	349.05
22.1309	347.842
22.2587	346.636
22.3872	345.432
22.5165	344.229
22.6464	343.028
22.7772	341.829
22.9087	340.631
23.0409	339.436
23.1739	338.242
23.3077	337.05
23.4423	335.861
23.5776	334.673
23.7137	333.487
23.8506	332.304
23.9883	331.122
24.1268	329.943
24.2661	328.766
24.4062	327.59
24.5471	326.418
24.6888	325.247
24.8313	324.078
24.9747	322.912
25.1189	321.748
25.2639	320.587
25.4097	319.427
25.5564	318.27
25.704	317.116
25.8523	315.963
26.0016	314.813
26.1517	313.665
26.3027	312.52
26.4545	311.377
26.6073	310.236
26.7609	309.098
26.9153	307.962
27.0707	306.828
27.227	305.694
27.3842	304.564
27.5423	303.435
27.7013	302.31
27.8612	301.186
28.0221	300.065
28.1838	298.947
28.3465	297.831
28.5102	296.718
28.6748	295.607
28.8403	294.499
29.0068	293.394
29.1743	292.291
29.3427	291.192
29.5121	290.095
29.6825	289
29.8538	287.909
30.0262	286.82
30.1995	285.734
30.3739	284.651
30.5492	283.571
30.7256	282.494
30.903	281.42
31.0814	280.348
31.2608	279.28
31.4413	278.214
31.6228	277.151
31.8053	276.091
31.989	275.034
32.1736	273.98
32.3594	272.929
32.5462	271.881
32.7341	270.835
32.923	269.793
33.1131	268.753
33.3043	267.716
33.4965	266.682
33.6899	265.65
33.8844	264.621
34.08	263.595
34.2768	262.572
34.4747	261.551
34.6737	260.533
34.8739	259.517
35.0752	258.504
35.2777	257.493
35.4813	256.484
35.6862	255.478
35.8922	254.474
36.0994	253.475
36.3078	252.481
36.5174	251.49
36.7282	250.501
36.9403	249.514
37.1535	248.529
37.368	247.547
37.5837	246.567
37.8007	245.59
38.0189	244.614
38.2384	243.642
38.4592	242.672
38.6812	241.704
38.9045	240.739
39.1291	239.777
39.355	238.817
39.5822	237.86
39.8107	236.906
40.0405	235.954
40.2717	235.005
40.5042	234.059
40.738	233.116
40.9732	232.175
41.2098	231.237
41.4477	230.303
41.6869	229.371
41.9276	228.441
42.1697	227.515
42.4131	226.592
42.658	225.671
42.9042	224.754
43.1519	223.839
43.401	222.927
43.6516	222.019
43.9036	221.113
44.157	220.21
44.412	219.31
44.6684	218.413
44.9262	217.519
45.1856	216.626
45.4465	215.736
45.7088	214.849
45.9727	213.965
46.2381	213.084
46.505	212.205
46.7735	211.33
47.0435	210.458
47.3151	209.589
47.5883	208.722
47.863	207.859
48.1393	206.999
48.4172	206.142
48.6968	205.288
48.9779	204.436
49.2606	203.588
49.545	202.743
49.831	201.901
50.1187	201.062
50.4081	200.226
50.6991	199.393
50.9918	198.563
51.2861	197.736
51.5822	196.911
51.88	196.09
52.1795	195.271
52.4807	194.456
52.7837	193.643
53.0884	192.833
53.3949	192.025
53.7032	191.22
54.0132	190.418
54.325	189.619
54.6387	188.822
54.9541	188.027
55.2713	187.235
55.5904	186.446
55.9114	185.659
56.2341	184.876
56.5588	184.094
56.8853	183.316
57.2137	182.54
57.544	181.767
57.8762	180.997
58.2103	180.23
58.5464	179.465
58.8844	178.703
59.2243	177.944
59.5662	177.187
59.9101	176.433
60.256	175.682
60.6038	174.934
60.9537	174.189
61.3056	173.446
61.6595	172.706
62.0155	171.968
62.3735	171.234
62.7336	170.502
63.0957	169.772
63.46	169.046
63.8263	168.322
64.1948	167.6
64.5654	166.881
64.9382	166.165
65.3131	165.452
65.6901	164.741
66.0693	164.033
66.4508	163.327
66.8344	162.624
67.2202	161.924
67.6083	161.227
67.9986	160.532
68.3912	159.84
68.786	159.151
69.1831	158.464
69.5825	157.78
69.9842	157.098
70.3882	156.419
70.7946	155.743
71.2033	155.069
71.6143	154.398
72.0278	153.729
72.4436	153.062
72.8618	152.399
73.2825	151.737
73.7055	151.078
74.131	150.422
74.559	149.768
74.9894	149.117
75.4223	148.468
75.8578	147.822
76.2957	147.178
76.7361	146.537
77.1792	145.898
77.6247	145.262
78.0728	144.628
78.5236	143.997
78.9769	143.369
79.4328	142.743
79.8914	142.119
80.3526	141.499
80.8165	140.88
81.2831	140.264
81.7523	139.651
82.2243	139.039
82.699	138.431
83.1764	137.825
83.6566	137.221
84.1395	136.619
84.6253	136.02
85.1138	135.424
85.6052	134.829
86.0994	134.237
86.5964	133.647
87.0964	133.059
87.5992	132.474
88.1049	131.891
88.6135	131.309
89.1251	130.73
89.6396	130.153
90.1571	129.577
90.6776	129.003
91.2011	128.43
91.7276	127.86
92.2571	127.291
92.7897	126.725
93.3254	126.161
93.8642	125.598
94.4061	125.038
94.9511	124.48
95.4993	123.924
96.0506	123.37
96.6051	122.819
97.1628	122.269
97.7237	121.722
98.2879	121.178
98.8553	120.635
99.426	120.095
100	119.557
100.577	119.021
101.158	118.488
101.742	117.957
102.329	117.429
102.92	116.903
103.514	116.379
104.112	115.858
104.713	115.339
105.317	114.823
105.925	114.309
106.537	113.798
107.152	113.289
107.771	112.782
108.393	112.278
109.018	111.777
109.648	111.278
110.281	110.781
110.917	110.287
111.558	109.795
112.202	109.306
112.85	108.819
113.501	108.335
114.156	107.853
114.815	107.373
115.478	106.896
116.145	106.421
116.815	105.949
117.49	105.479
118.168	105.011
118.85	104.545
119.536	104.082
120.226	103.621
120.921	103.162
121.619	102.705
122.321	102.251
123.027	101.798
123.737	101.348
124.451	100.899
125.17	100.452
125.893	100.008
126.619	99.5648
127.35	99.1236
128.086	98.6842
128.825	98.2464
129.569	97.8101
130.317	97.3753
131.069	96.942
131.826	96.51
132.587	96.0792
133.352	95.6496
134.122	95.221
134.896	94.7935
135.675	94.3772
136.458	93.9635
137.246	93.5508
138.038	93.139
138.835	92.7283
139.637	92.3186
140.443	91.91
141.254	91.5024
142.069	91.096
142.889	90.6907
143.714	90.2865
144.544	89.8835
145.378	89.4816
146.218	89.081
147.062	88.6816
147.911	88.2835
148.765	87.8866
149.624	87.491
150.487	87.0967
151.356	86.7038
152.23	86.3122
153.109	85.922
153.993	85.5331
154.882	85.1457
155.776	84.7597
156.675	84.3751
157.58	83.9919
158.489	83.6103
159.404	83.2301
160.325	82.8515
161.25	82.4743
162.181	82.0987
163.117	81.7247
164.059	81.3522
165.006	80.9813
165.959	80.612
166.917	80.2443
167.88	79.8782
168.85	79.5137
169.824	79.1509
170.805	78.7897
171.791	78.4302
172.783	78.0724
173.78	77.7162
174.783	77.3618
175.792	77.009
176.807	76.6579
177.828	76.3085
178.855	75.9608
179.887	75.6148
180.926	75.2688
181.97	74.9243
183.021	74.5815
184.077	74.2403
185.14	73.901
186.209	73.5633
187.284	73.2274
188.365	72.8932
189.452	72.5607
190.546	72.23
191.646	71.901
192.752	71.5737
193.865	71.2482
194.984	70.9243
196.11	70.6022
197.242	70.2818
198.381	69.9631
199.526	69.6461
200.678	69.3308
201.837	69.0171
203.002	68.7051
204.174	68.3948
205.353	68.086
206.538	67.7789
207.73	67.4733
208.93	67.1694
210.136	66.8669
211.349	66.566
212.569	66.2666
213.796	65.9687
215.03	65.6722
216.272	65.377
217.52	65.0833
218.776	64.7909
220.039	64.4998
221.309	64.2099
222.587	63.9213
223.872	63.6338
225.165	63.3475
226.464	63.0621
227.772	62.7778
229.087	62.4946
230.409	62.2126
231.739	61.9316
233.077	61.6518
234.423	61.3731
235.776	61.0955
237.137	60.8191
238.506	60.5438
239.883	60.2697
241.268	59.9967
242.661	59.7249
244.062	59.4542
245.471	59.1848
246.888	58.9165
248.313	58.6493
249.747	58.3834
251.189	58.1186
252.639	57.855
254.097	57.5925
255.564	57.3312
257.04	57.0711
258.523	56.8122
260.016	56.5544
261.517	56.2977
263.027	56.0422
264.545	55.7878
266.073	55.5346
267.609	55.2824
269.153	55.0314
270.707	54.7812
272.27	54.5318
273.842	54.2836
275.423	54.0364
277.013	53.7903
278.612	53.5454
280.221	53.3016
281.838	53.0589
283.465	52.8173
285.102	52.5769
286.748	52.3377
288.403	52.0996
290.068	51.8627
291.743	51.6269
293.427	51.3923
295.121	51.1589
296.825	50.9267
298.538	50.6956
300.262	50.4657
301.995	50.237
303.739	50.0095
305.492	49.7831
307.256	49.5579
309.03	49.3339
310.814	49.111
312.608	48.8893
314.413	48.6688
316.228	48.4494
318.053	48.2312
319.89	48.0141
321.736	47.7981
323.594	47.5832
325.462	47.3694
327.341	47.1568
329.23	46.9452
331.131	46.7346
333.043	46.5252
334.965	46.3167
336.899	46.1093
338.844	45.9029
340.8	45.6974
342.768	45.4929
344.747	45.2893
346.737	45.0867
348.739	44.8849
350.752	44.684
352.777	44.4839
354.813	44.2846
356.862	44.0861
358.922	43.8883
360.994	43.692
363.078	43.4974
365.174	43.3034
367.282	43.1101
369.403	42.9176
371.535	42.7257
373.68	42.5347
375.837	42.3443
378.007	42.1547
380.189	41.9659
382.384	41.7778
384.592	41.5905
386.812	41.404
389.045	41.2182
391.291	41.0332
393.55	40.8491
395.822	40.6657
398.107	40.4832
400.405	40.3014
402.717	40.1205
405.042	39.9403
407.38	39.761
409.732	39.5826
412.098	39.4049
414.477	39.2281
416.869	39.0521
419.276	38.8769
421.697	38.7026
424.131	38.5291
426.58	38.3565
429.042	38.1846
431.519	38.0137
434.01	37.8435
436.516	37.6742
439.036	37.5057
441.57	37.338
444.12	37.1711
446.684	37.0051
449.262	36.8398
451.856	36.6751
454.465	36.5111
457.088	36.3479
459.727	36.1854
462.381	36.0238
465.05	35.863
467.735	35.7031
470.435	35.5439
473.151	35.3855
475.883	35.2279
478.63	35.0712
481.393	34.9153
484.172	34.7601
486.968	34.6058
489.779	34.4522
492.606	34.2995
495.45	34.1475
498.31	33.9963
501.187	33.8459
504.081	33.6963
506.991	33.5475
509.918	33.3993
512.861	33.252
515.822	33.1054
518.8	32.9595
521.795	32.8143
524.807	32.6698
527.837	32.5261
530.884	32.383
533.949	32.2405
537.032	32.0988
540.132	31.9576
543.25	31.8171
546.387	31.6771
549.541	31.5378
552.713	31.3992
555.904	31.2611
559.114	31.1237
562.341	30.9869
565.588	30.8508
568.853	30.7153
572.137	30.5804
575.44	30.4462
578.762	30.3126
582.103	30.1797
585.464	30.0474
588.844	29.9157
592.243	29.7847
595.662	29.6543
599.101	29.5246
602.56	29.3955
606.038	29.267
609.537	29.1391
613.056	29.0119
616.595	28.8853
620.155	28.7593
623.735	28.6339
627.336	28.5091
630.957	28.3849
634.6	28.2613
638.263	28.1383
641.948	28.0159
645.654	27.8941
649.382	27.7729
653.131	27.6523
656.901	27.5322
660.693	27.4128
664.508	27.294
668.344	27.1757
672.202	27.0581
676.083	26.941
679.986	26.8245
683.912	26.7086
687.86	26.5932
691.831	26.4785
695.825	26.3643
699.842	26.2507
703.882	26.1376
707.946	26.0251
712.033	25.9131
716.143	25.8016
720.278	25.6907
724.436	25.5803
728.618	25.4705
732.825	25.3611
737.055	25.2523
741.31	25.144
745.59	25.0363
749.894	24.929
754.223	24.8223
758.578	24.7162
762.957	24.6105
767.361	24.5054
771.792	24.4008
776.247	24.2968
780.728	24.1932
785.236	24.0902
789.769	23.9877
794.328	23.8858
798.914	23.7843
803.526	23.6833
808.165	23.5829
812.831	23.483
817.523	23.3835
822.243	23.2846
826.99	23.1861
831.764	23.0882
836.566	22.9907
841.395	22.8937
846.253	22.7971
851.138	22.7011
856.052	22.6055
860.994	22.5104
865.964	22.4157
870.964	22.3214
875.992	22.2276
881.049	22.1342
886.135	22.0413
891.251	21.9487
896.396	21.8565
901.571	21.7647
906.776	21.6731
912.011	21.5818
917.276	21.491
922.571	21.4005
927.897	21.3105
933.254	21.2208
938.642	21.1316
944.061	21.0427
949.511	20.9543
954.993	20.8663
960.506	20.7787
966.051	20.6915
971.628	20.6047
977.237	20.5184
982.879	20.4325
988.553	20.3471
994.26	20.2621
1000	20.1775
1005.77	20.0934
1011.58	20.0098
1017.42	19.9266
1023.29	19.8438
1029.2	19.7615
1035.14	19.6797
1041.12	19.5983
1047.13	19.5174
1053.17	19.4369
1059.25	19.3569
1065.37	19.2774
1071.52	19.1983
1077.71	19.1197
1083.93	19.0416
1090.18	18.9639
1096.48	18.8867
1102.81	18.81
1109.17	18.7337
1115.58	18.6579
1122.02	18.5825
1128.5	18.5076
1135.01	18.4332
1141.56	18.3592
1148.15	18.2856
1154.78	18.2125
1161.45	18.1399
1168.15	18.0677
1174.9	17.9959
1181.68	17.9245
1188.5	17.8536
1195.36	17.7831
1202.26	17.713
1209.21	17.6433
1216.19	17.574
1223.21	17.5051
1230.27	17.4366
1237.37	17.3685
1244.51	17.3007
1251.7	17.2333
1258.93	17.1662
1266.19	17.0995
1273.5	17.0331
1280.86	16.967
1288.25	16.9012
1295.69	16.8309
1303.17	16.7604
1310.69	16.6902
1318.26	16.6204
1325.87	16.5508
1333.52	16.4814
1341.22	16.4124
1348.96	16.3435
1356.75	16.2766
1364.58	16.2102
1372.46	16.1441
1380.38	16.0782
1388.35	16.0125
1396.37	15.947
1404.43	15.8818
1412.54	15.8168
1420.69	15.752
1428.89	15.6875
1437.14	15.6232
1445.44	15.5592
1453.78	15.4954
1462.18	15.4319
1470.62	15.3687
1479.11	15.3057
1487.65	15.243
1496.24	15.1805
1504.87	15.1183
1513.56	15.0564
1522.3	14.9947
1531.09	14.9334
1539.93	14.8723
1548.82	14.8115
1557.76	14.751
1566.75	14.6907
1575.8	14.6308
1584.89	14.5712
1594.04	14.5118
1603.25	14.4528
1612.5	14.394
1621.81	14.3355
1631.17	14.2774
1640.59	14.2195
1650.06	14.162
1659.59	14.1048
1669.17	14.0479
1678.8	13.9912
1688.5	13.935
1698.24	13.879
1708.05	13.8233
1717.91	13.768
1727.83	13.7129
1737.8	13.6582
1747.83	13.6038
1757.92	13.5498
1768.07	13.496
1778.28	13.4426
1788.55	13.3895
1798.87	13.3367
1809.26	13.284
1819.7	13.2316
1830.21	13.1794
1840.77	13.1276
1851.4	13.0761
1862.09	13.025
1872.84	12.9742
1883.65	12.9237
1894.52	12.8735
1905.46	12.8236
1916.46	12.7741
1927.52	12.7248
1938.65	12.6759
1949.84	12.6273
1961.1	12.5791
1972.42	12.5311
1983.81	12.4835
1995.26	12.4362
2006.78	12.3892
2018.37	12.3425
2030.02	12.2961
2041.74	12.25
2053.53	12.2042
2065.38	12.1587
2077.3	12.1135
2089.3	12.0685
2101.36	12.0239
2113.49	11.9796
2125.69	11.9355
2137.96	11.8917
2150.3	11.8481
2162.72	11.8048
2175.2	11.7618
2187.76	11.719
2200.39	11.6765
2213.09	11.6342
2225.87	11.5921
2238.72	11.5502
2251.65	11.5086
2264.64	11.4671
2277.72	11.4259
2290.87	11.3848
2304.09	11.344
2317.39	11.3034
2330.77	11.2629
2344.23	11.2227
2357.76	11.1827
2371.37	11.1429
2385.06	11.1033
2398.83	11.064
2412.68	11.0248
2426.61	10.9859
2440.62	10.9471
2454.71	10.9086
2468.88	10.8703
2483.13	10.8322
2497.47	10.7943
2511.89	10.7567
2526.39	10.7192
2540.97	10.682
2555.64	10.6449
2570.4	10.6081
2585.23	10.5715
2600.16	10.535
2615.17	10.4988
2630.27	10.4628
2645.45	10.427
2660.73	10.3914
2676.09	10.356
2691.53	10.3208
2707.07	10.2858
2722.7	10.2509
2738.42	10.2162
2754.23	10.1816
2770.13	10.1473
2786.12	10.1132
2802.21	10.0793
2818.38	10.0456
2834.65	10.012
2851.02	9.97872
2867.48	9.9456
2884.03	9.91268
2900.68	9.87997
2917.43	9.84745
2934.27	9.81514
2951.21	9.78303
2968.25	9.75112
2985.38	9.71942
3002.62	9.68792
3019.95	9.65662
3037.39	9.62553
3054.92	9.59463
3072.56	9.56394
3090.3	9.53345
3108.14	9.50316
3126.08	9.47307
3144.13	9.44317
3162.28	9.41347
3180.53	9.38397
3198.9	9.35467
3217.36	9.32555
3235.94	9.29663
3254.62	9.26789
3273.41	9.23934
3292.3	9.21098
3311.31	9.1828
3330.43	9.1548
3349.65	9.12698
3368.99	9.09933
3388.44	9.07185
3408	9.04454
3427.68	9.01739
3447.47	8.99041
3467.37	8.96358
3487.39	8.9369
3507.52	8.91038
3527.77	8.88399
3548.13	8.85775
3568.62	8.83164
3589.22	8.80565
3609.94	8.77991
3630.78	8.75443
3651.74	8.72907
3672.82	8.70383
3694.03	8.67872
3715.35	8.65374
3736.8	8.62888
3758.37	8.60415
3780.07	8.57955
3801.89	8.55508
3823.84	8.53074
3845.92	8.50654
3868.12	8.48246
3890.45	8.45852
3912.91	8.43472
3935.5	8.41105
3958.22	8.38751
3981.07	8.36411
4004.05	8.34085
4027.17	8.31773
4050.42	8.29474
4073.8	8.27189
4097.32	8.24918
4120.98	8.2266
4144.77	8.20417
4168.69	8.18188
4192.76	8.15972
4216.97	8.1377
4241.31	8.11582
4265.8	8.09409
4290.42	8.07248
4315.19	8.05102
4340.1	8.0297
4365.16	8.00851
4390.36	7.98746
4415.7	7.96654
4441.2	7.94576
4466.84	7.92512
4492.62	7.90461
4518.56	7.88419
4544.65	7.86389
4570.88	7.84372
4597.27	7.82368
4623.81	7.80378
4650.5	7.78401
4677.35	7.76437
4704.35	7.74486
4731.51	7.72549
4758.83	7.70625
4786.3	7.68714
4813.93	7.66816
4841.72	7.64932
4869.68	7.6306
4897.79	7.61201
4926.06	7.59356
4954.5	7.57523
4983.1	7.55703
5011.87	7.53896
5040.81	7.52101
5069.91	7.50319
5099.18	7.48548
5128.61	7.46791
5158.22	7.45045
5188	7.43311
5217.95	7.41588
5248.07	7.39877
5278.37	7.38178
5308.84	7.36489
5339.49	7.34812
5370.32	7.33145
5401.32	7.31488
5432.5	7.29842
5463.87	7.28205
5495.41	7.26579
5527.13	7.24963
5559.04	7.23357
5591.14	7.21762
5623.41	7.20176
5655.88	7.18602
5688.53	7.17037
5721.37	7.15483
5754.4	7.13939
5787.62	7.12406
5821.03	7.10883
5854.64	7.0937
5888.44	7.07867
5922.43	7.06375
5956.62	7.04893
5991.01	7.03422
6025.6	7.0196
6060.38	7.00509
6095.37	6.99068
6130.56	6.97636
6165.95	6.96215
6201.55	6.94803
6237.35	6.93402
6273.36	6.92009
6309.57	6.90627
6346	6.89254
6382.63	6.8789
6419.48	6.86536
6456.54	6.85191
6493.82	6.83856
6531.31	6.82531
6569.01	6.81214
6606.93	6.79908
6645.08	6.7861
6683.44	6.77322
6722.02	6.76044
6760.83	6.74775
6799.86	6.73515
6839.12	6.72264
6878.6	6.71022
6918.31	6.6979
6958.25	6.68567
6998.42	6.67352
7038.82	6.66146
7079.46	6.64949
7120.33	6.63761
7161.43	6.62582
7202.78	6.6141
7244.36	6.60247
7286.18	6.59093
7328.25	6.57946
7370.55	6.56808
7413.1	6.55678
7455.9	6.54557
7498.94	6.53443
7542.23	6.52338
7585.78	6.51241
7629.57	6.50152
7673.61	6.49072
7717.92	6.47999
7762.47	6.46934
7807.28	6.45877
7852.36	6.44828
7897.69	6.43787
7943.28	6.42753
7989.14	6.41727
8035.26	6.40709
8081.65	6.39698
8128.31	6.38694
8175.23	6.37697
8222.43	6.36707
8269.9	6.35724
8317.64	6.34748
8365.66	6.33779
8413.95	6.32816
8462.53	6.31859
8511.38	6.30908
8560.52	6.29964
8609.94	6.29024
8659.64	6.28091
8709.64	6.27163
8759.92	6.26239
8810.49	6.25321
8861.35	6.24407
8912.51	6.23498
8963.96	6.22592
9015.71	6.21682
9067.76	6.20758
9120.11	6.19841
9172.76	6.18931
9225.71	6.18028
9278.97	6.17132
9332.54	6.16244
9386.42	6.15361
9440.61	6.14486
9495.11	6.13618
9549.93	6.12756
9605.06	6.11901
9660.51	6.11053
9716.28	6.10211
9772.37	6.09376
9828.79	6.08548
9885.53	6.07726
9942.6	6.0691
10000	6.06101
10057.7	6.05299
10115.8	6.04503
10174.2	6.03713
10232.9	6.02929
10292	6.02152
10351.4	6.01381
10411.2	6.00616
10471.3	5.99858
10531.7	5.99106
10592.5	5.98359
10653.7	5.97619
10715.2	5.96885
10777.1	5.96157
10839.3	5.95435
10901.8	5.94718
10964.8	5.94008
11028.1	5.93304
11091.7	5.92605
11155.8	5.91912
11220.2	5.91225
11285	5.90544
11350.1	5.89869
11415.6	5.89199
11481.5	5.88535
11547.8	5.87876
11614.5	5.87223
11681.5	5.86575
11749	5.85934
11816.8	5.85297
11885	5.84666
11953.6	5.8404
12022.6	5.8342
12092.1	5.82805
12161.9	5.82196
12232.1	5.81592
12302.7	5.80993
12373.7	5.80399
12445.1	5.79811
12517	5.79227
12589.3	5.78649
12661.9	5.78076
12735	5.77508
12808.6	5.76946
12882.5	5.76388
12956.9	5.75835
13031.7	5.75287
13106.9	5.74744
13182.6	5.74206
13258.7	5.73673
13335.2	5.73145
13412.2	5.72621
13489.6	5.72103
13567.5	5.71589
13645.8	5.7108
13724.6	5.70575
13803.8	5.70075
13883.5	5.6958
13963.7	5.6909
14044.3	5.68604
14125.4	5.68123
14206.9	5.67646
14288.9	5.67174
14371.4	5.66706
14454.4	5.66243
14537.8	5.65784
14621.8	5.6533
14706.2	5.6488
14791.1	5.64434
14876.5	5.63993
14962.4	5.63556
15048.7	5.63123
15135.6	5.62695
15223	5.6227
15310.9	5.6185
15399.3	5.61434
15488.2	5.61023
15577.6	5.60615
15667.5	5.60212
15758	5.59812
15848.9	5.59417
15940.4	5.59025
16032.5	5.58638
16125	5.58255
16218.1	5.57875
16311.7	5.575
16405.9	5.57128
16500.6	5.5676
16595.9	5.56396
16691.7	5.56036
16788	5.5568
16885	5.55327
16982.4	5.54979
17080.5	5.54634
17179.1	5.54292
17278.3	5.53955
17378	5.53621
17478.3	5.5329
17579.2	5.52964
17680.7	5.52641
17782.8	5.52321
17885.5	5.52005
17988.7	5.51692
18092.6	5.51383
18197	5.51078
18302.1	5.50776
18407.7	5.50477
18514	5.50182
18620.9	5.4989
18728.4	5.49601
18836.5	5.49316
18945.2	5.49034
19054.6	5.48756
19164.6	5.4848
19275.2	5.48208
19386.5	5.4794
19498.4	5.47674
19611	5.47412
19724.2	5.47152
19838.1	5.46896
19952.6	5.46643
20067.8	5.46393
20183.7	5.46146
20300.2	5.45903
20417.4	5.45662
20535.3	5.45424
20653.8	5.45189
20773	5.44958
20893	5.44729
21013.6	5.44503
21134.9	5.4428
21256.9	5.4406
21379.6	5.43843
21503	5.43629
21627.2	5.43417
21752	5.43208
21877.6	5.43003
22003.9	5.42799
22130.9	5.42599
22258.7	5.42402
22387.2	5.42207
22516.5	5.42014
22646.4	5.41825
22777.2	5.41638
22908.7	5.41454
23040.9	5.41272
23173.9	5.41093
23307.7	5.40917
23442.3	5.40743
23577.6	5.40572
23713.7	5.40403
23850.6	5.40237
23988.3	5.40073
24126.8	5.39912
24266.1	5.39753
24406.2	5.39596
24547.1	5.39442
24688.8	5.39291
24831.3	5.39142
24974.7	5.38995
25118.9	5.3885
25263.9	5.38708
25409.7	5.38568
25556.4	5.38431
25704	5.38295
25852.3	5.38162
26001.6	5.38032
26151.7	5.37903
26302.7	5.37777
26454.5	5.37652
26607.3	5.37531
26760.9	5.37411
26915.3	5.37293
27070.7	5.37177
27227	5.37064
27384.2	5.36953
27542.3	5.36843
27701.3	5.36736
27861.2	5.36631
28022.1	5.36528
28183.8	5.36427
28346.5	5.36328
28510.2	5.3623
28674.8	5.36135
28840.3	5.36042
29006.8	5.35951
29174.3	5.35861
29342.7	5.35774
29512.1	5.35688
29682.5	5.35605
29853.8	5.35523
30026.2	5.35443
30199.5	5.35364
30373.9	5.35288
30549.2	5.35213
30725.6	5.35141
30903	5.3507
31081.4	5.35
31260.8	5.34933
31441.3	5.34867
31622.8	5.34803
31805.3	5.3474
31989	5.3468
32173.6	5.3462
32359.4	5.34563
32546.2	5.34507
32734.1	5.34453
32923	5.34401
33113.1	5.3435
33304.3	5.343
33496.5	5.34252
33689.9	5.34206
33884.4	5.34161
34080	5.34118
34276.8	5.34076
34474.7	5.34036
34673.7	5.33998
34873.9	5.3396
35075.2	5.33925
35277.7	5.3389
35481.3	5.33857
35686.2	5.33826
35892.2	5.33796
36099.4	5.33767
36307.8	5.3374
36517.4	5.33714
36728.2	5.3369
36940.3	5.33666
37153.5	5.33645
37368	5.33624
37583.7	5.33605
37800.7	5.33587
38018.9	5.3357
38238.4	5.33555
38459.2	5.33541
38681.2	5.33528
38904.5	5.33516
39129.1	5.33506
39355	5.33497
39582.2	5.33489
39810.7	5.33482
40040.5	5.33477
40271.7	5.33472
40504.2	5.33469
40738	5.33467
40973.2	5.33466
41209.8	5.33466
41447.7	5.33467
41686.9	5.3347
41927.6	5.33473
42169.7	5.33478
42413.1	5.33483
42658	5.3349
42904.2	5.33498
43151.9	5.33506
43401	5.33516
43651.6	5.33527
43903.6	5.33539
44157	5.33552
44412	5.33565
44668.4	5.3358
44926.2	5.33596
45185.6	5.33612
45446.5	5.3363
45708.8	5.33649
45972.7	5.33668
46238.1	5.33689
46505	5.3371
46773.5	5.33732
47043.5	5.33755
47315.1	5.33779
47588.3	5.33804
47863	5.3383
48139.3	5.33856
48417.2	5.33884
48696.8	5.33912
48977.9	5.33941
49260.6	5.33971
49545	5.34001
49831	5.34033
50118.7	5.34065
50408.1	5.34098
50699.1	5.34132
50991.8	5.34166
51286.1	5.34202
51582.2	5.34238
51880	5.34274
52179.5	5.34312
52480.7	5.3435
52783.7	5.34389
53088.4	5.34428
53394.9	5.34469
53703.2	5.3451
54013.2	5.34551
54325	5.34594
54638.7	5.34637
54954.1	5.3468
55271.3	5.34724
55590.4	5.34769
55911.4	5.34815
56234.1	5.34861
56558.8	5.34908
56885.3	5.34955
57213.7	5.35003
57544	5.35052
57876.2	5.35101
58210.3	5.3515
58546.4	5.35201
58884.4	5.35251
59224.3	5.35303
59566.2	5.35355
59910.1	5.35407
60256	5.3546
60603.8	5.35513
60953.7	5.35567
61305.6	5.35622
61659.5	5.35677
62015.5	5.35732
62373.5	5.35788
62733.6	5.35845
63095.7	5.35902
63460	5.35959
63826.3	5.36017
64194.8	5.36075
64565.4	5.36134
64938.2	5.36193
65313.1	5.36253
65690.1	5.36313
66069.3	5.36373
66450.8	5.36434
66834.4	5.36496
67220.2	5.36557
67608.3	5.36619
67998.6	5.36682
68391.2	5.36745
68786	5.36808
69183.1	5.36872
69582.5	5.36936
69984.2	5.37
70388.2	5.37065
70794.6	5.3713
71203.3	5.37195
71614.3	5.37261
72027.8	5.37327
72443.6	5.37393
72861.8	5.3746
73282.5	5.37527
73705.5	5.37594
74131	5.37662
74559	5.3773
74989.4	5.37798
75422.3	5.37866
75857.8	5.37935
76295.7	5.38004
76736.1	5.38074
77179.2	5.38143
77624.7	5.38213
78072.8	5.38283
78523.6	5.38354
78976.9	5.38424
79432.8	5.38495
79891.4	5.38566
80352.6	5.38637
80816.5	5.38709
81283.1	5.38781
81752.3	5.38853
82224.3	5.38925
82699	5.38997
83176.4	5.3907
83656.6	5.39143
84139.5	5.39216
84625.3	5.39289
85113.8	5.39362
85605.2	5.39436
86099.4	5.3951
86596.4	5.39584
87096.4	5.39658
87599.2	5.39732
88104.9	5.39806
88613.5	5.39881
89125.1	5.39956
89639.6	5.4003
90157.1	5.40105
90677.6	5.4018
91201.1	5.40256
91727.6	5.40331
92257.1	5.40407
92789.7	5.40482
93325.4	5.40558
93864.2	5.40634
94406.1	5.4071
94951.1	5.40786
95499.3	5.40862
96050.6	5.40939
96605.1	5.41015
97162.8	5.41091
97723.7	5.41168
98287.9	5.41245
98855.3	5.41321
99426	5.41398
100000	5.41475
100577	5.41552
101158	5.41629
101742	5.41706
102329	5.41784
102920	5.41861
103514	5.41938
104112	5.42015
104713	5.42093
105317	5.4217
105925	5.42248
106537	5.42325
107152	5.42403
107771	5.4248
108393	5.42558
109018	5.42636
109648	5.42713
110281	5.42791
110917	5.42869
111558	5.42946
112202	5.43024
112850	5.43102
113501	5.4318
114156	5.43257
114815	5.43335
115478	5.43413
116145	5.43491
116815	5.43568
117490	5.43646
118168	5.43724
118850	5.43802
119536	5.43879
120226	5.43957
120921	5.44035
121619	5.44112
122321	5.4419
123027	5.44267
123737	5.44345
124451	5.44422
125170	5.445
125893	5.44577
126619	5.44655
127350	5.44732
128086	5.44809
128825	5.44887
129569	5.44964
130317	5.45041
131069	5.45118
131826	5.45195
132587	5.45272
133352	5.45349
134122	5.45426
134896	5.45503
135675	5.45579
136458	5.45656
137246	5.45732
138038	5.45809
138835	5.45885
139637	5.45962
140443	5.46038
141254	5.46114
142069	5.4619
142889	5.46266
143714	5.46342
144544	5.46418
145378	5.46494
146218	5.4657
147062	5.46645
147911	5.46721
148765	5.46796
149624	5.46871
150487	5.46947
151356	5.47022
152230	5.47097
153109	5.47171
153993	5.47246
154882	5.47321
155776	5.47395
156675	5.4747
157580	5.47544
158489	5.47618
159404	5.47693
160325	5.47767
161250	5.4784
162181	5.47914
163117	5.47988
164059	5.48061
165006	5.48135
165959	5.48208
166917	5.48281
167880	5.48354
168850	5.48427
169824	5.485
170805	5.48572
171791	5.48645
172783	5.48717
173780	5.48789
174783	5.48861
175792	5.48933
176807	5.49005
177828	5.49077
178855	5.49148
179887	5.4922
180926	5.49291
181970	5.49362
183021	5.49433
184077	5.49504
185140	5.49574
186209	5.49645
187284	5.49715
188365	5.49785
189452	5.49855
190546	5.49925
191646	5.49995
192752	5.50065
193865	5.50134
194984	5.50203
196110	5.50273
197242	5.50342
198381	5.5041
199526	5.50479
200678	5.50547
201837	5.50616
203002	5.50684
204174	5.50752
205353	5.5082
206538	5.50887
207730	5.50955
208930	5.51022
210136	5.51089
211349	5.51156
212569	5.51223
213796	5.5129
215030	5.51356
216272	5.51423
217520	5.51489
218776	5.51555
220039	5.51621
221309	5.51686
222587	5.51752
223872	5.51817
225165	5.51882
226464	5.51947
227772	5.52012
229087	5.52077
230409	5.52141
231739	5.52205
233077	5.52269
234423	5.52333
235776	5.52397
237137	5.5246
238506	5.52524
239883	5.52587
241268	5.5265
242661	5.52713
244062	5.52775
245471	5.52838
246888	5.529
248313	5.52962
249747	5.53024
251189	5.53086
252639	5.53147
254097	5.53209
255564	5.5327
257040	5.53331
258523	5.53392
260016	5.53452
261517	5.53513
263027	5.53573
264545	5.53633
266073	5.53693
267609	5.53752
269153	5.53812
270707	5.53871
272270	5.5393
273842	5.53989
275423	5.54048
277013	5.54106
278612	5.54165
280221	5.54223
281838	5.54281
283465	5.54339
285102	5.54396
286748	5.54454
288403	5.54511
290068	5.54568
291743	5.54625
293427	5.54681
295121	5.54738
296825	5.54794
298538	5.5485
300262	5.54906
301995	5.54961
303739	5.55017
305492	5.55072
307256	5.55127
309030	5.55182
310814	5.55237
312608	5.55291
314413	5.55346
316228	5.554
318053	5.55454
319890	5.55508
321736	5.55561
323594	5.55614
325462	5.55668
327341	5.55721
329230	5.55773
331131	5.55826
333043	5.55878
334965	5.55931
336899	5.55983
338844	5.56034
340800	5.56086
342768	5.56137
344747	5.56189
346737	5.5624
348739	5.56291
350752	5.56341
352777	5.56392
354813	5.56442
356862	5.56492
358922	5.56542
360994	5.56591
363078	5.56641
365174	5.5669
367282	5.56739
369403	5.56788
371535	5.56837
373680	5.56886
375837	5.56934
378007	5.56982
380189	5.5703
382384	5.57078
384592	5.57125
386812	5.57173
389045	5.5722
391291	5.57267
393550	5.57314
395822	5.5736
398107	5.57407
400405	5.57453
402717	5.57499
405042	5.57545
407380	5.5759
409732	5.57636
412098	5.57681
414477	5.57726
416869	5.57771
419276	5.57816
421697	5.5786
424131	5.57904
426580	5.57949
429042	5.57992
431519	5.58036
434010	5.5808
436516	5.58123
439036	5.58166
441570	5.58209
444120	5.58252
446684	5.58295
449262	5.58337
451856	5.58379
454465	5.58421
457088	5.58463
459727	5.58505
462381	5.58546
465050	5.58588
467735	5.58629
470435	5.5867
473151	5.5871
475883	5.58751
478630	5.58791
481393	5.58832
484172	5.58872
486968	5.58911
489779	5.58951
492606	5.5899
495450	5.5903
498310	5.59069
501187	5.59108
504081	5.59146
506991	5.59185
509918	5.59223
512861	5.59261
515822	5.59299
518800	5.59337
521795	5.59375
524807	5.59412
527837	5.59449
530884	5.59487
533949	5.59523
537032	5.5956
540132	5.59597
543250	5.59633
546387	5.59669
549541	5.59705
552713	5.59741
555904	5.59777
559114	5.59812
562341	5.59847
565588	5.59883
568853	5.59918
572137	5.59952
575440	5.59987
578762	5.60021
582103	5.60056
585464	5.6009
588844	5.60123
592243	5.60157
595662	5.60191
599101	5.60224
602560	5.60257
606038	5.6029
609537	5.60323
613056	5.60356
616595	5.60388
620155	5.60421
623735	5.60453
627336	5.60485
630957	5.60517
634600	5.60548
638263	5.6058
641948	5.60611
645654	5.60642
649382	5.60673
653131	5.60704
656901	5.60735
660693	5.60765
664508	5.60795
668344	5.60826
672202	5.60856
676083	5.60885
679986	5.60915
683912	5.60945
687860	5.60974
691831	5.61003
695825	5.61032
699842	5.61061
703882	5.61089
707946	5.61118
712033	5.61146
716143	5.61174
720278	5.61203
724436	5.6123
728618	5.61258
732825	5.61286
737055	5.61313
741310	5.6134
745590	5.61367
749894	5.61394
754223	5.61421
758578	5.61448
762957	5.61474
767361	5.615
771792	5.61526
776247	5.61552
780728	5.61578
785236	5.61604
789769	5.61629
794328	5.61655
798914	5.6168
803526	5.61705
808165	5.6173
812831	5.61754
817523	5.61779
822243	5.61803
826990	5.61828
831764	5.61852
836566	5.61876
841395	5.619
846253	5.61923
851138	5.61947
856052	5.6197
860994	5.61994
865964	5.62017
870964	5.6204
875992	5.62062
881049	5.62085
886135	5.62108
891251	5.6213
896396	5.62152
901571	5.62174
906776	5.62196
912011	5.62218
917276	5.6224
922571	5.62261
927897	5.62282
933254	5.62304
938642	5.62325
944061	5.62346
949511	5.62367
954993	5.62387
960506	5.62408
966051	5.62428
971628	5.62448
977237	5.62468
982879	5.62488
988553	5.62508
994260	5.62528
1e+06	5.62547
1.00577e+06	5.62567
1.01158e+06	5.62586
1.01742e+06	5.62605
1.02329e+06	5.62624
1.0292e+06	5.62643
1.03514e+06	5.62662
1.04112e+06	5.62681
1.04713e+06	5.62699
1.05317e+06	5.62718
1.05925e+06	5.62736
1.06537e+06	5.62754
1.07152e+06	5.62772
1.07771e+06	5.6279
1.08393e+06	5.62807
1.09018e+06	5.62825
1.09648e+06	5.62842
1.10281e+06	5.6286
1.10917e+06	5.62877
1.11558e+06	5.62894
1.12202e+06	5.62911
1.1285e+06	5.62928
1.13501e+06	5.62944
1.14156e+06	5.62961
1.14815e+06	5.62978
1.15478e+06	5.62994
1.16145e+06	5.6301
1.16815e+06	5.63026
1.1749e+06	5.63042
1.18168e+06	5.63058
1.1885e+06	5.63074
1.19536e+06	5.63089
1.20226e+06	5.63105
1.20921e+06	5.6312
1.21619e+06	5.63135
1.22321e+06	5.6315
1.23027e+06	5.63165
1.23737e+06	5.6318
1.24451e+06	5.63195
1.2517e+06	5.6321
1.25893e+06	5.63224
1.26619e+06	5.63239
1.2735e+06	5.63253
1.28086e+06	5.63267
1.28825e+06	5.63281
1.29569e+06	5.63295
1.30317e+06	5.63309
1.31069e+06	5.63323
1.31826e+06	5.63336
1.32587e+06	5.6335
1.33352e+06	5.63363
1.34122e+06	5.63376
1.34896e+06	5.6339
1.35675e+06	5.63403
1.36458e+06	5.63416
1.37246e+06	5.63428
1.38038e+06	5.63441
1.38835e+06	5.63454
1.39637e+06	5.63466
1.40443e+06	5.63479
1.41254e+06	5.63491
1.42069e+06	5.63503
1.42889e+06	5.63515
1.43714e+06	5.63527
1.44544e+06	5.63539
1.45378e+06	5.63551
1.46218e+06	5.63562
1.47062e+06	5.63574
1.47911e+06	5.63585
1.48765e+06	5.63597
1.49624e+06	5.63608
1.50487e+06	5.63619
1.51356e+06	5.6363
1.5223e+06	5.63641
1.53109e+06	5.63652
1.53993e+06	5.63663
1.54882e+06	5.63673
1.55776e+06	5.63684
1.56675e+06	5.63694
1.5758e+06	5.63705
1.58489e+06	5.63715
1.59404e+06	5.63725
1.60325e+06	5.63735
1.6125e+06	5.63745
1.62181e+06	5.63755
1.63117e+06	5.63765
1.64059e+06	5.63775
1.65006e+06	5.63784
1.65959e+06	5.63794
1.66917e+06	5.63803
1.6788e+06	5.63812
1.6885e+06	5.63822
1.69824e+06	5.63831
1.70805e+06	5.6384
1.71791e+06	5.63849
1.72783e+06	5.63858
1.7378e+06	5.63866
1.74783e+06	5.63875
1.75792e+06	5.63884
1.76807e+06	5.63892
1.77828e+06	5.63901
1.78855e+06	5.63909
1.79887e+06	5.63917
1.80926e+06	5.63925
1.8197e+06	5.63933
1.83021e+06	5.63941
1.84077e+06	5.63949
1.8514e+06	5.63957
1.86209e+06	5.63965
1.87284e+06	5.63973
1.88365e+06	5.6398
1.89452e+06	5.63988
1.90546e+06	5.63995
1.91646e+06	5.64002
1.92752e+06	5.6401
1.93865e+06	5.64017
1.94984e+06	5.64024
1.9611e+06	5.64031
1.97242e+06	5.64038
1.98381e+06	5.64045
1.99526e+06	5.64051
2.00678e+06	5.64058
2.01837e+06	5.64065
2.03002e+06	5.64071
2.04174e+06	5.64078
2.05353e+06	5.64084
2.06538e+06	5.6409
2.0773e+06	5.64097
2.0893e+06	5.64103
2.10136e+06	5.64109
2.11349e+06	5.64115
2.12569e+06	5.64121
2.13796e+06	5.64127
2.1503e+06	5.64133
2.16272e+06	5.64138
2.1752e+06	5.64144
2.18776e+06	5.6415
2.20039e+06	5.64155
2.21309e+06	5.6416
2.22587e+06	5.64166
2.23872e+06	5.64171
2.25165e+06	5.64176
2.26464e+06	5.64182
2.27772e+06	5.64187
2.29087e+06	5.64192
2.30409e+06	5.64197
2.31739e+06	5.64202
2.33077e+06	5.64206
2.34423e+06	5.64211
2.35776e+06	5.64216
2.37137e+06	5.64221
2.38506e+06	5.64225
2.39883e+06	5.6423
2.41268e+06	5.64234
2.42661e+06	5.64239
2.44062e+06	5.64243
2.45471e+06	5.64247
2.46888e+06	5.64252
2.48313e+06	5.64256
2.49747e+06	5.6426
2.51189e+06	5.64264
2.52639e+06	5.64268
2.54097e+06	5.64272
2.55564e+06	5.64276
2.5704e+06	5.64279
2.58523e+06	5.64283
2.60016e+06	5.64287
2.61517e+06	5.64291
2.63027e+06	5.64294
2.64545e+06	5.64298
2.66073e+06	5.64301
2.67609e+06	5.64305
2.69153e+06	5.64308
2.70707e+06	5.64311
2.7227e+06	5.64315
2.73842e+06	5.64318
2.75423e+06	5.64321
2.77013e+06	5.64324
2.78612e+06	5.64327
2.80221e+06	5.6433
2.81838e+06	5.64333
2.83465e+06	5.64336
2.85102e+06	5.64339
2.86748e+06	5.64342
2.88403e+06	5.64344
2.90068e+06	5.64347
2.91743e+06	5.6435
2.93427e+06	5.64352
2.95121e+06	5.64355
2.96825e+06	5.64357
2.98538e+06	5.6436
3.00262e+06	5.64362
3.01995e+06	5.64365
3.03739e+06	5.64367
3.05492e+06	5.64369
3.07256e+06	5.64372
3.0903e+06	5.64374
3.10814e+06	5.64376
3.12608e+06	5.64378
3.14413e+06	5.6438
3.16228e+06	5.64382
3.18053e+06	5.64384
3.1989e+06	5.64386
3.21736e+06	5.64388
3.23594e+06	5.6439
3.25462e+06	5.64392
3.27341e+06	5.64394
3.2923e+06	5.64396
3.31131e+06	5.64397
3.33043e+06	5.64399
3.34965e+06	5.64401
3.36899e+06	5.64402
3.38844e+06	5.64404
3.408e+06	5.64406
3.42768e+06	5.64407
3.44747e+06	5.64409
3.46737e+06	5.6441
3.48739e+06	5.64412
3.50752e+06	5.64413
3.52777e+06	5.64414
3.54813e+06	5.64416
3.56862e+06	5.64417
3.58922e+06	5.64418
3.60994e+06	5.64419
3.63078e+06	5.64421
3.65174e+06	5.64422
3.67282e+06	5.64423
3.69403e+06	5.64424
3.71535e+06	5.64425
3.7368e+06	5.64426
3.75837e+06	5.64427
3.78007e+06	5.64428
3.80189e+06	5.64429
3.82384e+06	5.6443
3.84592e+06	5.64431
3.86812e+06	5.64432
3.89045e+06	5.64433
3.91291e+06	5.64433
3.9355e+06	5.64434
3.95822e+06	5.64435
3.98107e+06	5.64436
4.00405e+06	5.64437
4.02717e+06	5.64437
4.05042e+06	5.64438
4.0738e+06	5.64439
4.09732e+06	5.64439
4.12098e+06	5.6444
4.14477e+06	5.6444
4.16869e+06	5.64441
4.19276e+06	5.64442
4.21697e+06	5.64442
4.24131e+06	5.64443
4.2658e+06	5.64443
4.29042e+06	5.64444
4.31519e+06	5.64444
4.3401e+06	5.64445
4.36516e+06	5.64445
4.39036e+06	5.64445
4.4157e+06	5.64446
4.4412e+06	5.64446
4.46684e+06	5.64446
4.49262e+06	5.64447
4.51856e+06	5.64447
4.54465e+06	5.64447
4.57088e+06	5.64448
4.59727e+06	5.64448
4.62381e+06	5.64448
4.6505e+06	5.64448
4.67735e+06	5.64449
4.70435e+06	5.64449
4.73151e+06	5.64449
4.75883e+06	5.64449
4.7863e+06	5.64449
4.81393e+06	5.6445
4.84172e+06	5.6445
4.86968e+06	5.6445
4.89779e+06	5.6445
4.92606e+06	5.6445
4.9545e+06	5.6445
4.9831e+06	5.6445
5.01187e+06	5.6445
5.04081e+06	5.64451
5.06991e+06	5.64451
5.09918e+06	5.64451
5.12861e+06	5.64451
5.15822e+06	5.64451
5.188e+06	5.64451
5.21795e+06	5.64451
5.24807e+06	5.64451
5.27837e+06	5.64451
5.30884e+06	5.64451
5.33949e+06	5.64451
5.37032e+06	5.64451
5.40132e+06	5.64451
5.4325e+06	5.64451
5.46387e+06	5.64451
5.49541e+06	5.64451
5.52713e+06	5.64451
5.55904e+06	5.64451
5.59114e+06	5.64451
5.62341e+06	5.64451
5.65588e+06	5.64451
5.68853e+06	5.64451
5.72137e+06	5.6445
5.7544e+06	5.6445
5.78762e+06	5.6445
5.82103e+06	5.6445
5.85464e+06	5.6445
5.88844e+06	5.6445
5.92243e+06	5.6445
5.95662e+06	5.6445
5.99101e+06	5.6445
6.0256e+06	5.6445
6.06038e+06	5.6445
6.09537e+06	5.6445
6.13056e+06	5.6445
6.16595e+06	5.6445
6.20155e+06	5.6445
6.23735e+06	5.64449
6.27336e+06	5.64449
6.30957e+06	5.64449
6.346e+06	5.64449
6.38263e+06	5.64449
6.41948e+06	5.64449
6.45654e+06	5.64449
6.49382e+06	5.64449
6.53131e+06	5.64449
6.56901e+06	5.64449
6.60693e+06	5.64449
6.64508e+06	5.64449
6.68344e+06	5.64449
6.72202e+06	5.64449
6.76083e+06	5.64449
6.79986e+06	5.64449
6.83912e+06	5.64448
6.8786e+06	5.64448
6.91831e+06	5.64448
6.95825e+06	5.64448
6.99842e+06	5.64448
7.03882e+06	5.64448
7.07946e+06	5.64448
7.12033e+06	5.64448
7.16143e+06	5.64448
7.20278e+06	5.64448
7.24436e+06	5.64448
7.28618e+06	5.64448
7.32825e+06	5.64448
7.37055e+06	5.64448
7.4131e+06	5.64448
7.4559e+06	5.64448
7.49894e+06	5.64448
7.54223e+06	5.64447
7.58578e+06	5.64447
7.62957e+06	5.64447
7.67361e+06	5.64447
7.71792e+06	5.64447
7.76247e+06	5.64447
7.80728e+06	5.64447
7.85236e+06	5.64447
7.89769e+06	5.64447
7.94328e+06	5.64447
7.98914e+06	5.64447
8.03526e+06	5.64447
8.08165e+06	5.64447
8.12831e+06	5.64447
8.17523e+06	5.64447
8.22243e+06	5.64447
8.2699e+06	5.64447
8.31764e+06	5.64447
8.36566e+06	5.64447
8.41395e+06	5.64447
8.46253e+06	5.64446
8.51138e+06	5.64446
8.56052e+06	5.64446
8.60994e+06	5.64446
8.65964e+06	5.64446
8.70964e+06	5.64446
8.75992e+06	5.64446
8.81049e+06	5.64446
8.86135e+06	5.64446
8.91251e+06	5.64446
8.96396e+06	5.64446
9.01571e+06	5.64446
9.06776e+06	5.64446
9.12011e+06	5.64446
9.17276e+06	5.64446
9.22571e+06	5.64446
9.27897e+06	5.64446
9.33254e+06	5.64446
9.38642e+06	5.64446
9.44061e+06	5.64446
9.49511e+06	5.64446
9.54993e+06	5.64446
9.60506e+06	5.64445
9.66051e+06	5.64445
9.71628e+06	5.64445
9.77237e+06	5.64445
9.82879e+06	5.64445
9.88553e+06	5.64445
9.9426e+06	5.64445
1e+07	5.64445
