Stopping power dEdx from Ionisation for Be9[0.0] Z = 4 in Water, process name: ionIoni
E [MeV]	dEdx [MeV/mm]
0.001	21.9723
0.00100577	22.036
0.00101158	22.0998
0.00101742	22.1639
0.00102329	22.2281
0.0010292	22.2925
0.00103514	22.3572
0.00104112	22.4219
0.00104713	22.4869
0.00105317	22.5521
0.00105925	22.6174
0.00106537	22.683
0.00107152	22.7487
0.00107771	22.8146
0.00108393	22.8808
0.00109018	22.9471
0.00109648	23.0136
0.00110281	23.0802
0.00110917	23.1471
0.00111558	23.2142
0.00112202	23.2815
0.0011285	23.3489
0.00113501	23.4166
0.00114156	23.4844
0.00114815	23.5525
0.00115478	23.6207
0.00116145	23.6891
0.00116815	23.7578
0.0011749	23.8266
0.00118168	23.8956
0.0011885	23.9648
0.00119536	24.0343
0.00120226	24.1039
0.00120921	24.1737
0.00121619	24.2438
0.00122321	24.314
0.00123027	24.3844
0.00123737	24.4551
0.00124451	24.5259
0.0012517	24.5969
0.00125893	24.6682
0.00126619	24.7397
0.0012735	24.8113
0.00128086	24.8832
0.00128825	24.9553
0.00129569	25.0275
0.00130317	25.1
0.00131069	25.1727
0.00131826	25.2456
0.00132587	25.3188
0.00133352	25.3921
0.00134122	25.4656
0.00134896	25.5394
0.00135675	25.6133
0.00136458	25.6875
0.00137246	25.7619
0.00138038	25.8365
0.00138835	25.9113
0.00139637	25.9864
0.00140443	26.0616
0.00141254	26.1371
0.00142069	26.2128
0.00142889	26.2887
0.00143714	26.3648
0.00144544	26.4412
0.00145378	26.5177
0.00146218	26.5945
0.00147062	26.6715
0.00147911	26.7488
0.00148765	26.8262
0.00149624	26.9039
0.00150487	26.9818
0.00151356	27.0599
0.0015223	27.1383
0.00153109	27.2168
0.00153993	27.2956
0.00154882	27.3747
0.00155776	27.4539
0.00156675	27.5334
0.0015758	27.6131
0.00158489	27.6931
0.00159404	27.7732
0.00160325	27.8536
0.0016125	27.9343
0.00162181	28.0151
0.00163117	28.0963
0.00164059	28.1776
0.00165006	28.2592
0.00165959	28.341
0.00166917	28.423
0.0016788	28.5053
0.0016885	28.5878
0.00169824	28.6705
0.00170805	28.7535
0.00171791	28.8368
0.00172783	28.9202
0.0017378	29.004
0.00174783	29.0879
0.00175792	29.1721
0.00176807	29.2565
0.00177828	29.3412
0.00178855	29.4261
0.00179887	29.5113
0.00180926	29.5967
0.0018197	29.6824
0.00183021	29.7683
0.00184077	29.8544
0.0018514	29.9408
0.00186209	30.0275
0.00187284	30.1144
0.00188365	30.2016
0.00189452	30.289
0.00190546	30.3766
0.00191646	30.4645
0.00192752	30.5527
0.00193865	30.6411
0.00194984	30.7298
0.0019611	30.8187
0.00197242	30.9079
0.00198381	30.9973
0.00199526	31.087
0.00200678	31.177
0.00201837	31.2672
0.00203002	31.3577
0.00204174	31.4484
0.00205353	31.5394
0.00206538	31.6307
0.0020773	31.7222
0.0020893	31.814
0.00210136	31.906
0.00211349	31.9983
0.00212569	32.0909
0.00213796	32.1838
0.0021503	32.2769
0.00216272	32.3703
0.0021752	32.4639
0.00218776	32.5579
0.00220039	32.6521
0.00221309	32.7465
0.00222587	32.8413
0.00223872	32.9363
0.00225165	33.0316
0.00226464	33.1271
0.00227772	33.223
0.00229087	33.3191
0.00230409	33.4155
0.00231739	33.5121
0.00233077	33.6091
0.00234423	33.7063
0.00235776	33.8038
0.00237137	33.9016
0.00238506	33.9997
0.00239883	34.098
0.00241268	34.1967
0.00242661	34.2956
0.00244062	34.3948
0.00245471	34.4943
0.00246888	34.594
0.00248313	34.6941
0.00249747	34.7945
0.00251189	34.8951
0.00252639	34.996
0.00254097	35.0973
0.00255564	35.1988
0.0025704	35.3006
0.00258523	35.4027
0.00260016	35.5051
0.00261517	35.6078
0.00263027	35.7108
0.00264545	35.814
0.00266073	35.9176
0.00267609	36.0215
0.00269153	36.1257
0.00270707	36.2302
0.0027227	36.3349
0.00273842	36.44
0.00275423	36.5454
0.00277013	36.6511
0.00278612	36.7571
0.00280221	36.8634
0.00281838	36.97
0.00283465	37.0769
0.00285102	37.1841
0.00286748	37.2917
0.00288403	37.3995
0.00290068	37.5077
0.00291743	37.6161
0.00293427	37.7249
0.00295121	37.834
0.00296825	37.9434
0.00298538	38.0531
0.00300262	38.1631
0.00301995	38.2735
0.00303739	38.3842
0.00305492	38.4952
0.00307256	38.6065
0.0030903	38.7181
0.00310814	38.83
0.00312608	38.9423
0.00314413	39.0549
0.00316228	39.1678
0.00318053	39.2811
0.0031989	39.3947
0.00321736	39.5086
0.00323594	39.6228
0.00325462	39.7374
0.00327341	39.8522
0.0032923	39.9675
0.00331131	40.083
0.00333043	40.1989
0.00334965	40.3151
0.00336899	40.4317
0.00338844	40.5486
0.003408	40.6658
0.00342768	40.7834
0.00344747	40.9013
0.00346737	41.0195
0.00348739	41.1381
0.00350752	41.257
0.00352777	41.3763
0.00354813	41.4959
0.00356862	41.6159
0.00358922	41.7362
0.00360994	41.8568
0.00363078	41.9778
0.00365174	42.0992
0.00367282	42.2209
0.00369403	42.3429
0.00371535	42.4653
0.0037368	42.5881
0.00375837	42.7112
0.00378007	42.8346
0.00380189	42.9585
0.00382384	43.0826
0.00384592	43.2072
0.00386812	43.3321
0.00389045	43.4573
0.00391291	43.5829
0.0039355	43.7089
0.00395822	43.8352
0.00398107	43.9619
0.00400405	44.089
0.00402717	44.2164
0.00405042	44.3442
0.0040738	44.4724
0.00409732	44.6009
0.00412098	44.7298
0.00414477	44.8591
0.00416869	44.9888
0.00419276	45.1188
0.00421697	45.2492
0.00424131	45.38
0.0042658	45.5111
0.00429042	45.6427
0.00431519	45.7746
0.0043401	45.9069
0.00436516	46.0395
0.00439036	46.1726
0.0044157	46.306
0.0044412	46.4399
0.00446684	46.5741
0.00449262	46.7087
0.00451856	46.8437
0.00454465	46.979
0.00457088	47.1148
0.00459727	47.2509
0.00462381	47.3875
0.0046505	47.5244
0.00467735	47.6618
0.00470435	47.7995
0.00473151	47.9376
0.00475883	48.0761
0.0047863	48.2151
0.00481393	48.3544
0.00484172	48.4941
0.00486968	48.6343
0.00489779	48.8968
0.00492606	49.0378
0.0049545	49.1791
0.0049831	49.3209
0.00501187	49.463
0.00504081	49.6056
0.00506991	49.7486
0.00509918	49.892
0.00512861	50.0358
0.00515822	50.18
0.005188	50.3246
0.00521795	50.4697
0.00524807	50.6152
0.00527837	50.7611
0.00530884	50.9074
0.00533949	51.0541
0.00537032	51.2013
0.00540132	51.3488
0.0054325	51.4969
0.00546387	51.6453
0.00549541	51.7942
0.00552713	51.9434
0.00555904	52.0932
0.00559114	52.2433
0.00562341	52.3939
0.00565588	52.5449
0.00568853	52.6964
0.00572137	52.8483
0.0057544	53.0006
0.00578762	53.1534
0.00582103	53.3066
0.00585464	53.4602
0.00588844	53.6143
0.00592243	53.7688
0.00595662	53.9238
0.00599101	54.0793
0.0060256	54.2351
0.00606038	54.3915
0.00609537	54.5482
0.00613056	54.7055
0.00616595	54.8631
0.00620155	55.0213
0.00623735	55.1799
0.00627336	55.3389
0.00630957	55.4984
0.006346	55.6584
0.00638263	55.8188
0.00641948	55.9797
0.00645654	56.1411
0.00649382	56.3029
0.00653131	56.4652
0.00656901	56.6279
0.00660693	56.7912
0.00664508	56.9549
0.00668344	57.119
0.00672202	57.2837
0.00676083	57.4488
0.00679986	57.6144
0.00683912	57.7804
0.0068786	57.947
0.00691831	58.114
0.00695825	58.2815
0.00699842	58.4495
0.00703882	58.618
0.00707946	58.7869
0.00712033	58.9564
0.00716143	59.1263
0.00720278	59.2967
0.00724436	59.4676
0.00728618	59.639
0.00732825	59.811
0.00737055	59.9833
0.0074131	60.1562
0.0074559	60.3296
0.00749894	60.5035
0.00754223	60.6779
0.00758578	60.8528
0.00762957	61.0282
0.00767361	61.2041
0.00771792	61.3805
0.00776247	61.5575
0.00780728	61.7349
0.00785236	61.9128
0.00789769	62.0913
0.00794328	62.2703
0.00798914	62.4498
0.00803526	62.6298
0.00808165	62.8103
0.00812831	62.9913
0.00817523	63.1729
0.00822243	63.355
0.0082699	63.5376
0.00831764	63.7207
0.00836566	63.9044
0.00841395	64.0886
0.00846253	64.2733
0.00851138	64.4586
0.00856052	64.6444
0.00860994	64.8307
0.00865964	65.0176
0.00870964	65.205
0.00875992	65.3929
0.00881049	65.5814
0.00886135	65.7704
0.00891251	65.96
0.00896396	66.1501
0.00901571	66.3408
0.00906776	66.532
0.00912011	66.7238
0.00917276	66.9161
0.00922571	67.109
0.00927897	67.3024
0.00933254	67.4964
0.00938642	67.691
0.00944061	67.8861
0.00949511	68.0818
0.00954993	68.278
0.00960506	68.4748
0.00966051	68.6722
0.00971628	68.8701
0.00977237	69.0686
0.00982879	69.2677
0.00988553	69.4673
0.0099426	69.6676
0.01	69.8684
0.0100577	70.0698
0.0101158	70.2717
0.0101742	70.4743
0.0102329	70.6774
0.010292	70.8811
0.0103514	71.0854
0.0104112	71.2903
0.0104713	71.4958
0.0105317	71.7019
0.0105925	71.9086
0.0106537	72.1158
0.0107152	72.3237
0.0107771	72.5322
0.0108393	72.7412
0.0109018	72.9509
0.0109648	73.1612
0.0110281	73.3721
0.0110917	73.5835
0.0111558	73.7956
0.0112202	74.0083
0.011285	74.2217
0.0113501	74.4356
0.0114156	74.6502
0.0114815	74.8653
0.0115478	75.0811
0.0116145	75.2975
0.0116815	75.5146
0.011749	75.7322
0.0118168	75.9505
0.011885	76.1694
0.0119536	76.389
0.0120226	76.6092
0.0120921	76.83
0.0121619	77.0514
0.0122321	77.2735
0.0123027	77.4963
0.0123737	77.7196
0.0124451	77.9436
0.012517	78.1683
0.0125893	78.3936
0.0126619	78.6196
0.012735	78.8462
0.0128086	79.0735
0.0128825	79.3014
0.0129569	79.53
0.0130317	79.7592
0.0131069	79.9891
0.0131826	80.2196
0.0132587	80.4509
0.0133352	80.6828
0.0134122	80.9153
0.0134896	81.1485
0.0135675	81.3824
0.0136458	81.617
0.0137246	81.8523
0.0138038	82.0882
0.0138835	82.3248
0.0139637	82.5621
0.0140443	82.8001
0.0141254	83.0387
0.0142069	83.2781
0.0142889	83.5181
0.0143714	83.7589
0.0144544	84.0003
0.0145378	84.2424
0.0146218	84.4852
0.0147062	84.7287
0.0147911	84.973
0.0148765	85.2179
0.0149624	85.4635
0.0150487	85.7098
0.0151356	85.9569
0.015223	86.2047
0.0153109	86.4531
0.0153993	86.7023
0.0154882	86.9522
0.0155776	87.2029
0.0156675	87.4542
0.015758	87.7063
0.0158489	87.9591
0.0159404	88.2126
0.0160325	88.4669
0.016125	88.7219
0.0162181	88.9776
0.0163117	89.2341
0.0164059	89.4913
0.0165006	89.7492
0.0165959	90.0079
0.0166917	90.2674
0.016788	90.5275
0.016885	90.7885
0.0169824	91.0502
0.0170805	91.3126
0.0171791	91.5758
0.0172783	91.8398
0.017378	92.1045
0.0174783	92.37
0.0175792	92.6362
0.0176807	92.9032
0.0177828	93.171
0.0178855	93.4395
0.0179887	93.7089
0.0180926	93.979
0.018197	94.2499
0.0183021	94.5215
0.0184077	94.794
0.018514	95.0672
0.0186209	95.3412
0.0187284	95.616
0.0188365	95.8916
0.0189452	96.168
0.0190546	96.4452
0.0191646	96.7232
0.0192752	97.002
0.0193865	97.2816
0.0194984	97.562
0.019611	97.8432
0.0197242	98.1252
0.0198381	98.4081
0.0199526	98.6917
0.0200678	98.9762
0.0201837	99.2615
0.0203002	99.5476
0.0204174	99.8345
0.0205353	100.122
0.0206538	100.411
0.020773	100.7
0.020893	100.991
0.0210136	101.282
0.0211349	101.574
0.0212569	101.866
0.0213796	102.16
0.021503	102.454
0.0216272	102.75
0.021752	103.046
0.0218776	103.343
0.0220039	103.641
0.0221309	103.94
0.0222587	104.239
0.0223872	104.54
0.0225165	104.841
0.0226464	105.143
0.0227772	105.446
0.0229087	105.75
0.0230409	106.055
0.0231739	106.361
0.0233077	106.667
0.0234423	106.975
0.0235776	107.283
0.0237137	107.592
0.0238506	107.902
0.0239883	108.213
0.0241268	108.525
0.0242661	108.838
0.0244062	109.152
0.0245471	109.466
0.0246888	109.782
0.0248313	110.098
0.0249747	110.416
0.0251189	110.734
0.0252639	111.053
0.0254097	111.373
0.0255564	111.694
0.025704	112.016
0.0258523	112.339
0.0260016	112.663
0.0261517	112.988
0.0263027	113.313
0.0264545	113.64
0.0266073	113.967
0.0267609	114.296
0.0269153	114.625
0.0270707	114.956
0.027227	115.287
0.0273842	115.619
0.0275423	115.953
0.0277013	116.287
0.0278612	116.622
0.0280221	116.958
0.0281838	117.295
0.0283465	117.633
0.0285102	117.972
0.0286748	118.313
0.0288403	118.654
0.0290068	118.996
0.0291743	119.339
0.0293427	119.683
0.0295121	120.027
0.0296825	120.373
0.0298538	120.72
0.0300262	121.068
0.0301995	121.417
0.0303739	121.767
0.0305492	122.118
0.0307256	122.47
0.030903	122.823
0.0310814	123.177
0.0312608	123.532
0.0314413	123.888
0.0316228	124.246
0.0318053	124.604
0.031989	124.963
0.0321736	125.323
0.0323594	125.684
0.0325462	126.046
0.0327341	126.41
0.032923	126.774
0.0331131	127.14
0.0333043	127.506
0.0334965	127.874
0.0336899	128.242
0.0338844	128.612
0.03408	128.982
0.0342768	129.354
0.0344747	129.727
0.0346737	130.101
0.0348739	130.476
0.0350752	130.852
0.0352777	131.229
0.0354813	131.608
0.0356862	131.987
0.0358922	132.367
0.0360994	132.749
0.0363078	133.131
0.0365174	133.515
0.0367282	133.9
0.0369403	134.286
0.0371535	134.673
0.037368	135.061
0.0375837	135.451
0.0378007	135.841
0.0380189	136.232
0.0382384	136.625
0.0384592	137.019
0.0386812	137.414
0.0389045	137.81
0.0391291	138.207
0.039355	138.606
0.0395822	139.005
0.0398107	139.406
0.0400405	139.808
0.0402717	140.211
0.0405042	140.615
0.040738	141.02
0.0409732	141.426
0.0412098	141.834
0.0414477	142.243
0.0416869	142.653
0.0419276	143.064
0.0421697	143.476
0.0424131	143.89
0.042658	144.305
0.0429042	144.721
0.0431519	145.138
0.043401	145.556
0.0436516	145.976
0.0439036	146.397
0.044157	146.818
0.044412	147.242
0.0446684	147.666
0.0449262	148.092
0.0451856	148.519
0.0454465	148.947
0.0457088	149.376
0.0459727	149.807
0.0462381	150.238
0.046505	150.671
0.0467735	151.106
0.0470435	151.541
0.0473151	151.978
0.0475883	152.416
0.047863	152.855
0.0481393	153.296
0.0484172	153.738
0.0486968	154.181
0.0489779	154.625
0.0492606	155.071
0.049545	155.518
0.049831	155.966
0.0501187	156.416
0.0504081	156.867
0.0506991	157.319
0.0509918	157.772
0.0512861	158.227
0.0515822	158.683
0.05188	159.14
0.0521795	159.599
0.0524807	160.059
0.0527837	160.521
0.0530884	160.983
0.0533949	161.447
0.0537032	161.913
0.0540132	162.379
0.054325	162.847
0.0546387	163.317
0.0549541	163.787
0.0552713	164.26
0.0555904	164.733
0.0559114	165.208
0.0562341	165.684
0.0565588	166.162
0.0568853	166.641
0.0572137	167.121
0.057544	167.603
0.0578762	168.086
0.0582103	168.57
0.0585464	169.056
0.0588844	169.543
0.0592243	170.032
0.0595662	170.522
0.0599101	171.014
0.060256	171.507
0.0606038	172.001
0.0609537	172.497
0.0613056	172.994
0.0616595	173.493
0.0620155	173.993
0.0623735	174.494
0.0627336	174.997
0.0630957	175.501
0.06346	176.007
0.0638263	176.515
0.0641948	177.023
0.0645654	177.534
0.0649382	178.045
0.0653131	178.559
0.0656901	179.073
0.0660693	179.589
0.0664508	180.107
0.0668344	180.626
0.0672202	181.147
0.0676083	181.669
0.0679986	182.193
0.0683912	182.718
0.068786	183.244
0.0691831	183.773
0.0695825	184.302
0.0699842	184.834
0.0703882	185.366
0.0707946	185.901
0.0712033	186.436
0.0716143	186.974
0.0720278	187.513
0.0724436	188.053
0.0728618	188.595
0.0732825	189.139
0.0737055	189.684
0.074131	190.231
0.074559	190.779
0.0749894	191.329
0.0754223	191.88
0.0758578	192.434
0.0762957	192.988
0.0767361	193.544
0.0771792	194.102
0.0776247	194.662
0.0780728	195.223
0.0785236	195.786
0.0789769	196.35
0.0794328	196.916
0.0798914	197.483
0.0803526	198.053
0.0808165	198.624
0.0812831	199.196
0.0817523	199.77
0.0822243	200.346
0.082699	200.923
0.0831764	201.503
0.0836566	202.083
0.0841395	202.666
0.0846253	203.25
0.0851138	203.836
0.0856052	204.423
0.0860994	205.013
0.0865964	205.604
0.0870964	206.196
0.0875992	206.791
0.0881049	207.387
0.0886135	207.984
0.0891251	208.584
0.0896396	209.185
0.0901571	209.788
0.0906776	210.393
0.0912011	210.999
0.0917276	211.607
0.0922571	212.217
0.0927897	212.829
0.0933254	213.442
0.0938642	214.058
0.0944061	214.675
0.0949511	215.293
0.0954993	215.914
0.0960506	216.536
0.0966051	217.16
0.0971628	217.786
0.0977237	218.414
0.0982879	219.044
0.0988553	219.675
0.099426	220.308
0.1	220.943
0.100577	221.58
0.101158	222.219
0.101742	222.859
0.102329	223.502
0.10292	224.146
0.103514	224.792
0.104112	225.44
0.104713	226.09
0.105317	226.741
0.105925	227.395
0.106537	228.05
0.107152	228.708
0.107771	229.367
0.108393	230.028
0.109018	230.691
0.109648	231.356
0.110281	232.023
0.110917	232.692
0.111558	233.362
0.112202	234.035
0.11285	234.71
0.113501	235.386
0.114156	236.065
0.114815	236.745
0.115478	237.427
0.116145	238.112
0.116815	238.798
0.11749	239.486
0.118168	240.177
0.11885	240.869
0.119536	241.563
0.120226	242.259
0.120921	242.958
0.121619	243.658
0.122321	244.36
0.123027	245.065
0.123737	245.771
0.124451	246.479
0.12517	247.19
0.125893	247.902
0.126619	248.617
0.12735	249.334
0.128086	250.052
0.128825	250.773
0.129569	251.496
0.130317	252.221
0.131069	252.948
0.131826	253.677
0.132587	254.408
0.133352	255.141
0.134122	255.877
0.134896	256.614
0.135675	257.354
0.136458	258.096
0.137246	258.84
0.138038	259.586
0.138835	260.334
0.139637	261.084
0.140443	261.837
0.141254	262.592
0.142069	263.348
0.142889	264.107
0.143714	264.869
0.144544	265.632
0.145378	266.398
0.146218	267.166
0.147062	267.936
0.147911	268.708
0.148765	269.483
0.149624	270.259
0.150487	271.038
0.151356	271.82
0.15223	272.603
0.153109	273.389
0.153993	274.177
0.154882	274.967
0.155776	275.76
0.156675	276.554
0.15758	277.352
0.158489	278.151
0.159404	278.953
0.160325	279.757
0.16125	280.563
0.162181	281.372
0.163117	282.183
0.164059	282.996
0.165006	283.812
0.165959	284.63
0.166917	285.45
0.16788	286.273
0.16885	287.098
0.169824	287.926
0.170805	288.756
0.171791	289.588
0.172783	290.423
0.17378	291.26
0.174783	292.099
0.175792	292.941
0.176807	293.786
0.177828	294.633
0.178855	295.482
0.179887	296.333
0.180926	297.188
0.18197	298.044
0.183021	298.903
0.184077	299.765
0.18514	300.629
0.186209	301.495
0.187284	302.364
0.188365	303.236
0.189452	304.11
0.190546	304.987
0.191646	305.866
0.192752	306.747
0.193865	307.631
0.194984	308.518
0.19611	309.407
0.197242	310.299
0.198381	311.194
0.199526	312.091
0.200678	312.99
0.201837	313.892
0.203002	314.797
0.204174	315.704
0.205353	316.614
0.206538	317.527
0.20773	318.442
0.20893	319.36
0.210136	320.281
0.211349	321.204
0.212569	322.13
0.213796	323.058
0.21503	323.989
0.216272	324.923
0.21752	325.86
0.218776	326.799
0.220039	327.741
0.221309	328.686
0.222587	329.633
0.223872	330.583
0.225165	331.524
0.226464	332.382
0.227772	333.245
0.229087	334.112
0.230409	334.983
0.231739	335.859
0.233077	336.738
0.234423	337.622
0.235776	338.509
0.237137	339.401
0.238506	340.297
0.239883	341.198
0.241268	342.102
0.242661	343.01
0.244062	343.923
0.245471	344.84
0.246888	345.761
0.248313	346.686
0.249747	347.615
0.251189	348.548
0.252639	349.485
0.254097	350.427
0.255564	351.372
0.25704	352.322
0.258523	353.276
0.260016	354.233
0.261517	355.195
0.263027	356.161
0.264545	357.13
0.266073	358.104
0.267609	359.082
0.269153	360.064
0.270707	361.011
0.27227	361.916
0.273842	362.824
0.275423	363.735
0.277013	364.65
0.278612	365.568
0.280221	366.49
0.281838	367.415
0.283465	368.343
0.285102	369.274
0.286748	370.209
0.288403	371.147
0.290068	372.088
0.291743	373.032
0.293427	373.979
0.295121	374.929
0.296825	375.882
0.298538	376.838
0.300262	377.797
0.301995	378.758
0.303739	379.723
0.305492	380.69
0.307256	381.661
0.30903	382.633
0.310814	383.609
0.312608	384.587
0.314413	385.567
0.316228	386.55
0.318053	387.536
0.31989	388.524
0.321736	389.514
0.323594	390.506
0.325462	391.501
0.327341	392.497
0.32923	393.496
0.331131	394.497
0.333043	395.499
0.334965	396.503
0.336899	397.51
0.338844	398.517
0.3408	399.527
0.342768	400.538
0.344747	401.55
0.346737	402.564
0.348739	403.578
0.350752	404.595
0.352777	405.612
0.354813	406.63
0.356862	407.649
0.358922	408.668
0.360994	409.678
0.363078	410.676
0.365174	411.675
0.367282	412.674
0.369403	413.673
0.371535	414.673
0.37368	415.673
0.375837	416.673
0.378007	417.674
0.380189	418.675
0.382384	419.676
0.384592	420.677
0.386812	421.678
0.389045	422.679
0.391291	423.681
0.39355	424.682
0.395822	425.684
0.398107	426.685
0.400405	427.686
0.402717	428.687
0.405042	429.688
0.40738	430.689
0.409732	431.69
0.412098	432.691
0.414477	433.691
0.416869	434.691
0.419276	435.69
0.421697	436.69
0.424131	437.688
0.42658	438.687
0.429042	439.685
0.431519	440.683
0.43401	441.68
0.436516	442.676
0.439036	443.672
0.44157	444.668
0.44412	445.663
0.446684	446.657
0.449262	447.651
0.451856	448.643
0.454465	449.634
0.457088	450.625
0.459727	451.614
0.462381	452.603
0.46505	453.591
0.467735	454.578
0.470435	455.564
0.473151	456.549
0.475883	457.533
0.47863	458.516
0.481393	459.497
0.484172	460.478
0.486968	461.457
0.489779	462.435
0.492606	463.411
0.49545	464.386
0.49831	465.359
0.501187	466.331
0.504081	467.302
0.506991	468.271
0.509918	469.238
0.512861	470.204
0.515822	471.167
0.5188	472.129
0.521795	473.089
0.524807	474.048
0.527837	475.004
0.530884	475.959
0.533949	476.911
0.537032	477.861
0.540132	478.81
0.54325	479.756
0.546387	480.7
0.549541	481.641
0.552713	482.581
0.555904	483.517
0.559114	484.452
0.562341	485.384
0.565588	486.314
0.568853	487.241
0.572137	488.165
0.57544	489.087
0.578762	490.006
0.582103	490.922
0.585464	491.835
0.588844	492.745
0.592243	493.653
0.595662	494.557
0.599101	495.458
0.60256	496.357
0.606038	497.252
0.609537	498.144
0.613056	499.032
0.616595	499.918
0.620155	500.8
0.623735	501.678
0.627336	502.553
0.630957	503.425
0.6346	504.293
0.638263	505.157
0.641948	506.018
0.645654	506.875
0.649382	507.728
0.653131	508.577
0.656901	509.422
0.660693	510.263
0.664508	511.1
0.668344	511.932
0.672202	512.76
0.676083	513.584
0.679986	514.403
0.683912	515.218
0.68786	516.028
0.691831	516.833
0.695825	517.633
0.699842	518.429
0.703882	519.22
0.707946	520.005
0.712033	520.785
0.716143	521.56
0.720278	522.33
0.724436	523.095
0.728618	523.854
0.732825	524.607
0.737055	525.356
0.74131	526.098
0.74559	526.836
0.749894	527.568
0.754223	528.294
0.758578	529.015
0.762957	529.731
0.767361	530.441
0.771792	531.146
0.776247	531.846
0.780728	532.54
0.785236	533.229
0.789769	533.912
0.794328	534.59
0.798914	535.264
0.803526	535.931
0.808165	536.594
0.812831	537.252
0.817523	537.904
0.822243	538.551
0.82699	539.193
0.831764	539.83
0.836566	540.461
0.841395	541.086
0.846253	541.706
0.851138	542.321
0.856052	542.93
0.860994	543.532
0.865964	544.129
0.870964	544.72
0.875992	545.305
0.881049	545.884
0.886135	546.457
0.891251	547.024
0.896396	547.584
0.901571	548.138
0.906776	548.688
0.912011	549.231
0.917276	549.767
0.922571	550.296
0.927897	550.819
0.933254	551.335
0.938642	551.845
0.944061	552.347
0.949511	552.843
0.954993	553.332
0.960506	553.813
0.966051	554.288
0.971628	554.755
0.977237	555.216
0.982879	555.669
0.988553	556.115
0.99426	556.553
1	556.984
1.00577	557.408
1.01158	557.824
1.01742	558.233
1.02329	558.634
1.0292	559.028
1.03514	559.414
1.04112	559.793
1.04713	560.163
1.05317	560.527
1.05925	560.882
1.06537	561.23
1.07152	561.57
1.07771	561.902
1.08393	562.227
1.09018	562.543
1.09648	562.852
1.10281	563.153
1.10917	563.447
1.11558	563.732
1.12202	564.01
1.1285	564.28
1.13501	564.542
1.14156	564.797
1.14815	565.043
1.15478	565.282
1.16145	565.514
1.16815	565.737
1.1749	565.953
1.18168	566.162
1.1885	566.362
1.19536	566.556
1.20226	566.742
1.20921	566.92
1.21619	567.091
1.22321	567.255
1.23027	567.412
1.23737	567.561
1.24451	567.704
1.2517	567.84
1.25893	567.968
1.26619	568.09
1.2735	568.206
1.28086	568.314
1.28825	568.417
1.29569	568.513
1.30317	568.603
1.31069	568.687
1.31826	568.765
1.32587	568.837
1.33352	568.904
1.34122	568.966
1.34896	569.022
1.35675	569.054
1.36458	569.079
1.37246	569.098
1.38038	569.112
1.38835	569.12
1.39637	569.124
1.40443	569.122
1.41254	569.114
1.42069	569.101
1.42889	569.083
1.43714	569.059
1.44544	569.03
1.45378	568.995
1.46218	568.955
1.47062	568.909
1.47911	568.857
1.48765	568.8
1.49624	568.736
1.50487	568.668
1.51356	568.593
1.5223	568.512
1.53109	568.426
1.53993	568.334
1.54882	568.236
1.55776	568.132
1.56675	568.022
1.5758	567.907
1.58489	567.785
1.59404	567.657
1.60325	567.524
1.6125	567.384
1.62181	567.238
1.63117	567.087
1.64059	566.929
1.65006	566.765
1.65959	566.595
1.66917	566.419
1.6788	566.238
1.6885	566.05
1.69824	565.856
1.70805	565.656
1.71791	565.45
1.72783	565.238
1.7378	565.02
1.74783	564.796
1.75792	564.566
1.76807	564.33
1.77828	564.088
1.78855	563.841
1.79887	563.587
1.80926	563.33
1.8197	563.068
1.83021	562.8
1.84077	562.526
1.8514	562.246
1.86209	561.961
1.87284	561.67
1.88365	561.372
1.89452	561.07
1.90546	560.761
1.91646	560.446
1.92752	560.126
1.93865	559.8
1.94984	559.468
1.9611	559.131
1.97242	558.788
1.98381	558.439
1.99526	558.085
2.00678	557.725
2.01837	557.36
2.03002	556.989
2.04174	556.613
2.05353	556.231
2.06538	555.844
2.0773	555.451
2.0893	555.054
2.10136	554.651
2.11349	554.243
2.12569	553.83
2.13796	553.412
2.1503	552.989
2.16272	552.561
2.1752	552.129
2.18776	551.692
2.20039	551.25
2.21309	550.804
2.22587	550.353
2.23872	549.899
2.25165	549.44
2.26464	548.977
2.27772	548.51
2.29087	548.038
2.30409	547.563
2.31739	547.084
2.33077	546.601
2.34423	546.113
2.35776	545.621
2.37137	545.126
2.38506	544.626
2.39883	544.122
2.41268	543.614
2.42661	543.102
2.44062	542.585
2.45471	542.065
2.46888	541.541
2.48313	541.012
2.49747	540.479
2.51189	539.943
2.52639	539.402
2.54097	538.857
2.55564	538.308
2.5704	537.755
2.58523	537.198
2.60016	536.637
2.61517	536.072
2.63027	535.503
2.64545	534.93
2.66073	534.353
2.67609	533.772
2.69153	533.188
2.70707	532.599
2.7227	532.007
2.73842	531.411
2.75423	530.811
2.77013	530.207
2.78612	529.6
2.80221	528.988
2.81838	528.373
2.83465	527.754
2.85102	527.131
2.86748	526.504
2.88403	525.874
2.90068	525.239
2.91743	524.601
2.93427	523.959
2.95121	523.313
2.96825	522.663
2.98538	522.01
3.00262	521.353
3.01995	520.692
3.03739	520.027
3.05492	519.359
3.07256	518.687
3.0903	518.011
3.10814	517.332
3.12608	516.649
3.14413	515.962
3.16228	515.272
3.18053	514.579
3.1989	513.881
3.21736	513.181
3.23594	512.476
3.25462	511.769
3.27341	511.058
3.2923	510.343
3.31131	509.625
3.33043	508.904
3.34965	508.18
3.36899	507.452
3.38844	506.722
3.408	505.988
3.42768	505.251
3.44747	504.511
3.46737	503.768
3.48739	503.022
3.50752	502.273
3.52777	501.521
3.54813	500.767
3.56862	500.01
3.58922	499.25
3.60994	498.488
3.63078	497.723
3.65174	496.956
3.67282	496.186
3.69403	495.413
3.71535	494.638
3.7368	493.861
3.75837	493.081
3.78007	492.298
3.80189	491.513
3.82384	490.726
3.84592	489.936
3.86812	489.144
3.89045	488.349
3.91291	487.551
3.9355	486.752
3.95822	485.949
3.98107	485.145
4.00405	484.338
4.02717	483.528
4.05042	482.716
4.0738	481.902
4.09732	481.085
4.12098	480.266
4.14477	479.444
4.16869	478.62
4.19276	477.794
4.21697	476.965
4.24131	476.134
4.2658	475.301
4.29042	474.465
4.31519	473.628
4.3401	472.787
4.36516	471.945
4.39036	471.1
4.4157	470.253
4.4412	469.403
4.46684	468.552
4.49262	467.698
4.51856	466.842
4.54465	465.983
4.57088	465.122
4.59727	464.259
4.62381	463.394
4.6505	462.526
4.67735	461.657
4.70435	460.785
4.73151	459.911
4.75883	459.036
4.7863	458.158
4.81393	457.278
4.84172	456.396
4.86968	455.512
4.89779	454.626
4.92606	453.738
4.9545	452.848
4.9831	451.957
5.01187	451.063
5.04081	450.167
5.06991	449.27
5.09918	448.371
5.12861	447.47
5.15822	446.567
5.188	445.662
5.21795	444.756
5.24807	443.848
5.27837	442.938
5.30884	442.026
5.33949	441.113
5.37032	440.199
5.40132	439.282
5.4325	438.364
5.46387	437.445
5.49541	436.524
5.52713	435.601
5.55904	434.677
5.59114	433.752
5.62341	432.825
5.65588	431.896
5.68853	430.966
5.72137	430.035
5.7544	429.102
5.78762	428.168
5.82103	427.233
5.85464	426.296
5.88844	425.358
5.92243	424.418
5.95662	423.478
5.99101	422.536
6.0256	421.592
6.06038	420.648
6.09537	419.702
6.13056	418.755
6.16595	417.807
6.20155	416.858
6.23735	415.907
6.27336	414.956
6.30957	414.003
6.346	413.049
6.38263	412.094
6.41948	411.138
6.45654	410.182
6.49382	409.224
6.53131	408.265
6.56901	407.305
6.60693	406.344
6.64508	405.383
6.68344	404.421
6.72202	403.457
6.76083	402.494
6.79986	401.529
6.83912	400.564
6.8786	399.598
6.91831	398.632
6.95825	397.664
6.99842	396.697
7.03882	395.729
7.07946	394.76
7.12033	393.791
7.16143	392.822
7.20278	391.852
7.24436	390.882
7.28618	389.912
7.32825	388.941
7.37055	387.97
7.4131	386.999
7.4559	386.027
7.49894	385.055
7.54223	384.083
7.58578	383.11
7.62957	382.137
7.67361	381.164
7.71792	380.19
7.76247	379.216
7.80728	378.242
7.85236	377.267
7.89769	376.291
7.94328	375.316
7.98914	374.339
8.03526	373.362
8.08165	372.385
8.12831	371.407
8.17523	370.429
8.22243	369.45
8.2699	368.471
8.31764	367.491
8.36566	366.511
8.41395	365.53
8.46253	364.549
8.51138	363.568
8.56052	362.587
8.60994	361.605
8.65964	360.623
8.70964	359.641
8.75992	358.658
8.81049	357.676
8.86135	356.693
8.91251	355.71
8.96396	354.728
9.01571	353.745
9.06776	352.761
9.12011	351.777
9.17276	350.794
9.22571	349.81
9.27897	348.827
9.33254	347.844
9.38642	346.861
9.44061	345.878
9.49511	344.896
9.54993	343.913
9.60506	342.931
9.66051	341.95
9.71628	340.969
9.77237	339.988
9.82879	339.007
9.88553	338.027
9.9426	337.048
10	336.069
10.0577	335.09
10.1158	334.112
10.1742	333.134
10.2329	332.157
10.292	331.181
10.3514	330.205
10.4112	329.23
10.4713	328.256
10.5317	327.282
10.5925	326.309
10.6537	325.336
10.7152	324.365
10.7771	323.394
10.8393	322.423
10.9018	321.454
10.9648	320.485
11.0281	319.517
11.0917	318.55
11.1558	317.584
11.2202	316.619
11.285	315.654
11.3501	314.69
11.4156	313.728
11.4815	312.765
11.5478	311.804
11.6145	310.844
11.6815	309.884
11.749	308.926
11.8168	307.968
11.885	307.011
11.9536	306.055
12.0226	305.1
12.0921	304.145
12.1619	303.192
12.2321	302.239
12.3027	301.287
12.3737	300.335
12.4451	299.385
12.517	298.435
12.5893	297.486
12.6619	296.538
12.735	295.59
12.8086	294.643
12.8825	293.696
12.9569	292.75
13.0317	291.805
13.1069	290.86
13.1826	289.916
13.2587	288.972
13.3352	288.028
13.4122	287.085
13.4896	286.142
13.5675	285.211
13.6458	284.282
13.7246	283.354
13.8038	282.426
13.8835	281.498
13.9637	280.571
14.0443	279.644
14.1254	278.718
14.2069	277.792
14.2889	276.867
14.3714	275.943
14.4544	275.02
14.5378	274.097
14.6218	273.174
14.7062	272.253
14.7911	271.332
14.8765	270.413
14.9624	269.494
15.0487	268.576
15.1356	267.659
15.223	266.743
15.3109	265.828
15.3993	264.914
15.4882	264.001
15.5776	263.09
15.6675	262.179
15.758	261.27
15.8489	260.362
15.9404	259.455
16.0325	258.55
16.125	257.646
16.2181	256.743
16.3117	255.842
16.4059	254.942
16.5006	254.043
16.5959	253.146
16.6917	252.251
16.788	251.357
16.885	250.465
16.9824	249.574
17.0805	248.685
17.1791	247.798
17.2783	246.912
17.378	246.028
17.4783	245.146
17.5792	244.266
17.6807	243.387
17.7828	242.51
17.8855	241.635
17.9887	240.762
18.0926	239.888
18.197	239.015
18.3021	238.144
18.4077	237.275
18.514	236.408
18.6209	235.543
18.7284	234.68
18.8365	233.819
18.9452	232.96
19.0546	232.103
19.1646	231.248
19.2752	230.395
19.3865	229.544
19.4984	228.695
19.611	227.849
19.7242	227.004
19.8381	226.161
19.9526	225.321
20.0678	224.483
20.1837	223.646
20.3002	222.812
20.4174	221.98
20.5353	221.15
20.6538	220.322
20.773	219.496
20.893	218.673
21.0136	217.851
21.1349	217.031
21.2569	216.213
21.3796	215.398
21.503	214.584
21.6272	213.772
21.752	212.962
21.8776	212.154
22.0039	211.348
22.1309	210.544
22.2587	209.741
22.3872	208.941
22.5165	208.142
22.6464	207.344
22.7772	206.548
22.9087	205.754
23.0409	204.961
23.1739	204.17
23.3077	203.381
23.4423	202.594
23.5776	201.809
23.7137	201.025
23.8506	200.243
23.9883	199.464
24.1268	198.686
24.2661	197.91
24.4062	197.135
24.5471	196.363
24.6888	195.593
24.8313	194.825
24.9747	194.058
25.1189	193.294
25.2639	192.532
25.4097	191.771
25.5564	191.013
25.704	190.256
25.8523	189.502
26.0016	188.75
26.1517	187.999
26.3027	187.251
26.4545	186.504
26.6073	185.76
26.7609	185.017
26.9153	184.277
27.0707	183.537
27.227	182.8
27.3842	182.064
27.5423	181.33
27.7013	180.598
27.8612	179.868
28.0221	179.14
28.1838	178.415
28.3465	177.691
28.5102	176.97
28.6748	176.25
28.8403	175.533
29.0068	174.818
29.1743	174.106
29.3427	173.395
29.5121	172.687
29.6825	171.981
29.8538	171.277
30.0262	170.576
30.1995	169.876
30.3739	169.179
30.5492	168.485
30.7256	167.792
30.903	167.102
31.0814	166.415
31.2608	165.729
31.4413	165.046
31.6228	164.365
31.8053	163.687
31.989	163.011
32.1736	162.337
32.3594	161.665
32.5462	160.996
32.7341	160.328
32.923	159.663
33.1131	159.001
33.3043	158.34
33.4965	157.682
33.6899	157.026
33.8844	156.372
34.08	155.72
34.2768	155.07
34.4747	154.422
34.6737	153.776
34.8739	153.132
35.0752	152.49
35.2777	151.85
35.4813	151.211
35.6862	150.575
35.8922	149.94
36.0994	149.308
36.3078	148.681
36.5174	148.055
36.7282	147.431
36.9403	146.809
37.1535	146.189
37.368	145.57
37.5837	144.953
37.8007	144.338
38.0189	143.724
38.2384	143.113
38.4592	142.503
38.6812	141.895
38.9045	141.29
39.1291	140.686
39.355	140.084
39.5822	139.484
39.8107	138.886
40.0405	138.29
40.2717	137.696
40.5042	137.104
40.738	136.514
40.9732	135.926
41.2098	135.34
41.4477	134.756
41.6869	134.174
41.9276	133.595
42.1697	133.017
42.4131	132.442
42.658	131.868
42.9042	131.297
43.1519	130.728
43.401	130.161
43.6516	129.596
43.9036	129.033
44.157	128.472
44.412	127.913
44.6684	127.357
44.9262	126.802
45.1856	126.248
45.4465	125.697
45.7088	125.147
45.9727	124.599
46.2381	124.054
46.505	123.51
46.7735	122.969
47.0435	122.43
47.3151	121.893
47.5883	121.357
47.863	120.825
48.1393	120.294
48.4172	119.765
48.6968	119.238
48.9779	118.714
49.2606	118.191
49.545	117.671
49.831	117.153
50.1187	116.637
50.4081	116.123
50.6991	115.611
50.9918	115.101
51.2861	114.593
51.5822	114.087
51.88	113.583
52.1795	113.081
52.4807	112.581
52.7837	112.083
53.0884	111.587
53.3949	111.093
53.7032	110.601
54.0132	110.11
54.325	109.621
54.6387	109.134
54.9541	108.649
55.2713	108.166
55.5904	107.684
55.9114	107.204
56.2341	106.726
56.5588	106.25
56.8853	105.776
57.2137	105.304
57.544	104.833
57.8762	104.364
58.2103	103.898
58.5464	103.433
58.8844	102.97
59.2243	102.509
59.5662	102.049
59.9101	101.592
60.256	101.136
60.6038	100.683
60.9537	100.231
61.3056	99.7806
61.6595	99.3323
62.0155	98.8859
62.3735	98.4412
62.7336	97.9984
63.0957	97.5573
63.46	97.1179
63.8263	96.6803
64.1948	96.2444
64.5654	95.8103
64.9382	95.378
65.3131	94.9474
65.6901	94.5186
66.0693	94.0916
66.4508	93.6664
66.8344	93.2429
67.2202	92.8212
67.6083	92.4013
67.9986	91.9831
68.3912	91.5667
68.786	91.152
69.1831	90.739
69.5825	90.3278
69.9842	89.9183
70.3882	89.5105
70.7946	89.1044
71.2033	88.6999
71.6143	88.2971
72.0278	87.8959
72.4436	87.4963
72.8618	87.0984
73.2825	86.702
73.7055	86.3073
74.131	85.9143
74.559	85.5228
74.9894	85.133
75.4223	84.7449
75.8578	84.3584
76.2957	83.9735
76.7361	83.5903
77.1792	83.2087
77.6247	82.8288
78.0728	82.4505
78.5236	82.0738
78.9769	81.6988
79.4328	81.3254
79.8914	80.9535
80.3526	80.5833
80.8165	80.2147
81.2831	79.8477
81.7523	79.4822
82.2243	79.1183
82.699	78.7559
83.1764	78.3951
83.6566	78.0358
84.1395	77.678
84.6253	77.3217
85.1138	76.967
85.6052	76.6137
86.0994	76.2618
86.5964	75.9114
87.0964	75.5625
87.5992	75.2149
88.1049	74.8687
88.6135	74.5239
89.1251	74.1804
89.6396	73.8381
90.1571	73.497
90.6776	73.1565
91.2011	72.8173
91.7276	72.4794
92.2571	72.1428
92.7897	71.8075
93.3254	71.4735
93.8642	71.1409
94.4061	70.8096
94.9511	70.4797
95.4993	70.1511
96.0506	69.824
96.6051	69.4982
97.1628	69.1739
97.7237	68.851
98.2879	68.5296
98.8553	68.2096
99.426	67.8911
100	67.5741
100.577	67.2585
101.158	66.9445
101.742	66.6319
102.329	66.3209
102.92	66.0114
103.514	65.7034
104.112	65.397
104.713	65.0921
105.317	64.7888
105.925	64.487
106.537	64.1867
107.152	63.8881
107.771	63.5909
108.393	63.2954
109.018	63.0014
109.648	62.7089
110.281	62.418
110.917	62.1287
111.558	61.8409
112.202	61.5547
112.85	61.27
113.501	60.9868
114.156	60.7051
114.815	60.425
115.478	60.1464
116.145	59.8692
116.815	59.5936
117.49	59.3193
118.168	59.0466
118.85	58.7752
119.536	58.5053
120.226	58.2368
120.921	57.9696
121.619	57.7038
122.321	57.4393
123.027	57.176
123.737	56.9141
124.451	56.6534
125.17	56.3938
125.893	56.1355
126.619	55.8782
127.35	55.6221
128.086	55.367
128.825	55.1129
129.569	54.8598
130.317	54.6075
131.069	54.3562
131.826	54.1057
132.587	53.8559
133.352	53.6069
134.122	53.3585
134.896	53.1106
135.675	52.8697
136.458	52.6303
137.246	52.3915
138.038	52.1532
138.835	51.9156
139.637	51.6786
140.443	51.4423
141.254	51.2065
142.069	50.9715
142.889	50.7371
143.714	50.5034
144.544	50.2704
145.378	50.0381
146.218	49.8065
147.062	49.5757
147.911	49.3456
148.765	49.1163
149.624	48.8877
150.487	48.6599
151.356	48.4329
152.23	48.2068
153.109	47.9814
153.993	47.7569
154.882	47.5332
155.776	47.3104
156.675	47.0884
157.58	46.8673
158.489	46.6471
159.404	46.4278
160.325	46.2093
161.25	45.9918
162.181	45.7752
163.117	45.5596
164.059	45.3449
165.006	45.1311
165.959	44.9183
166.917	44.7065
167.88	44.4956
168.85	44.2857
169.824	44.0768
170.805	43.8689
171.791	43.662
172.783	43.4561
173.78	43.2512
174.783	43.0473
175.792	42.8445
176.807	42.6427
177.828	42.4419
178.855	42.2421
179.887	42.0434
180.926	41.8447
181.97	41.6468
183.021	41.4501
184.077	41.2543
185.14	41.0596
186.209	40.866
187.284	40.6734
188.365	40.4818
189.452	40.2913
190.546	40.1018
191.646	39.9134
192.752	39.726
193.865	39.5396
194.984	39.3543
196.11	39.1701
197.242	38.9868
198.381	38.8046
199.526	38.6234
200.678	38.4432
201.837	38.264
203.002	38.0858
204.174	37.9086
205.353	37.7324
206.538	37.5571
207.73	37.3828
208.93	37.2094
210.136	37.037
211.349	36.8654
212.569	36.6948
213.796	36.525
215.03	36.3561
216.272	36.188
217.52	36.0207
218.776	35.8542
220.039	35.6885
221.309	35.5236
222.587	35.3593
223.872	35.1958
225.165	35.0329
226.464	34.8706
227.772	34.7089
229.087	34.5479
230.409	34.3875
231.739	34.2278
233.077	34.0687
234.423	33.9103
235.776	33.7526
237.137	33.5956
238.506	33.4392
239.883	33.2835
241.268	33.1285
242.661	32.9742
244.062	32.8205
245.471	32.6676
246.888	32.5153
248.313	32.3637
249.747	32.2129
251.189	32.0627
252.639	31.9131
254.097	31.7643
255.564	31.6162
257.04	31.4687
258.523	31.3219
260.016	31.1758
261.517	31.0304
263.027	30.8857
264.545	30.7416
266.073	30.5982
267.609	30.4554
269.153	30.3133
270.707	30.1717
272.27	30.0305
273.842	29.89
275.423	29.7502
277.013	29.611
278.612	29.4724
280.221	29.3345
281.838	29.1973
283.465	29.0608
285.102	28.9249
286.748	28.7897
288.403	28.6552
290.068	28.5213
291.743	28.3882
293.427	28.2557
295.121	28.1239
296.825	27.9928
298.538	27.8624
300.262	27.7327
301.995	27.6036
303.739	27.4753
305.492	27.3476
307.256	27.2206
309.03	27.0943
310.814	26.9687
312.608	26.8438
314.413	26.7195
316.228	26.5959
318.053	26.473
319.89	26.3508
321.736	26.2292
323.594	26.1082
325.462	25.9879
327.341	25.8682
329.23	25.7492
331.131	25.6308
333.043	25.513
334.965	25.3958
336.899	25.2792
338.844	25.1632
340.8	25.0477
342.768	24.9328
344.747	24.8185
346.737	24.7046
348.739	24.5913
350.752	24.4785
352.777	24.3662
354.813	24.2543
356.862	24.1429
358.922	24.0319
360.994	23.9218
363.078	23.8126
365.174	23.7038
367.282	23.5954
369.403	23.4875
371.535	23.3799
373.68	23.2728
375.837	23.1662
378.007	23.0599
380.189	22.9541
382.384	22.8487
384.592	22.7438
386.812	22.6394
389.045	22.5353
391.291	22.4318
393.55	22.3287
395.822	22.226
398.107	22.1239
400.405	22.0222
402.717	21.9209
405.042	21.8202
407.38	21.7199
409.732	21.6201
412.098	21.5207
414.477	21.4219
416.869	21.3235
419.276	21.2256
421.697	21.1282
424.131	21.0312
426.58	20.9347
429.042	20.8388
431.519	20.7433
434.01	20.6482
436.516	20.5537
439.036	20.4596
441.57	20.366
444.12	20.2729
446.684	20.1802
449.262	20.088
451.856	19.9961
454.465	19.9046
457.088	19.8135
459.727	19.723
462.381	19.6328
465.05	19.5432
467.735	19.454
470.435	19.3653
473.151	19.277
475.883	19.1892
478.63	19.1018
481.393	19.0149
484.172	18.9285
486.968	18.8426
489.779	18.757
492.606	18.672
495.45	18.5874
498.31	18.5032
501.187	18.4195
504.081	18.3362
506.991	18.2534
509.918	18.171
512.861	18.089
515.822	18.0074
518.8	17.9263
521.795	17.8455
524.807	17.7652
527.837	17.6853
530.884	17.6057
533.949	17.5265
537.032	17.4477
540.132	17.3693
543.25	17.2911
546.387	17.2134
549.541	17.136
552.713	17.0589
555.904	16.9823
559.114	16.9059
562.341	16.83
565.588	16.7544
568.853	16.6791
572.137	16.6042
575.44	16.5297
578.762	16.4556
582.103	16.3818
585.464	16.3084
588.844	16.2353
592.243	16.1626
595.662	16.0903
599.101	16.0184
602.56	15.9468
606.038	15.8755
609.537	15.8046
613.056	15.7341
616.595	15.664
620.155	15.5941
623.735	15.5247
627.336	15.4556
630.957	15.3868
634.6	15.3183
638.263	15.2502
641.948	15.1825
645.654	15.1151
649.382	15.048
653.131	14.9813
656.901	14.9149
660.693	14.8488
664.508	14.7831
668.344	14.7177
672.202	14.6527
676.083	14.588
679.986	14.5236
683.912	14.4595
687.86	14.3958
691.831	14.3324
695.825	14.2693
699.842	14.2066
703.882	14.1441
707.946	14.082
712.033	14.0201
716.143	13.9586
720.278	13.8973
724.436	13.8364
728.618	13.7757
732.825	13.7153
737.055	13.6552
741.31	13.5954
745.59	13.5359
749.894	13.4767
754.223	13.4178
758.578	13.3592
762.957	13.3009
767.361	13.2429
771.792	13.1852
776.247	13.1278
780.728	13.0707
785.236	13.0138
789.769	12.9573
794.328	12.9011
798.914	12.8451
803.526	12.7895
808.165	12.7341
812.831	12.679
817.523	12.6242
822.243	12.5697
826.99	12.5155
831.764	12.4616
836.566	12.4079
841.395	12.3545
846.253	12.3014
851.138	12.2485
856.052	12.196
860.994	12.1436
865.964	12.0915
870.964	12.0389
875.992	11.9836
881.049	11.9285
886.135	11.8738
891.251	11.8192
896.396	11.765
901.571	11.711
906.776	11.6571
912.011	11.6035
917.276	11.5501
922.571	11.497
927.897	11.4441
933.254	11.3915
938.642	11.3392
944.061	11.2871
949.511	11.2353
954.993	11.1838
960.506	11.1325
966.051	11.0815
971.628	11.0308
977.237	10.9803
982.879	10.9301
988.553	10.8802
994.26	10.8306
1000	10.7813
1005.77	10.7322
1011.58	10.6834
1017.42	10.6349
1023.29	10.5867
1029.2	10.5388
1035.14	10.4911
1041.12	10.4438
1047.13	10.3967
1053.17	10.3499
1059.25	10.3034
1065.37	10.2572
1071.52	10.2113
1077.71	10.1656
1083.93	10.1203
1090.18	10.0752
1096.48	10.0304
1102.81	9.98592
1109.17	9.94171
1115.58	9.89779
1122.02	9.85414
1128.5	9.81078
1135.01	9.7677
1141.56	9.72489
1148.15	9.68236
1154.78	9.64011
1161.45	9.59812
1168.15	9.55641
1174.9	9.51496
1181.68	9.47377
1188.5	9.43285
1195.36	9.39218
1202.26	9.35176
1209.21	9.3116
1216.19	9.27168
1223.21	9.23199
1230.27	9.19255
1237.37	9.15333
1244.51	9.11435
1251.7	9.07558
1258.93	9.03702
1266.19	8.99868
1273.5	8.96053
1280.86	8.92258
1288.25	8.88482
1295.69	8.84724
1303.17	8.80983
1310.69	8.77258
1318.26	8.73549
1325.87	8.69855
1333.52	8.66175
1341.22	8.62507
1348.96	8.58851
1356.75	8.55304
1364.58	8.51784
1372.46	8.48275
1380.38	8.44778
1388.35	8.41293
1396.37	8.3782
1404.43	8.34359
1412.54	8.30911
1420.69	8.27475
1428.89	8.24052
1437.14	8.20641
1445.44	8.17244
1453.78	8.1386
1462.18	8.1049
1470.62	8.07133
1479.11	8.0379
1487.65	8.00461
1496.24	7.97145
1504.87	7.93844
1513.56	7.90558
1522.3	7.87286
1531.09	7.84029
1539.93	7.80786
1548.82	7.77559
1557.76	7.74346
1566.75	7.71149
1575.8	7.67967
1584.89	7.64801
1594.04	7.61651
1603.25	7.58516
1612.5	7.55397
1621.81	7.52295
1631.17	7.49208
1640.59	7.46138
1650.06	7.43084
1659.59	7.40047
1669.17	7.37026
1678.8	7.34022
1688.5	7.31035
1698.24	7.28064
1708.05	7.25111
1717.91	7.22174
1727.83	7.19255
1737.8	7.16353
1747.83	7.13467
1757.92	7.106
1768.07	7.07749
1778.28	7.04916
1788.55	7.021
1798.87	6.99301
1809.26	6.96505
1819.7	6.93724
1830.21	6.9096
1840.77	6.88214
1851.4	6.85485
1862.09	6.82773
1872.84	6.80079
1883.65	6.77402
1894.52	6.74742
1905.46	6.721
1916.46	6.69475
1927.52	6.66868
1938.65	6.64277
1949.84	6.61704
1961.1	6.59148
1972.42	6.56609
1983.81	6.54086
1995.26	6.51581
2006.78	6.49092
2018.37	6.46619
2030.02	6.44163
2041.74	6.41723
2053.53	6.393
2065.38	6.36892
2077.3	6.345
2089.3	6.32123
2101.36	6.29761
2113.49	6.27415
2125.69	6.25083
2137.96	6.22765
2150.3	6.20462
2162.72	6.18172
2175.2	6.15896
2187.76	6.13633
2200.39	6.11383
2213.09	6.09145
2225.87	6.06919
2238.72	6.04705
2251.65	6.02501
2264.64	6.00308
2277.72	5.98125
2290.87	5.95953
2304.09	5.93792
2317.39	5.91641
2330.77	5.89502
2344.23	5.87374
2357.76	5.85257
2371.37	5.8315
2385.06	5.81055
2398.83	5.78971
2412.68	5.76899
2426.61	5.74837
2440.62	5.72787
2454.71	5.70748
2468.88	5.6872
2483.13	5.66703
2497.47	5.64697
2511.89	5.62703
2526.39	5.60719
2540.97	5.58747
2555.64	5.56786
2570.4	5.54836
2585.23	5.52897
2600.16	5.50969
2615.17	5.49051
2630.27	5.47145
2645.45	5.45249
2660.73	5.43364
2676.09	5.41489
2691.53	5.39625
2707.07	5.37769
2722.7	5.3592
2738.42	5.34083
2754.23	5.32255
2770.13	5.30438
2786.12	5.28631
2802.21	5.26835
2818.38	5.2505
2834.65	5.23274
2851.02	5.2151
2867.48	5.19756
2884.03	5.18013
2900.68	5.16281
2917.43	5.14559
2934.27	5.12849
2951.21	5.11149
2968.25	5.09459
2985.38	5.07781
3002.62	5.06113
3019.95	5.04456
3037.39	5.0281
3054.92	5.01175
3072.56	4.9955
3090.3	4.97936
3108.14	4.96332
3126.08	4.94739
3144.13	4.93157
3162.28	4.91585
3180.53	4.90024
3198.9	4.88473
3217.36	4.86932
3235.94	4.85401
3254.62	4.8388
3273.41	4.82369
3292.3	4.80868
3311.31	4.79377
3330.43	4.77895
3349.65	4.76423
3368.99	4.7496
3388.44	4.73506
3408	4.72061
3427.68	4.70624
3447.47	4.69196
3467.37	4.67776
3487.39	4.66365
3507.52	4.64961
3527.77	4.63565
3548.13	4.62176
3568.62	4.60794
3589.22	4.59419
3609.94	4.58056
3630.78	4.56708
3651.74	4.55366
3672.82	4.5403
3694.03	4.52701
3715.35	4.51379
3736.8	4.50063
3758.37	4.48754
3780.07	4.47452
3801.89	4.46157
3823.84	4.44868
3845.92	4.43587
3868.12	4.42312
3890.45	4.41045
3912.91	4.39784
3935.5	4.38531
3958.22	4.37285
3981.07	4.36046
4004.05	4.34814
4027.17	4.3359
4050.42	4.32372
4073.8	4.31162
4097.32	4.2996
4120.98	4.28764
4144.77	4.27576
4168.69	4.26396
4192.76	4.25222
4216.97	4.24056
4241.31	4.22898
4265.8	4.21746
4290.42	4.20602
4315.19	4.19466
4340.1	4.18336
4365.16	4.17214
4390.36	4.16099
4415.7	4.14991
4441.2	4.13891
4466.84	4.12797
4492.62	4.11711
4518.56	4.10629
4544.65	4.09554
4570.88	4.08486
4597.27	4.07424
4623.81	4.0637
4650.5	4.05323
4677.35	4.04282
4704.35	4.03249
4731.51	4.02223
4758.83	4.01203
4786.3	4.00191
4813.93	3.99186
4841.72	3.98187
4869.68	3.97196
4897.79	3.96211
4926.06	3.95234
4954.5	3.94263
4983.1	3.93298
5011.87	3.92341
5040.81	3.9139
5069.91	3.90445
5099.18	3.89507
5128.61	3.88576
5158.22	3.87651
5188	3.86732
5217.95	3.85819
5248.07	3.84913
5278.37	3.84012
5308.84	3.83117
5339.49	3.82228
5370.32	3.81344
5401.32	3.80466
5432.5	3.79593
5463.87	3.78725
5495.41	3.77863
5527.13	3.77006
5559.04	3.76154
5591.14	3.75308
5623.41	3.74467
5655.88	3.73632
5688.53	3.72802
5721.37	3.71978
5754.4	3.71159
5787.62	3.70345
5821.03	3.69537
5854.64	3.68735
5888.44	3.67937
5922.43	3.67146
5956.62	3.66359
5991.01	3.65579
6025.6	3.64803
6060.38	3.64033
6095.37	3.63268
6130.56	3.62509
6165.95	3.61754
6201.55	3.61005
6237.35	3.60261
6273.36	3.59523
6309.57	3.58789
6346	3.58061
6382.63	3.57337
6419.48	3.56619
6456.54	3.55905
6493.82	3.55197
6531.31	3.54494
6569.01	3.53795
6606.93	3.53102
6645.08	3.52414
6683.44	3.51731
6722.02	3.51052
6760.83	3.50379
6799.86	3.49711
6839.12	3.49047
6878.6	3.48389
6918.31	3.47735
6958.25	3.47086
6998.42	3.46442
7038.82	3.45802
7079.46	3.45167
7120.33	3.44536
7161.43	3.43911
7202.78	3.43289
7244.36	3.42672
7286.18	3.42059
7328.25	3.41451
7370.55	3.40847
7413.1	3.40247
7455.9	3.39652
7498.94	3.39061
7542.23	3.38474
7585.78	3.37892
7629.57	3.37314
7673.61	3.3674
7717.92	3.36171
7762.47	3.35606
7807.28	3.35044
7852.36	3.34488
7897.69	3.33935
7943.28	3.33386
7989.14	3.32842
8035.26	3.32301
8081.65	3.31764
8128.31	3.31232
8175.23	3.30703
8222.43	3.30177
8269.9	3.29656
8317.64	3.29138
8365.66	3.28624
8413.95	3.28113
8462.53	3.27606
8511.38	3.27101
8560.52	3.266
8609.94	3.26103
8659.64	3.25608
8709.64	3.25116
8759.92	3.24627
8810.49	3.2414
8861.35	3.23656
8912.51	3.23174
8963.96	3.22695
9015.71	3.22211
9067.76	3.21713
9120.11	3.21219
9172.76	3.20728
9225.71	3.20241
9278.97	3.19758
9332.54	3.19278
9386.42	3.18802
9440.61	3.18329
9495.11	3.1786
9549.93	3.17395
9605.06	3.16933
9660.51	3.16474
9716.28	3.16019
9772.37	3.15568
9828.79	3.1512
9885.53	3.14675
9942.6	3.14233
10000	3.13795
10057.7	3.13361
10115.8	3.12929
10174.2	3.12501
10232.9	3.12076
10292	3.11655
10351.4	3.11237
10411.2	3.10822
10471.3	3.1041
10531.7	3.10001
10592.5	3.09596
10653.7	3.09193
10715.2	3.08794
10777.1	3.08398
10839.3	3.08005
10901.8	3.07615
10964.8	3.07229
11028.1	3.06845
11091.7	3.06464
11155.8	3.06087
11220.2	3.05712
11285	3.0534
11350.1	3.04972
11415.6	3.04606
11481.5	3.04243
11547.8	3.03883
11614.5	3.03526
11681.5	3.03172
11749	3.02821
11816.8	3.02472
11885	3.02127
11953.6	3.01784
12022.6	3.01444
12092.1	3.01107
12161.9	3.00772
12232.1	3.0044
12302.7	3.00112
12373.7	2.99785
12445.1	2.99462
12517	2.99141
12589.3	2.98823
12661.9	2.98507
12735	2.98194
12808.6	2.97884
12882.5	2.97576
12956.9	2.97271
13031.7	2.96969
13106.9	2.96669
13182.6	2.96371
13258.7	2.96076
13335.2	2.95784
13412.2	2.95494
13489.6	2.95207
13567.5	2.94922
13645.8	2.94639
13724.6	2.94359
13803.8	2.94082
13883.5	2.93806
13963.7	2.93534
14044.3	2.93263
14125.4	2.92995
14206.9	2.92729
14288.9	2.92466
14371.4	2.92205
14454.4	2.91946
14537.8	2.9169
14621.8	2.91435
14706.2	2.91183
14791.1	2.90934
14876.5	2.90686
14962.4	2.90441
15048.7	2.90198
15135.6	2.89957
15223	2.89719
15310.9	2.89482
15399.3	2.89248
15488.2	2.89016
15577.6	2.88786
15667.5	2.88558
15758	2.88332
15848.9	2.88108
15940.4	2.87886
16032.5	2.87667
16125	2.87449
16218.1	2.87233
16311.7	2.8702
16405.9	2.86808
16500.6	2.86599
16595.9	2.86391
16691.7	2.86186
16788	2.85982
16885	2.8578
16982.4	2.85581
17080.5	2.85383
17179.1	2.85187
17278.3	2.84993
17378	2.84801
17478.3	2.8461
17579.2	2.84422
17680.7	2.84235
17782.8	2.8405
17885.5	2.83867
17988.7	2.83686
18092.6	2.83507
18197	2.83329
18302.1	2.83154
18407.7	2.8298
18514	2.82807
18620.9	2.82637
18728.4	2.82468
18836.5	2.82301
18945.2	2.82135
19054.6	2.81972
19164.6	2.81809
19275.2	2.81649
19386.5	2.8149
19498.4	2.81333
19611	2.81178
19724.2	2.81024
19838.1	2.80872
19952.6	2.80721
20067.8	2.80572
20183.7	2.80424
20300.2	2.80279
20417.4	2.80134
20535.3	2.79991
20653.8	2.7985
20773	2.7971
20893	2.79572
21013.6	2.79435
21134.9	2.793
21256.9	2.79166
21379.6	2.79034
21503	2.78903
21627.2	2.78774
21752	2.78646
21877.6	2.78519
22003.9	2.78394
22130.9	2.7827
22258.7	2.78148
22387.2	2.78027
22516.5	2.77907
22646.4	2.77789
22777.2	2.77672
22908.7	2.77557
23040.9	2.77442
23173.9	2.77329
23307.7	2.77218
23442.3	2.77108
23577.6	2.76999
23713.7	2.76891
23850.6	2.76785
23988.3	2.7668
24126.8	2.76576
24266.1	2.76473
24406.2	2.76372
24547.1	2.76271
24688.8	2.76173
24831.3	2.76075
24974.7	2.75978
25118.9	2.75883
25263.9	2.75789
25409.7	2.75696
25556.4	2.75604
25704	2.75513
25852.3	2.75424
26001.6	2.75335
26151.7	2.75248
26302.7	2.75162
26454.5	2.75077
26607.3	2.74993
26760.9	2.7491
26915.3	2.74828
27070.7	2.74748
27227	2.74668
27384.2	2.7459
27542.3	2.74512
27701.3	2.74436
27861.2	2.7436
28022.1	2.74286
28183.8	2.74213
28346.5	2.7414
28510.2	2.74069
28674.8	2.73998
28840.3	2.73929
29006.8	2.73861
29174.3	2.73793
29342.7	2.73727
29512.1	2.73661
29682.5	2.73596
29853.8	2.73533
30026.2	2.7347
30199.5	2.73408
30373.9	2.73347
30549.2	2.73287
30725.6	2.73228
30903	2.7317
31081.4	2.73113
31260.8	2.73056
31441.3	2.73
31622.8	2.72946
31805.3	2.72892
31989	2.72839
32173.6	2.72787
32359.4	2.72735
32546.2	2.72685
32734.1	2.72635
32923	2.72586
33113.1	2.72538
33304.3	2.7249
33496.5	2.72444
33689.9	2.72398
33884.4	2.72353
34080	2.72309
34276.8	2.72265
34474.7	2.72223
34673.7	2.72181
34873.9	2.72139
35075.2	2.72099
35277.7	2.72059
35481.3	2.7202
35686.2	2.71981
35892.2	2.71944
36099.4	2.71907
36307.8	2.7187
36517.4	2.71835
36728.2	2.718
36940.3	2.71766
37153.5	2.71732
37368	2.71699
37583.7	2.71667
37800.7	2.71635
38018.9	2.71604
38238.4	2.71574
38459.2	2.71544
38681.2	2.71515
38904.5	2.71486
39129.1	2.71459
39355	2.71431
39582.2	2.71405
39810.7	2.71379
40040.5	2.71353
40271.7	2.71328
40504.2	2.71304
40738	2.7128
40973.2	2.71257
41209.8	2.71234
41447.7	2.71212
41686.9	2.7119
41927.6	2.71169
42169.7	2.71149
42413.1	2.71129
42658	2.71109
42904.2	2.7109
43151.9	2.71072
43401	2.71054
43651.6	2.71037
43903.6	2.7102
44157	2.71003
44412	2.70987
44668.4	2.70972
44926.2	2.70957
45185.6	2.70942
45446.5	2.70928
45708.8	2.70915
45972.7	2.70902
46238.1	2.70889
46505	2.70877
46773.5	2.70865
47043.5	2.70853
47315.1	2.70843
47588.3	2.70832
47863	2.70822
48139.3	2.70812
48417.2	2.70803
48696.8	2.70794
48977.9	2.70786
49260.6	2.70778
49545	2.7077
49831	2.70763
50118.7	2.70756
50408.1	2.70749
50699.1	2.70743
50991.8	2.70737
51286.1	2.70732
51582.2	2.70727
51880	2.70722
52179.5	2.70718
52480.7	2.70714
52783.7	2.7071
53088.4	2.70707
53394.9	2.70704
53703.2	2.70701
54013.2	2.70699
54325	2.70697
54638.7	2.70695
54954.1	2.70694
55271.3	2.70693
55590.4	2.70692
55911.4	2.70692
56234.1	2.70692
56558.8	2.70692
56885.3	2.70692
57213.7	2.70693
57544	2.70694
57876.2	2.70695
58210.3	2.70697
58546.4	2.70699
58884.4	2.70701
59224.3	2.70703
59566.2	2.70706
59910.1	2.70709
60256	2.70712
60603.8	2.70715
60953.7	2.70719
61305.6	2.70723
61659.5	2.70727
62015.5	2.70732
62373.5	2.70736
62733.6	2.70741
63095.7	2.70746
63460	2.70751
63826.3	2.70757
64194.8	2.70763
64565.4	2.70769
64938.2	2.70775
65313.1	2.70781
65690.1	2.70788
66069.3	2.70794
66450.8	2.70801
66834.4	2.70808
67220.2	2.70816
67608.3	2.70823
67998.6	2.70831
68391.2	2.70839
68786	2.70847
69183.1	2.70855
69582.5	2.70864
69984.2	2.70872
70388.2	2.70881
70794.6	2.7089
71203.3	2.70899
71614.3	2.70908
72027.8	2.70918
72443.6	2.70927
72861.8	2.70937
73282.5	2.70947
73705.5	2.70957
74131	2.70967
74559	2.70977
74989.4	2.70988
75422.3	2.70998
75857.8	2.71009
76295.7	2.7102
76736.1	2.71031
77179.2	2.71042
77624.7	2.71053
78072.8	2.71065
78523.6	2.71076
78976.9	2.71088
79432.8	2.71099
79891.4	2.71111
80352.6	2.71123
80816.5	2.71135
81283.1	2.71147
81752.3	2.71159
82224.3	2.71172
82699	2.71184
83176.4	2.71196
83656.6	2.71209
84139.5	2.71222
84625.3	2.71234
85113.8	2.71247
85605.2	2.7126
86099.4	2.71273
86596.4	2.71286
87096.4	2.713
87599.2	2.71313
88104.9	2.71326
88613.5	2.71339
89125.1	2.71353
89639.6	2.71366
90157.1	2.7138
90677.6	2.71394
91201.1	2.71407
91727.6	2.71421
92257.1	2.71435
92789.7	2.71449
93325.4	2.71463
93864.2	2.71477
94406.1	2.71491
94951.1	2.71505
95499.3	2.71519
96050.6	2.71533
96605.1	2.71548
97162.8	2.71562
97723.7	2.71576
98287.9	2.71591
98855.3	2.71605
99426	2.71619
100000	2.71634
100577	2.71648
101158	2.71663
101742	2.71678
102329	2.71692
102920	2.71707
103514	2.71721
104112	2.71736
104713	2.71751
105317	2.71765
105925	2.7178
106537	2.71795
107152	2.7181
107771	2.71824
108393	2.71839
109018	2.71854
109648	2.71869
110281	2.71884
110917	2.71898
111558	2.71913
112202	2.71928
112850	2.71943
113501	2.71958
114156	2.71973
114815	2.71988
115478	2.72002
116145	2.72017
116815	2.72032
117490	2.72047
118168	2.72062
118850	2.72077
119536	2.72091
120226	2.72106
120921	2.72121
121619	2.72136
122321	2.72151
123027	2.72165
123737	2.7218
124451	2.72195
125170	2.72209
125893	2.72224
126619	2.72239
127350	2.72254
128086	2.72268
128825	2.72283
129569	2.72297
130317	2.72312
131069	2.72327
131826	2.72341
132587	2.72356
133352	2.7237
134122	2.72384
134896	2.72399
135675	2.72413
136458	2.72428
137246	2.72442
138038	2.72456
138835	2.7247
139637	2.72485
140443	2.72499
141254	2.72513
142069	2.72527
142889	2.72541
143714	2.72555
144544	2.72569
145378	2.72583
146218	2.72597
147062	2.72611
147911	2.72625
148765	2.72639
149624	2.72653
150487	2.72666
151356	2.7268
152230	2.72694
153109	2.72707
153993	2.72721
154882	2.72734
155776	2.72748
156675	2.72761
157580	2.72774
158489	2.72788
159404	2.72801
160325	2.72814
161250	2.72827
162181	2.72841
163117	2.72854
164059	2.72867
165006	2.7288
165959	2.72893
166917	2.72905
167880	2.72918
168850	2.72931
169824	2.72944
170805	2.72956
171791	2.72969
172783	2.72981
173780	2.72994
174783	2.73006
175792	2.73019
176807	2.73031
177828	2.73043
178855	2.73055
179887	2.73068
180926	2.7308
181970	2.73092
183021	2.73104
184077	2.73116
185140	2.73127
186209	2.73139
187284	2.73151
188365	2.73163
189452	2.73174
190546	2.73186
191646	2.73197
192752	2.73209
193865	2.7322
194984	2.73231
196110	2.73242
197242	2.73254
198381	2.73265
199526	2.73276
200678	2.73287
201837	2.73298
203002	2.73309
204174	2.73319
205353	2.7333
206538	2.73341
207730	2.73351
208930	2.73362
210136	2.73372
211349	2.73383
212569	2.73393
213796	2.73403
215030	2.73413
216272	2.73424
217520	2.73434
218776	2.73444
220039	2.73454
221309	2.73463
222587	2.73473
223872	2.73483
225165	2.73493
226464	2.73502
227772	2.73512
229087	2.73521
230409	2.73531
231739	2.7354
233077	2.73549
234423	2.73559
235776	2.73568
237137	2.73577
238506	2.73586
239883	2.73595
241268	2.73604
242661	2.73612
244062	2.73621
245471	2.7363
246888	2.73638
248313	2.73647
249747	2.73655
251189	2.73664
252639	2.73672
254097	2.7368
255564	2.73689
257040	2.73697
258523	2.73705
260016	2.73713
261517	2.73721
263027	2.73729
264545	2.73736
266073	2.73744
267609	2.73752
269153	2.73759
270707	2.73767
272270	2.73774
273842	2.73782
275423	2.73789
277013	2.73796
278612	2.73804
280221	2.73811
281838	2.73818
283465	2.73825
285102	2.73832
286748	2.73838
288403	2.73845
290068	2.73852
291743	2.73859
293427	2.73865
295121	2.73872
296825	2.73878
298538	2.73885
300262	2.73891
301995	2.73897
303739	2.73904
305492	2.7391
307256	2.73916
309030	2.73922
310814	2.73928
312608	2.73934
314413	2.7394
316228	2.73945
318053	2.73951
319890	2.73957
321736	2.73962
323594	2.73968
325462	2.73973
327341	2.73979
329230	2.73984
331131	2.73989
333043	2.73994
334965	2.74
336899	2.74005
338844	2.7401
340800	2.74015
342768	2.7402
344747	2.74024
346737	2.74029
348739	2.74034
350752	2.74039
352777	2.74043
354813	2.74048
356862	2.74052
358922	2.74057
360994	2.74061
363078	2.74065
365174	2.7407
367282	2.74074
369403	2.74078
371535	2.74082
373680	2.74086
375837	2.7409
378007	2.74094
380189	2.74098
382384	2.74102
384592	2.74105
386812	2.74109
389045	2.74113
391291	2.74116
393550	2.7412
395822	2.74123
398107	2.74127
400405	2.7413
402717	2.74133
405042	2.74136
407380	2.7414
409732	2.74143
412098	2.74146
414477	2.74149
416869	2.74152
419276	2.74155
421697	2.74158
424131	2.74161
426580	2.74163
429042	2.74166
431519	2.74169
434010	2.74172
436516	2.74174
439036	2.74177
441570	2.74179
444120	2.74182
446684	2.74184
449262	2.74186
451856	2.74189
454465	2.74191
457088	2.74193
459727	2.74195
462381	2.74198
465050	2.742
467735	2.74202
470435	2.74204
473151	2.74206
475883	2.74207
478630	2.74209
481393	2.74211
484172	2.74213
486968	2.74215
489779	2.74216
492606	2.74218
495450	2.7422
498310	2.74221
501187	2.74223
504081	2.74224
506991	2.74226
509918	2.74227
512861	2.74228
515822	2.7423
518800	2.74231
521795	2.74232
524807	2.74233
527837	2.74235
530884	2.74236
533949	2.74237
537032	2.74238
540132	2.74239
543250	2.7424
546387	2.74241
549541	2.74242
552713	2.74243
555904	2.74244
559114	2.74244
562341	2.74245
565588	2.74246
568853	2.74247
572137	2.74247
575440	2.74248
578762	2.74249
582103	2.74249
585464	2.7425
588844	2.7425
592243	2.74251
595662	2.74251
599101	2.74252
602560	2.74252
606038	2.74253
609537	2.74253
613056	2.74254
616595	2.74254
620155	2.74254
623735	2.74254
627336	2.74255
630957	2.74255
634600	2.74255
638263	2.74255
641948	2.74255
645654	2.74256
649382	2.74256
653131	2.74256
656901	2.74256
660693	2.74256
664508	2.74256
668344	2.74256
672202	2.74256
676083	2.74256
679986	2.74256
683912	2.74256
687860	2.74256
691831	2.74255
695825	2.74255
699842	2.74255
703882	2.74255
707946	2.74255
712033	2.74255
716143	2.74254
720278	2.74254
724436	2.74254
728618	2.74254
732825	2.74253
737055	2.74253
741310	2.74253
745590	2.74253
749894	2.74252
754223	2.74252
758578	2.74252
762957	2.74251
767361	2.74251
771792	2.74251
776247	2.7425
780728	2.7425
785236	2.74249
789769	2.74249
794328	2.74249
798914	2.74248
803526	2.74248
808165	2.74247
812831	2.74247
817523	2.74247
822243	2.74246
826990	2.74246
831764	2.74245
836566	2.74245
841395	2.74244
846253	2.74244
851138	2.74243
856052	2.74243
860994	2.74243
865964	2.74242
870964	2.74242
875992	2.74241
881049	2.74241
886135	2.7424
891251	2.7424
896396	2.74239
901571	2.74239
906776	2.74239
912011	2.74238
917276	2.74238
922571	2.74237
927897	2.74237
933254	2.74236
938642	2.74236
944061	2.74236
949511	2.74235
954993	2.74235
960506	2.74234
966051	2.74234
971628	2.74234
977237	2.74233
982879	2.74233
988553	2.74232
994260	2.74232
1e+06	2.74232
1.00577e+06	2.74231
1.01158e+06	2.74231
1.01742e+06	2.74231
1.02329e+06	2.7423
1.0292e+06	2.7423
1.03514e+06	2.7423
1.04112e+06	2.74229
1.04713e+06	2.74229
1.05317e+06	2.74229
1.05925e+06	2.74228
1.06537e+06	2.74228
1.07152e+06	2.74228
1.07771e+06	2.74227
1.08393e+06	2.74227
1.09018e+06	2.74227
1.09648e+06	2.74226
1.10281e+06	2.74226
1.10917e+06	2.74226
1.11558e+06	2.74225
1.12202e+06	2.74225
1.1285e+06	2.74225
1.13501e+06	2.74224
1.14156e+06	2.74224
1.14815e+06	2.74224
1.15478e+06	2.74224
1.16145e+06	2.74223
1.16815e+06	2.74223
1.1749e+06	2.74223
1.18168e+06	2.74222
1.1885e+06	2.74222
1.19536e+06	2.74222
1.20226e+06	2.74222
1.20921e+06	2.74221
1.21619e+06	2.74221
1.22321e+06	2.74221
1.23027e+06	2.7422
1.23737e+06	2.7422
1.24451e+06	2.7422
1.2517e+06	2.7422
1.25893e+06	2.74219
1.26619e+06	2.74219
1.2735e+06	2.74219
1.28086e+06	2.74219
1.28825e+06	2.74218
1.29569e+06	2.74218
1.30317e+06	2.74218
1.31069e+06	2.74218
1.31826e+06	2.74217
1.32587e+06	2.74217
1.33352e+06	2.74217
1.34122e+06	2.74217
1.34896e+06	2.74216
1.35675e+06	2.74216
1.36458e+06	2.74216
1.37246e+06	2.74216
1.38038e+06	2.74216
1.38835e+06	2.74215
1.39637e+06	2.74215
1.40443e+06	2.74215
1.41254e+06	2.74215
1.42069e+06	2.74214
1.42889e+06	2.74214
1.43714e+06	2.74214
1.44544e+06	2.74214
1.45378e+06	2.74214
1.46218e+06	2.74213
1.47062e+06	2.74213
1.47911e+06	2.74213
1.48765e+06	2.74213
1.49624e+06	2.74213
1.50487e+06	2.74212
1.51356e+06	2.74212
1.5223e+06	2.74212
1.53109e+06	2.74212
1.53993e+06	2.74212
1.54882e+06	2.74211
1.55776e+06	2.74211
1.56675e+06	2.74211
1.5758e+06	2.74211
1.58489e+06	2.74211
1.59404e+06	2.74211
1.60325e+06	2.7421
1.6125e+06	2.7421
1.62181e+06	2.7421
1.63117e+06	2.7421
1.64059e+06	2.7421
1.65006e+06	2.74209
1.65959e+06	2.74209
1.66917e+06	2.74209
1.6788e+06	2.74209
1.6885e+06	2.74209
1.69824e+06	2.74209
1.70805e+06	2.74208
1.71791e+06	2.74208
1.72783e+06	2.74208
1.7378e+06	2.74208
1.74783e+06	2.74208
1.75792e+06	2.74208
1.76807e+06	2.74208
1.77828e+06	2.74207
1.78855e+06	2.74207
1.79887e+06	2.74207
1.80926e+06	2.74207
1.8197e+06	2.74207
1.83021e+06	2.74207
1.84077e+06	2.74206
1.8514e+06	2.74206
1.86209e+06	2.74206
1.87284e+06	2.74206
1.88365e+06	2.74206
1.89452e+06	2.74206
1.90546e+06	2.74206
1.91646e+06	2.74205
1.92752e+06	2.74205
1.93865e+06	2.74205
1.94984e+06	2.74205
1.9611e+06	2.74205
1.97242e+06	2.74205
1.98381e+06	2.74205
1.99526e+06	2.74205
2.00678e+06	2.74204
2.01837e+06	2.74204
2.03002e+06	2.74204
2.04174e+06	2.74204
2.05353e+06	2.74204
2.06538e+06	2.74204
2.0773e+06	2.74204
2.0893e+06	2.74204
2.10136e+06	2.74203
2.11349e+06	2.74203
2.12569e+06	2.74203
2.13796e+06	2.74203
2.1503e+06	2.74203
2.16272e+06	2.74203
2.1752e+06	2.74203
2.18776e+06	2.74203
2.20039e+06	2.74203
2.21309e+06	2.74202
2.22587e+06	2.74202
2.23872e+06	2.74202
2.25165e+06	2.74202
2.26464e+06	2.74202
2.27772e+06	2.74202
2.29087e+06	2.74202
2.30409e+06	2.74202
2.31739e+06	2.74202
2.33077e+06	2.74201
2.34423e+06	2.74201
2.35776e+06	2.74201
2.37137e+06	2.74201
2.38506e+06	2.74201
2.39883e+06	2.74201
2.41268e+06	2.74201
2.42661e+06	2.74201
2.44062e+06	2.74201
2.45471e+06	2.74201
2.46888e+06	2.742
2.48313e+06	2.742
2.49747e+06	2.742
2.51189e+06	2.742
2.52639e+06	2.742
2.54097e+06	2.742
2.55564e+06	2.742
2.5704e+06	2.742
2.58523e+06	2.742
2.60016e+06	2.742
2.61517e+06	2.742
2.63027e+06	2.74199
2.64545e+06	2.74199
2.66073e+06	2.74199
2.67609e+06	2.74199
2.69153e+06	2.74199
2.70707e+06	2.74199
2.7227e+06	2.74199
2.73842e+06	2.74199
2.75423e+06	2.74199
2.77013e+06	2.74199
2.78612e+06	2.74199
2.80221e+06	2.74198
2.81838e+06	2.74198
2.83465e+06	2.74198
2.85102e+06	2.74198
2.86748e+06	2.74198
2.88403e+06	2.74198
2.90068e+06	2.74198
2.91743e+06	2.74198
2.93427e+06	2.74198
2.95121e+06	2.74198
2.96825e+06	2.74198
2.98538e+06	2.74198
3.00262e+06	2.74198
3.01995e+06	2.74198
3.03739e+06	2.74197
3.05492e+06	2.74197
3.07256e+06	2.74197
3.0903e+06	2.74197
3.10814e+06	2.74197
3.12608e+06	2.74197
3.14413e+06	2.74197
3.16228e+06	2.74197
3.18053e+06	2.74197
3.1989e+06	2.74197
3.21736e+06	2.74197
3.23594e+06	2.74197
3.25462e+06	2.74197
3.27341e+06	2.74197
3.2923e+06	2.74196
3.31131e+06	2.74196
3.33043e+06	2.74196
3.34965e+06	2.74196
3.36899e+06	2.74196
3.38844e+06	2.74196
3.408e+06	2.74196
3.42768e+06	2.74196
3.44747e+06	2.74196
3.46737e+06	2.74196
3.48739e+06	2.74196
3.50752e+06	2.74196
3.52777e+06	2.74196
3.54813e+06	2.74196
3.56862e+06	2.74196
3.58922e+06	2.74196
3.60994e+06	2.74195
3.63078e+06	2.74195
3.65174e+06	2.74195
3.67282e+06	2.74195
3.69403e+06	2.74195
3.71535e+06	2.74195
3.7368e+06	2.74195
3.75837e+06	2.74195
3.78007e+06	2.74195
3.80189e+06	2.74195
3.82384e+06	2.74195
3.84592e+06	2.74195
3.86812e+06	2.74195
3.89045e+06	2.74195
3.91291e+06	2.74195
3.9355e+06	2.74195
3.95822e+06	2.74195
3.98107e+06	2.74195
4.00405e+06	2.74195
4.02717e+06	2.74194
4.05042e+06	2.74194
4.0738e+06	2.74194
4.09732e+06	2.74194
4.12098e+06	2.74194
4.14477e+06	2.74194
4.16869e+06	2.74194
4.19276e+06	2.74194
4.21697e+06	2.74194
4.24131e+06	2.74194
4.2658e+06	2.74194
4.29042e+06	2.74194
4.31519e+06	2.74194
4.3401e+06	2.74194
4.36516e+06	2.74194
4.39036e+06	2.74194
4.4157e+06	2.74194
4.4412e+06	2.74194
4.46684e+06	2.74194
4.49262e+06	2.74194
4.51856e+06	2.74194
4.54465e+06	2.74194
4.57088e+06	2.74193
4.59727e+06	2.74193
4.62381e+06	2.74193
4.6505e+06	2.74193
4.67735e+06	2.74193
4.70435e+06	2.74193
4.73151e+06	2.74193
4.75883e+06	2.74193
4.7863e+06	2.74193
4.81393e+06	2.74193
4.84172e+06	2.74193
4.86968e+06	2.74193
4.89779e+06	2.74193
4.92606e+06	2.74193
4.9545e+06	2.74193
4.9831e+06	2.74193
5.01187e+06	2.74193
5.04081e+06	2.74193
5.06991e+06	2.74193
5.09918e+06	2.74193
5.12861e+06	2.74193
5.15822e+06	2.74193
5.188e+06	2.74193
5.21795e+06	2.74193
5.24807e+06	2.74193
5.27837e+06	2.74192
5.30884e+06	2.74192
5.33949e+06	2.74192
5.37032e+06	2.74192
5.40132e+06	2.74192
5.4325e+06	2.74192
5.46387e+06	2.74192
5.49541e+06	2.74192
5.52713e+06	2.74192
5.55904e+06	2.74192
5.59114e+06	2.74192
5.62341e+06	2.74192
5.65588e+06	2.74192
5.68853e+06	2.74192
5.72137e+06	2.74192
5.7544e+06	2.74192
5.78762e+06	2.74192
5.82103e+06	2.74192
5.85464e+06	2.74192
5.88844e+06	2.74192
5.92243e+06	2.74192
5.95662e+06	2.74192
5.99101e+06	2.74192
6.0256e+06	2.74192
6.06038e+06	2.74192
6.09537e+06	2.74192
6.13056e+06	2.74192
6.16595e+06	2.74192
6.20155e+06	2.74192
6.23735e+06	2.74192
6.27336e+06	2.74192
6.30957e+06	2.74192
6.346e+06	2.74191
6.38263e+06	2.74191
6.41948e+06	2.74191
6.45654e+06	2.74191
6.49382e+06	2.74191
6.53131e+06	2.74191
6.56901e+06	2.74191
6.60693e+06	2.74191
6.64508e+06	2.74191
6.68344e+06	2.74191
6.72202e+06	2.74191
6.76083e+06	2.74191
6.79986e+06	2.74191
6.83912e+06	2.74191
6.8786e+06	2.74191
6.91831e+06	2.74191
6.95825e+06	2.74191
6.99842e+06	2.74191
7.03882e+06	2.74191
7.07946e+06	2.74191
7.12033e+06	2.74191
7.16143e+06	2.74191
7.20278e+06	2.74191
7.24436e+06	2.74191
7.28618e+06	2.74191
7.32825e+06	2.74191
7.37055e+06	2.74191
7.4131e+06	2.74191
7.4559e+06	2.74191
7.49894e+06	2.74191
7.54223e+06	2.74191
7.58578e+06	2.74191
7.62957e+06	2.74191
7.67361e+06	2.74191
7.71792e+06	2.74191
7.76247e+06	2.74191
7.80728e+06	2.74191
7.85236e+06	2.74191
7.89769e+06	2.74191
7.94328e+06	2.74191
7.98914e+06	2.7419
8.03526e+06	2.7419
8.08165e+06	2.7419
8.12831e+06	2.7419
8.17523e+06	2.7419
8.22243e+06	2.7419
8.2699e+06	2.7419
8.31764e+06	2.7419
8.36566e+06	2.7419
8.41395e+06	2.7419
8.46253e+06	2.7419
8.51138e+06	2.7419
8.56052e+06	2.7419
8.60994e+06	2.7419
8.65964e+06	2.7419
8.70964e+06	2.7419
8.75992e+06	2.7419
8.81049e+06	2.7419
8.86135e+06	2.7419
8.91251e+06	2.7419
8.96396e+06	2.7419
9.01571e+06	2.7419
9.06776e+06	2.7419
9.12011e+06	2.7419
9.17276e+06	2.7419
9.22571e+06	2.7419
9.27897e+06	2.7419
9.33254e+06	2.7419
9.38642e+06	2.7419
9.44061e+06	2.7419
9.49511e+06	2.7419
9.54993e+06	2.7419
9.60506e+06	2.7419
9.66051e+06	2.7419
9.71628e+06	2.7419
9.77237e+06	2.7419
9.82879e+06	2.7419
9.88553e+06	2.7419
9.9426e+06	2.7419
1e+07	2.7419
