Stopping power dEdx from Ionisation for C12[0.0] Z = 6 in G4_TISSUE_SOFT_ICRP, process name: ionIoni
E [MeV]	dEdx [MeV/mm]
0.001	40.2919
0.00100577	40.408
0.00101158	40.5245
0.00101742	40.6413
0.00102329	40.7584
0.0010292	40.8759
0.00103514	40.9937
0.00104112	41.1119
0.00104713	41.2304
0.00105317	41.3492
0.00105925	41.4684
0.00106537	41.5879
0.00107152	41.7078
0.00107771	41.828
0.00108393	41.9486
0.00109018	42.0695
0.00109648	42.1908
0.00110281	42.3124
0.00110917	42.4343
0.00111558	42.5566
0.00112202	42.6793
0.0011285	42.8023
0.00113501	42.9257
0.00114156	43.0494
0.00114815	43.1735
0.00115478	43.298
0.00116145	43.4228
0.00116815	43.5479
0.0011749	43.6734
0.00118168	43.7993
0.0011885	43.9256
0.00119536	44.0522
0.00120226	44.1792
0.00120921	44.3065
0.00121619	44.4342
0.00122321	44.5623
0.00123027	44.6907
0.00123737	44.8195
0.00124451	44.9487
0.0012517	45.0783
0.00125893	45.2082
0.00126619	45.3385
0.0012735	45.4692
0.00128086	45.6003
0.00128825	45.7317
0.00129569	45.8635
0.00130317	45.9957
0.00131069	46.1283
0.00131826	46.2613
0.00132587	46.3946
0.00133352	46.5283
0.00134122	46.6624
0.00134896	46.7969
0.00135675	46.9318
0.00136458	47.0671
0.00137246	47.2028
0.00138038	47.3388
0.00138835	47.4753
0.00139637	47.6121
0.00140443	47.7493
0.00141254	47.887
0.00142069	48.025
0.00142889	48.1634
0.00143714	48.3023
0.00144544	48.4415
0.00145378	48.5811
0.00146218	48.7211
0.00147062	48.8616
0.00147911	49.0024
0.00148765	49.1437
0.00149624	49.2853
0.00150487	49.4274
0.00151356	49.5698
0.0015223	49.7127
0.00153109	49.856
0.00153993	49.9997
0.00154882	50.1438
0.00155776	50.2884
0.00156675	50.4333
0.0015758	50.5787
0.00158489	50.7245
0.00159404	50.8707
0.00160325	51.0173
0.0016125	51.1643
0.00162181	51.3118
0.00163117	51.4597
0.00164059	51.608
0.00165006	51.7568
0.00165959	51.906
0.00166917	52.0556
0.0016788	52.2056
0.0016885	52.3561
0.00169824	52.507
0.00170805	52.6584
0.00171791	52.8102
0.00172783	52.9624
0.0017378	53.115
0.00174783	53.2681
0.00175792	53.4217
0.00176807	53.5756
0.00177828	53.7301
0.00178855	53.8849
0.00179887	54.0403
0.00180926	54.196
0.0018197	54.3522
0.00183021	54.5089
0.00184077	54.666
0.0018514	54.8236
0.00186209	54.9816
0.00187284	55.1401
0.00188365	55.299
0.00189452	55.4584
0.00190546	55.6183
0.00191646	55.7786
0.00192752	55.9393
0.00193865	56.1006
0.00194984	56.2623
0.0019611	56.4245
0.00197242	56.5871
0.00198381	56.7502
0.00199526	56.9138
0.00200678	57.0778
0.00201837	57.2423
0.00203002	57.4073
0.00204174	57.5728
0.00205353	57.7388
0.00206538	57.9052
0.0020773	58.0721
0.0020893	58.2395
0.00210136	58.4073
0.00211349	58.5757
0.00212569	58.7445
0.00213796	58.9139
0.0021503	59.0837
0.00216272	59.254
0.0021752	59.4248
0.00218776	59.596
0.00220039	59.7678
0.00221309	59.9401
0.00222587	60.1129
0.00223872	60.2861
0.00225165	60.4599
0.00226464	60.6342
0.00227772	60.8089
0.00229087	60.9842
0.00230409	61.16
0.00231739	61.3363
0.00233077	61.5131
0.00234423	61.6904
0.00235776	61.8682
0.00237137	62.0465
0.00238506	62.2254
0.00239883	62.4047
0.00241268	62.5846
0.00242661	62.765
0.00244062	62.9459
0.00245471	63.1273
0.00246888	63.3093
0.00248313	63.4918
0.00249747	63.6748
0.00251189	63.8583
0.00252639	64.0424
0.00254097	64.227
0.00255564	64.4121
0.0025704	64.5978
0.00258523	64.7839
0.00260016	64.9707
0.00261517	65.158
0.00263027	65.3458
0.00264545	65.5341
0.00266073	65.723
0.00267609	65.9124
0.00269153	66.1024
0.00270707	66.293
0.0027227	66.484
0.00273842	66.6757
0.00275423	66.8679
0.00277013	67.0606
0.00278612	67.2539
0.00280221	67.4477
0.00281838	67.6422
0.00283465	67.8371
0.00285102	68.0327
0.00286748	68.2287
0.00288403	68.4254
0.00290068	68.6226
0.00291743	68.8204
0.00293427	69.0188
0.00295121	69.2177
0.00296825	69.4173
0.00298538	69.6173
0.00300262	69.8167
0.00301995	70.0131
0.00303739	70.21
0.00305492	70.4075
0.00307256	70.6056
0.0030903	70.8042
0.00310814	71.0034
0.00312608	71.2032
0.00314413	71.4036
0.00316228	71.6045
0.00318053	71.806
0.0031989	72.0081
0.00321736	72.2108
0.00323594	72.4141
0.00325462	72.6179
0.00327341	72.8224
0.0032923	73.0274
0.00331131	73.233
0.00333043	73.4392
0.00334965	73.646
0.00336899	73.8534
0.00338844	74.0614
0.003408	74.27
0.00342768	74.4792
0.00344747	74.689
0.00346737	74.8994
0.00348739	75.1104
0.00350752	75.322
0.00352777	75.5342
0.00354813	75.7471
0.00356862	75.9605
0.00358922	76.1746
0.00360994	76.3893
0.00363078	76.6046
0.00365174	76.8205
0.00367282	77.0371
0.00369403	77.2542
0.00371535	77.472
0.0037368	77.6905
0.00375837	77.9095
0.00378007	78.1292
0.00380189	78.3495
0.00382384	78.5705
0.00384592	78.7921
0.00386812	79.0143
0.00389045	79.2372
0.00391291	79.4607
0.0039355	79.6849
0.00395822	79.9097
0.00398107	80.1352
0.00400405	80.3613
0.00402717	80.5881
0.00405042	80.8155
0.0040738	81.0436
0.00409732	81.2723
0.00412098	81.5017
0.00414477	81.7318
0.00416869	81.9625
0.00419276	82.1939
0.00421697	82.4259
0.00424131	82.6587
0.0042658	82.8921
0.00429042	83.1261
0.00431519	83.3609
0.0043401	83.5963
0.00436516	83.8324
0.00439036	84.0692
0.0044157	84.3067
0.0044412	84.5449
0.00446684	84.7838
0.00449262	85.0233
0.00451856	85.2635
0.00454465	85.5045
0.00457088	85.7461
0.00459727	85.9884
0.00462381	86.2315
0.0046505	86.4752
0.00467735	86.7196
0.00470435	86.9648
0.00473151	87.2106
0.00475883	87.4572
0.0047863	87.7045
0.00481393	87.9525
0.00484172	88.2012
0.00486968	88.4506
0.00489779	88.7008
0.00492606	88.9517
0.0049545	89.2033
0.0049831	89.4556
0.00501187	89.7087
0.00504081	89.9625
0.00506991	90.217
0.00509918	90.4723
0.00512861	90.7283
0.00515822	90.9851
0.005188	91.2426
0.00521795	91.5008
0.00524807	91.7598
0.00527837	92.0196
0.00530884	92.2801
0.00533949	92.5413
0.00537032	92.8033
0.00540132	93.0661
0.0054325	93.3296
0.00546387	93.5939
0.00549541	93.859
0.00552713	94.1248
0.00555904	94.3914
0.00559114	94.6588
0.00562341	94.9269
0.00565588	95.1958
0.00568853	95.4655
0.00572137	95.736
0.0057544	96.0073
0.00578762	96.2794
0.00582103	96.5522
0.00585464	96.8258
0.00588844	97.1003
0.00592243	97.3755
0.00595662	97.6515
0.00599101	97.9284
0.0060256	98.206
0.00606038	98.4845
0.00609537	98.7637
0.00613056	99.0438
0.00616595	99.3246
0.00620155	99.6063
0.00623735	99.8888
0.00627336	100.172
0.00630957	100.456
0.006346	100.741
0.00638263	101.027
0.00641948	101.314
0.00645654	101.601
0.00649382	101.889
0.00653131	102.179
0.00656901	102.469
0.00660693	102.759
0.00664508	103.051
0.00668344	103.344
0.00672202	103.637
0.00676083	103.931
0.00679986	104.226
0.00683912	104.522
0.0068786	104.819
0.00691831	105.117
0.00695825	105.415
0.00699842	105.715
0.00703882	106.015
0.00707946	106.316
0.00712033	106.618
0.00716143	106.921
0.00720278	107.225
0.00724436	107.529
0.00728618	107.835
0.00732825	108.141
0.00737055	108.449
0.0074131	108.757
0.0074559	109.066
0.00749894	109.376
0.00754223	109.687
0.00758578	109.999
0.00762957	110.311
0.00767361	110.625
0.00771792	110.94
0.00776247	111.255
0.00780728	111.571
0.00785236	111.889
0.00789769	112.207
0.00794328	112.526
0.00798914	112.846
0.00803526	113.167
0.00808165	113.489
0.00812831	113.812
0.00817523	114.136
0.00822243	114.461
0.0082699	114.786
0.00831764	115.113
0.00836566	115.441
0.00841395	115.769
0.00846253	116.099
0.00851138	116.429
0.00856052	116.761
0.00860994	117.093
0.00865964	117.427
0.00870964	117.761
0.00875992	118.096
0.00881049	118.433
0.00886135	118.77
0.00891251	119.108
0.00896396	119.448
0.00901571	119.788
0.00906776	120.129
0.00912011	120.471
0.00917276	120.815
0.00922571	121.159
0.00927897	121.504
0.00933254	121.851
0.00938642	122.198
0.00944061	122.546
0.00949511	122.895
0.00954993	123.246
0.00960506	123.597
0.00966051	123.95
0.00971628	124.303
0.00977237	124.657
0.00982879	125.013
0.00988553	125.369
0.0099426	125.727
0.01	126.086
0.0100577	126.445
0.0101158	126.806
0.0101742	127.168
0.0102329	127.531
0.010292	127.894
0.0103514	128.259
0.0104112	128.625
0.0104713	128.992
0.0105317	129.361
0.0105925	129.73
0.0106537	130.1
0.0107152	130.472
0.0107771	130.844
0.0108393	131.218
0.0109018	131.592
0.0109648	131.968
0.0110281	132.345
0.0110917	132.723
0.0111558	133.102
0.0112202	133.482
0.011285	133.863
0.0113501	134.246
0.0114156	134.629
0.0114815	135.014
0.0115478	135.4
0.0116145	135.787
0.0116815	136.175
0.011749	136.564
0.0118168	136.954
0.011885	137.346
0.0119536	137.738
0.0120226	138.018
0.0120921	138.11
0.0121619	138.202
0.0122321	138.296
0.0123027	138.391
0.0123737	138.486
0.0124451	138.583
0.012517	138.68
0.0125893	138.779
0.0126619	138.878
0.012735	138.978
0.0128086	139.079
0.0128825	139.181
0.0129569	139.283
0.0130317	139.387
0.0131069	139.491
0.0131826	139.597
0.0132587	139.703
0.0133352	139.81
0.0134122	139.917
0.0134896	140.026
0.0135675	140.135
0.0136458	140.245
0.0137246	140.355
0.0138038	140.467
0.0138835	140.579
0.0139637	140.692
0.0140443	140.806
0.0141254	140.92
0.0142069	141.035
0.0142889	141.151
0.0143714	141.267
0.0144544	141.384
0.0145378	141.502
0.0146218	141.62
0.0147062	141.739
0.0147911	141.859
0.0148765	141.979
0.0149624	142.1
0.0150487	142.222
0.0151356	142.344
0.015223	142.467
0.0153109	142.591
0.0153993	142.715
0.0154882	142.839
0.0155776	142.965
0.0156675	143.091
0.015758	143.217
0.0158489	143.344
0.0159404	143.472
0.0160325	143.6
0.016125	143.729
0.0162181	143.858
0.0163117	143.988
0.0164059	144.118
0.0165006	144.249
0.0165959	144.38
0.0166917	144.512
0.016788	144.645
0.016885	144.778
0.0169824	144.912
0.0170805	145.046
0.0171791	145.18
0.0172783	145.316
0.017378	145.451
0.0174783	145.587
0.0175792	145.724
0.0176807	145.861
0.0177828	145.999
0.0178855	146.137
0.0179887	146.276
0.0180926	146.415
0.018197	146.555
0.0183021	146.695
0.0184077	146.835
0.018514	146.977
0.0186209	147.118
0.0187284	147.26
0.0188365	147.403
0.0189452	147.546
0.0190546	147.69
0.0191646	147.834
0.0192752	147.978
0.0193865	148.123
0.0194984	148.269
0.019611	148.414
0.0197242	148.561
0.0198381	148.708
0.0199526	148.855
0.0200678	149.003
0.0201837	149.151
0.0203002	149.3
0.0204174	149.449
0.0205353	149.599
0.0206538	149.749
0.020773	149.9
0.020893	150.051
0.0210136	150.202
0.0211349	150.354
0.0212569	150.507
0.0213796	150.66
0.021503	150.813
0.0216272	150.967
0.021752	151.121
0.0218776	151.276
0.0220039	151.431
0.0221309	151.587
0.0222587	151.743
0.0223872	151.9
0.0225165	152.057
0.0226464	152.215
0.0227772	152.373
0.0229087	152.532
0.0230409	152.691
0.0231739	152.85
0.0233077	153.01
0.0234423	153.171
0.0235776	153.332
0.0237137	153.494
0.0238506	153.656
0.0239883	153.818
0.0241268	153.981
0.0242661	154.144
0.0244062	154.308
0.0245471	154.473
0.0246888	154.638
0.0248313	154.803
0.0249747	154.969
0.0251189	155.136
0.0252639	155.303
0.0254097	155.47
0.0255564	155.638
0.025704	155.806
0.0258523	155.975
0.0260016	156.145
0.0261517	156.315
0.0263027	156.485
0.0264545	156.656
0.0266073	156.828
0.0267609	157
0.0269153	157.173
0.0270707	157.346
0.027227	157.52
0.0273842	157.694
0.0275423	157.869
0.0277013	158.044
0.0278612	158.22
0.0280221	158.396
0.0281838	158.573
0.0283465	158.751
0.0285102	158.929
0.0286748	159.107
0.0288403	159.287
0.0290068	159.466
0.0291743	159.647
0.0293427	159.828
0.0295121	160.009
0.0296825	160.191
0.0298538	160.374
0.0300262	160.557
0.0301995	160.741
0.0303739	160.925
0.0305492	161.11
0.0307256	161.296
0.030903	161.482
0.0310814	161.669
0.0312608	161.856
0.0314413	162.044
0.0316228	162.233
0.0318053	162.422
0.031989	162.612
0.0321736	162.802
0.0323594	162.993
0.0325462	163.185
0.0327341	163.377
0.032923	163.57
0.0331131	163.764
0.0333043	163.958
0.0334965	164.153
0.0336899	164.349
0.0338844	164.545
0.03408	164.742
0.0342768	164.939
0.0344747	165.138
0.0346737	165.336
0.0348739	165.536
0.0350752	165.736
0.0352777	165.937
0.0354813	166.139
0.0356862	166.341
0.0358922	166.544
0.0360994	166.748
0.0363078	166.952
0.0365174	167.158
0.0367282	167.363
0.0369403	167.57
0.0371535	167.777
0.037368	167.985
0.0375837	168.194
0.0378007	168.403
0.0380189	168.613
0.0382384	168.824
0.0384592	169.036
0.0386812	169.248
0.0389045	169.462
0.0391291	169.676
0.039355	169.89
0.0395822	170.106
0.0398107	170.322
0.0400405	170.539
0.0402717	170.757
0.0405042	170.975
0.040738	171.194
0.0409732	171.415
0.0412098	171.635
0.0414477	171.857
0.0416869	172.08
0.0419276	172.303
0.0421697	172.527
0.0424131	172.752
0.042658	172.978
0.0429042	173.204
0.0431519	173.432
0.043401	173.66
0.0436516	173.889
0.0439036	174.119
0.044157	174.349
0.044412	174.581
0.0446684	174.813
0.0449262	175.047
0.0451856	175.281
0.0454465	175.516
0.0457088	175.752
0.0459727	175.989
0.0462381	176.226
0.046505	176.465
0.0467735	176.704
0.0470435	176.944
0.0473151	177.186
0.0475883	177.428
0.047863	177.671
0.0481393	177.915
0.0484172	178.159
0.0486968	178.405
0.0489779	178.652
0.0492606	178.899
0.049545	179.148
0.049831	179.397
0.0501187	179.648
0.0504081	179.899
0.0506991	180.151
0.0509918	180.404
0.0512861	180.659
0.0515822	180.914
0.05188	181.17
0.0521795	181.427
0.0524807	181.685
0.0527837	181.944
0.0530884	182.204
0.0533949	182.465
0.0537032	182.727
0.0540132	182.99
0.054325	183.254
0.0546387	183.519
0.0549541	183.785
0.0552713	184.052
0.0555904	184.32
0.0559114	184.589
0.0562341	184.859
0.0565588	185.13
0.0568853	185.402
0.0572137	185.676
0.057544	185.95
0.0578762	186.225
0.0582103	186.501
0.0585464	186.779
0.0588844	187.057
0.0592243	187.337
0.0595662	187.617
0.0599101	187.899
0.060256	188.182
0.0606038	188.466
0.0609537	188.75
0.0613056	189.036
0.0616595	189.324
0.0620155	189.612
0.0623735	189.901
0.0627336	190.191
0.0630957	190.483
0.06346	190.776
0.0638263	191.069
0.0641948	191.364
0.0645654	191.66
0.0649382	191.957
0.0653131	192.256
0.0656901	192.555
0.0660693	192.856
0.0664508	193.158
0.0668344	193.46
0.0672202	193.764
0.0676083	194.07
0.0679986	194.376
0.0683912	194.684
0.068786	194.992
0.0691831	195.302
0.0695825	195.613
0.0699842	195.926
0.0703882	196.239
0.0707946	196.554
0.0712033	196.87
0.0716143	197.187
0.0720278	197.505
0.0724436	197.825
0.0728618	198.146
0.0732825	198.468
0.0737055	198.791
0.074131	199.115
0.074559	199.441
0.0749894	199.768
0.0754223	200.096
0.0758578	200.426
0.0762957	200.756
0.0767361	201.088
0.0771792	201.421
0.0776247	201.756
0.0780728	202.092
0.0785236	202.429
0.0789769	202.767
0.0794328	203.106
0.0798914	203.447
0.0803526	203.789
0.0808165	204.133
0.0812831	204.478
0.0817523	204.824
0.0822243	205.171
0.082699	205.52
0.0831764	205.87
0.0836566	206.221
0.0841395	206.574
0.0846253	206.928
0.0851138	207.283
0.0856052	207.639
0.0860994	207.997
0.0865964	208.357
0.0870964	208.717
0.0875992	209.079
0.0881049	209.443
0.0886135	209.807
0.0891251	210.173
0.0896396	210.541
0.0901571	210.91
0.0906776	211.28
0.0912011	211.651
0.0917276	212.024
0.0922571	212.398
0.0927897	212.774
0.0933254	213.151
0.0938642	213.53
0.0944061	213.91
0.0949511	214.291
0.0954993	214.674
0.0960506	215.058
0.0966051	215.443
0.0971628	215.83
0.0977237	216.218
0.0982879	216.608
0.0988553	216.999
0.099426	217.392
0.1	217.786
0.100577	218.181
0.101158	218.578
0.101742	218.977
0.102329	219.377
0.10292	219.778
0.103514	220.181
0.104112	220.585
0.104713	220.99
0.105317	221.398
0.105925	221.806
0.106537	222.216
0.107152	222.628
0.107771	223.041
0.108393	223.455
0.109018	223.871
0.109648	224.289
0.110281	224.707
0.110917	225.128
0.111558	225.55
0.112202	225.973
0.11285	226.398
0.113501	226.825
0.114156	227.253
0.114815	227.682
0.115478	228.113
0.116145	228.545
0.116815	228.979
0.11749	229.415
0.118168	229.852
0.11885	230.291
0.119536	230.731
0.120226	231.172
0.120921	231.615
0.121619	232.06
0.122321	232.506
0.123027	232.954
0.123737	233.404
0.124451	233.854
0.12517	234.307
0.125893	234.761
0.126619	235.216
0.12735	235.673
0.128086	236.132
0.128825	236.592
0.129569	237.054
0.130317	237.517
0.131069	237.982
0.131826	238.449
0.132587	238.917
0.133352	239.387
0.134122	239.858
0.134896	240.33
0.135675	240.805
0.136458	241.281
0.137246	241.758
0.138038	242.237
0.138835	242.718
0.139637	243.2
0.140443	243.684
0.141254	244.17
0.142069	244.657
0.142889	245.145
0.143714	245.636
0.144544	246.127
0.145378	246.621
0.146218	247.116
0.147062	247.613
0.147911	248.111
0.148765	248.611
0.149624	249.112
0.150487	249.615
0.151356	250.12
0.15223	250.626
0.153109	251.134
0.153993	251.643
0.154882	252.154
0.155776	252.667
0.156675	253.181
0.15758	253.697
0.158489	254.338
0.159404	255.131
0.160325	255.928
0.16125	256.731
0.162181	257.538
0.163117	258.349
0.164059	259.166
0.165006	259.987
0.165959	260.813
0.166917	261.644
0.16788	262.48
0.16885	263.32
0.169824	264.166
0.170805	265.017
0.171791	265.872
0.172783	266.733
0.17378	267.599
0.174783	268.47
0.175792	269.347
0.176807	270.228
0.177828	271.115
0.178855	272.007
0.179887	272.904
0.180926	273.807
0.18197	274.715
0.183021	275.629
0.184077	276.548
0.18514	277.472
0.186209	278.402
0.187284	279.338
0.188365	280.28
0.189452	281.227
0.190546	282.179
0.191646	283.138
0.192752	284.102
0.193865	285.072
0.194984	286.049
0.19611	287.031
0.197242	288.019
0.198381	289.013
0.199526	290.013
0.200678	291.019
0.201837	292.031
0.203002	293.05
0.204174	294.074
0.205353	295.105
0.206538	296.143
0.20773	297.186
0.20893	298.236
0.210136	299.293
0.211349	300.356
0.212569	301.426
0.213796	302.502
0.21503	303.585
0.216272	304.674
0.21752	305.771
0.218776	306.874
0.220039	307.984
0.221309	309.101
0.222587	310.225
0.223872	311.355
0.225165	312.493
0.226464	313.638
0.227772	314.79
0.229087	315.697
0.230409	316.861
0.231739	318.032
0.233077	319.21
0.234423	320.396
0.235776	321.589
0.237137	322.789
0.238506	323.998
0.239883	325.213
0.241268	326.437
0.242661	327.668
0.244062	328.907
0.245471	330.154
0.246888	331.408
0.248313	332.671
0.249747	333.941
0.251189	335.22
0.252639	336.507
0.254097	337.802
0.255564	339.105
0.25704	340.417
0.258523	341.736
0.260016	343.065
0.261517	344.402
0.263027	345.747
0.264545	347.101
0.266073	348.464
0.267609	349.835
0.269153	351.215
0.270707	352.604
0.27227	354.003
0.273842	355.41
0.275423	356.826
0.277013	358.251
0.278612	359.686
0.280221	361.13
0.281838	362.583
0.283465	364.046
0.285102	365.518
0.286748	367
0.288403	368.491
0.290068	369.992
0.291743	371.503
0.293427	373.024
0.295121	374.555
0.296825	376.095
0.298538	377.646
0.300262	379.207
0.301995	380.709
0.303739	382.073
0.305492	383.443
0.307256	384.82
0.30903	386.203
0.310814	387.592
0.312608	388.987
0.314413	390.389
0.316228	391.797
0.318053	393.212
0.31989	394.633
0.321736	396.06
0.323594	397.494
0.325462	398.934
0.327341	400.381
0.32923	401.834
0.331131	403.294
0.333043	404.76
0.334965	406.233
0.336899	407.712
0.338844	409.198
0.3408	410.69
0.342768	412.189
0.344747	413.694
0.346737	415.206
0.348739	416.724
0.350752	418.249
0.352777	419.78
0.354813	421.318
0.356862	422.863
0.358922	424.414
0.360994	425.972
0.363078	427.536
0.365174	429.107
0.367282	430.685
0.369403	432.269
0.371535	433.86
0.37368	435.457
0.375837	437.061
0.378007	438.672
0.380189	440.289
0.382384	441.913
0.384592	443.544
0.386812	445.181
0.389045	446.825
0.391291	448.476
0.39355	450.133
0.395822	451.797
0.398107	453.467
0.400405	455.144
0.402717	456.828
0.405042	458.518
0.40738	460.215
0.409732	461.919
0.412098	463.629
0.414477	465.346
0.416869	467.069
0.419276	468.8
0.421697	470.536
0.424131	472.279
0.42658	474.029
0.429042	475.786
0.431519	477.549
0.43401	479.318
0.436516	481.095
0.439036	482.877
0.44157	484.667
0.44412	486.462
0.446684	488.265
0.449262	490.074
0.451856	491.889
0.454465	493.711
0.457088	495.539
0.459727	497.374
0.462381	499.215
0.46505	501.062
0.467735	502.916
0.470435	504.777
0.473151	506.644
0.475883	508.517
0.47863	510.396
0.481393	512.282
0.484172	514.174
0.486968	516.072
0.489779	517.977
0.492606	519.888
0.49545	521.805
0.49831	523.728
0.501187	525.657
0.504081	527.593
0.506991	529.535
0.509918	531.482
0.512861	533.436
0.515822	535.396
0.5188	537.362
0.521795	539.334
0.524807	541.311
0.527837	543.295
0.530884	545.285
0.533949	547.28
0.537032	549.281
0.540132	551.288
0.54325	553.301
0.546387	555.319
0.549541	557.343
0.552713	559.373
0.555904	561.408
0.559114	563.449
0.562341	565.496
0.565588	567.547
0.568853	569.605
0.572137	571.667
0.57544	573.735
0.578762	575.809
0.582103	577.887
0.585464	579.971
0.588844	582.06
0.592243	584.154
0.595662	586.253
0.599101	588.357
0.60256	590.466
0.606038	592.58
0.609537	594.699
0.613056	596.823
0.616595	598.951
0.620155	601.084
0.623735	603.222
0.627336	605.364
0.630957	607.511
0.6346	609.663
0.638263	611.818
0.641948	613.978
0.645654	616.143
0.649382	618.311
0.653131	620.484
0.656901	622.66
0.660693	624.841
0.664508	627.026
0.668344	629.215
0.672202	631.407
0.676083	633.603
0.679986	635.803
0.683912	638.006
0.68786	640.213
0.691831	642.424
0.695825	644.637
0.699842	646.854
0.703882	649.075
0.707946	651.298
0.712033	653.524
0.716143	655.754
0.720278	657.986
0.724436	660.221
0.728618	662.459
0.732825	664.7
0.737055	666.943
0.74131	669.188
0.74559	671.436
0.749894	673.686
0.754223	675.939
0.758578	678.193
0.762957	680.45
0.767361	682.708
0.771792	684.968
0.776247	687.23
0.780728	689.494
0.785236	691.759
0.789769	694.026
0.794328	696.294
0.798914	698.563
0.803526	700.833
0.808165	703.105
0.812831	705.377
0.817523	707.65
0.822243	709.924
0.82699	712.199
0.831764	714.474
0.836566	716.749
0.841395	719.025
0.846253	721.301
0.851138	723.577
0.856052	725.853
0.860994	728.129
0.865964	730.404
0.870964	732.679
0.875992	734.954
0.881049	737.228
0.886135	739.501
0.891251	741.774
0.896396	744.045
0.901571	746.316
0.906776	748.585
0.912011	750.853
0.917276	753.119
0.922571	755.384
0.927897	757.647
0.933254	759.908
0.938642	762.167
0.944061	764.425
0.949511	766.68
0.954993	768.932
0.960506	771.182
0.966051	773.43
0.971628	775.675
0.977237	777.917
0.982879	780.156
0.988553	782.391
0.99426	784.624
1	786.853
1.00577	789.079
1.01158	791.301
1.01742	793.519
1.02329	795.733
1.0292	797.943
1.03514	800.149
1.04112	802.35
1.04713	804.547
1.05317	806.739
1.05925	808.927
1.06537	811.109
1.07152	813.287
1.07771	815.459
1.08393	817.626
1.09018	819.788
1.09648	821.943
1.10281	824.093
1.10917	826.237
1.11558	828.375
1.12202	830.507
1.1285	832.633
1.13501	834.751
1.14156	836.864
1.14815	838.969
1.15478	841.067
1.16145	843.159
1.16815	845.243
1.1749	847.32
1.18168	849.389
1.1885	851.45
1.19536	853.504
1.20226	855.55
1.20921	857.587
1.21619	859.617
1.22321	861.637
1.23027	863.65
1.23737	865.653
1.24451	867.648
1.2517	869.634
1.25893	871.61
1.26619	873.577
1.2735	875.535
1.28086	877.483
1.28825	879.422
1.29569	881.35
1.30317	883.269
1.31069	885.177
1.31826	887.075
1.32587	888.963
1.33352	890.84
1.34122	892.706
1.34896	894.561
1.35675	896.405
1.36458	898.238
1.37246	900.06
1.38038	901.87
1.38835	903.669
1.39637	905.456
1.40443	907.231
1.41254	908.993
1.42069	910.744
1.42889	912.483
1.43714	914.209
1.44544	915.922
1.45378	917.623
1.46218	919.311
1.47062	920.986
1.47911	922.648
1.48765	924.296
1.49624	925.931
1.50487	927.553
1.51356	929.161
1.5223	930.755
1.53109	932.336
1.53993	933.902
1.54882	935.454
1.55776	936.992
1.56675	938.516
1.5758	940.025
1.58489	941.52
1.59404	943
1.60325	944.465
1.6125	945.915
1.62181	947.349
1.63117	948.769
1.64059	950.174
1.65006	951.563
1.65959	952.936
1.66917	954.294
1.6788	955.636
1.6885	956.962
1.69824	958.273
1.70805	959.567
1.71791	960.845
1.72783	962.107
1.7378	963.353
1.74783	964.582
1.75792	965.794
1.76807	966.99
1.77828	968.17
1.78855	969.332
1.79887	970.478
1.80926	971.606
1.8197	972.718
1.83021	973.812
1.84077	974.89
1.8514	975.95
1.86209	976.992
1.87284	978.017
1.88365	979.025
1.89452	980.015
1.90546	980.988
1.91646	981.943
1.92752	982.88
1.93865	983.799
1.94984	984.7
1.9611	985.583
1.97242	986.449
1.98381	987.296
1.99526	988.125
2.00678	988.936
2.01837	989.729
2.03002	990.504
2.04174	991.26
2.05353	991.998
2.06538	992.717
2.0773	993.418
2.0893	994.101
2.10136	994.765
2.11349	995.411
2.12569	996.038
2.13796	996.647
2.1503	997.237
2.16272	997.808
2.1752	998.361
2.18776	998.895
2.20039	999.41
2.21309	999.907
2.22587	1000.38
2.23872	1000.84
2.25165	1001.28
2.26464	1001.71
2.27772	1002.11
2.29087	1002.49
2.30409	1002.86
2.31739	1003.21
2.33077	1003.54
2.34423	1003.84
2.35776	1004.14
2.37137	1004.41
2.38506	1004.66
2.39883	1004.9
2.41268	1005.11
2.42661	1005.31
2.44062	1005.49
2.45471	1005.65
2.46888	1005.79
2.48313	1005.91
2.49747	1006.02
2.51189	1006.11
2.52639	1006.17
2.54097	1006.22
2.55564	1006.25
2.5704	1006.27
2.58523	1006.26
2.60016	1006.24
2.61517	1006.2
2.63027	1006.14
2.64545	1006.06
2.66073	1005.96
2.67609	1005.85
2.69153	1005.72
2.70707	1005.57
2.7227	1005.4
2.73842	1005.22
2.75423	1005.01
2.77013	1004.79
2.78612	1004.55
2.80221	1004.3
2.81838	1004.03
2.83465	1003.74
2.85102	1003.43
2.86748	1003.1
2.88403	1002.76
2.90068	1002.4
2.91743	1002.03
2.93427	1001.63
2.95121	1001.22
2.96825	1000.8
2.98538	1000.36
3.00262	999.897
3.01995	999.421
3.03739	998.929
3.05492	998.421
3.07256	997.896
3.0903	997.356
3.10814	996.799
3.12608	996.227
3.14413	995.639
3.16228	995.035
3.18053	994.415
3.1989	993.78
3.21736	993.13
3.23594	992.465
3.25462	991.784
3.27341	991.088
3.2923	990.377
3.31131	989.652
3.33043	988.912
3.34965	988.157
3.36899	987.387
3.38844	985.241
3.408	984.465
3.42768	983.674
3.44747	982.869
3.46737	982.05
3.48739	981.217
3.50752	980.37
3.52777	979.509
3.54813	978.634
3.56862	977.746
3.58922	976.844
3.60994	975.929
3.63078	975
3.65174	974.059
3.67282	973.104
3.69403	972.137
3.71535	971.157
3.7368	970.164
3.75837	969.159
3.78007	968.142
3.80189	967.112
3.82384	966.071
3.84592	965.017
3.86812	963.952
3.89045	962.875
3.91291	961.786
3.9355	960.686
3.95822	959.574
3.98107	958.452
4.00405	957.318
4.02717	956.174
4.05042	955.019
4.0738	953.853
4.09732	952.677
4.12098	951.49
4.14477	950.293
4.16869	949.086
4.19276	947.869
4.21697	946.642
4.24131	945.406
4.2658	944.16
4.29042	942.905
4.31519	941.64
4.3401	940.366
4.36516	939.083
4.39036	937.791
4.4157	936.491
4.4412	935.181
4.46684	933.864
4.49262	932.538
4.51856	931.203
4.54465	929.861
4.57088	928.511
4.59727	927.152
4.62381	925.786
4.6505	924.413
4.67735	923.032
4.70435	921.643
4.73151	920.248
4.75883	918.845
4.7863	917.436
4.81393	916.019
4.84172	914.596
4.86968	913.166
4.89779	911.73
4.92606	910.288
4.9545	908.839
4.9831	907.384
5.01187	905.924
5.04081	904.457
5.06991	902.985
5.09918	901.507
5.12861	900.024
5.15822	898.535
5.188	897.041
5.21795	895.542
5.24807	894.038
5.27837	892.529
5.30884	891.015
5.33949	889.497
5.37032	887.974
5.40132	886.446
5.4325	884.914
5.46387	883.378
5.49541	881.838
5.52713	880.294
5.55904	878.746
5.59114	877.194
5.62341	875.639
5.65588	874.079
5.68853	872.517
5.72137	870.951
5.7544	869.381
5.78762	867.809
5.82103	866.233
5.85464	864.655
5.88844	863.074
5.92243	861.489
5.95662	859.902
5.99101	858.313
6.0256	856.721
6.06038	855.126
6.09537	853.53
6.13056	851.931
6.16595	850.329
6.20155	848.726
6.23735	847.121
6.27336	845.514
6.30957	843.905
6.346	842.294
6.38263	840.682
6.41948	839.068
6.45654	837.453
6.49382	835.836
6.53131	834.218
6.56901	832.599
6.60693	830.978
6.64508	829.357
6.68344	827.734
6.72202	826.11
6.76083	824.486
6.79986	822.861
6.83912	821.234
6.8786	819.608
6.91831	817.98
6.95825	816.352
6.99842	814.724
7.03882	813.095
7.07946	811.466
7.12033	809.836
7.16143	808.206
7.20278	806.576
7.24436	804.946
7.28618	803.316
7.32825	801.686
7.37055	800.056
7.4131	798.426
7.4559	796.796
7.49894	795.166
7.54223	793.536
7.58578	791.907
7.62957	790.278
7.67361	788.649
7.71792	787.021
7.76247	785.393
7.80728	783.766
7.85236	782.14
7.89769	780.514
7.94328	778.888
7.98914	777.263
8.03526	775.639
8.08165	774.016
8.12831	772.393
8.17523	770.772
8.22243	769.151
8.2699	767.531
8.31764	765.912
8.36566	764.294
8.41395	762.676
8.46253	761.06
8.51138	759.445
8.56052	757.831
8.60994	756.218
8.65964	754.606
8.70964	752.995
8.75992	751.386
8.81049	749.777
8.86135	748.17
8.91251	746.564
8.96396	744.959
9.01571	743.356
9.06776	741.754
9.12011	740.153
9.17276	738.554
9.22571	736.955
9.27897	735.359
9.33254	733.763
9.38642	732.169
9.44061	730.577
9.49511	728.985
9.54993	727.396
9.60506	725.807
9.66051	724.22
9.71628	722.635
9.77237	721.051
9.82879	719.469
9.88553	717.888
9.9426	716.308
10	714.731
10.0577	713.154
10.1158	711.579
10.1742	710.006
10.2329	708.434
10.292	706.864
10.3514	705.296
10.4112	703.729
10.4713	702.163
10.5317	700.599
10.5925	699.037
10.6537	697.476
10.7152	695.917
10.7771	694.359
10.8393	692.803
10.9018	691.249
10.9648	689.696
11.0281	688.144
11.0917	686.595
11.1558	685.046
11.2202	683.5
11.285	681.955
11.3501	680.411
11.4156	678.87
11.4815	677.329
11.5478	675.791
11.6145	674.254
11.6815	672.718
11.749	671.184
11.8168	669.652
11.885	668.121
11.9536	666.592
12.0226	665.064
12.0921	663.538
12.1619	662.013
12.2321	660.49
12.3027	658.968
12.3737	657.448
12.4451	655.93
12.517	654.413
12.5893	652.897
12.6619	651.383
12.735	649.871
12.8086	648.36
12.8825	646.85
12.9569	645.342
13.0317	643.836
13.1069	642.33
13.1826	640.827
13.2587	639.325
13.3352	637.824
13.4122	636.325
13.4896	634.827
13.5675	633.331
13.6458	631.836
13.7246	630.342
13.8038	628.85
13.8835	627.359
13.9637	625.87
14.0443	624.382
14.1254	622.895
14.2069	621.41
14.2889	619.926
14.3714	618.444
14.4544	616.963
14.5378	615.483
14.6218	614.005
14.7062	612.528
14.7911	611.052
14.8765	609.578
14.9624	608.105
15.0487	606.633
15.1356	605.162
15.223	603.701
15.3109	602.233
15.3993	600.766
15.4882	599.3
15.5776	597.835
15.6675	596.372
15.758	594.91
15.8489	593.45
15.9404	591.99
16.0325	590.532
16.125	589.075
16.2181	587.62
16.3117	586.165
16.4059	584.712
16.5006	583.261
16.5959	581.81
16.6917	580.361
16.788	578.912
16.885	577.466
16.9824	576.02
17.0805	574.575
17.1791	573.132
17.2783	571.69
17.378	570.249
17.4783	568.809
17.5792	567.37
17.6807	565.933
17.7828	564.497
17.8855	563.062
17.9887	561.628
18.0926	560.195
18.197	558.763
18.3021	557.333
18.4077	555.903
18.514	554.475
18.6209	553.048
18.7284	551.622
18.8365	550.197
18.9452	548.774
19.0546	547.351
19.1646	545.93
19.2752	544.51
19.3865	543.09
19.4984	541.672
19.611	540.255
19.7242	538.84
19.8381	537.425
19.9526	536.011
20.0678	534.599
20.1837	533.187
20.3002	531.777
20.4174	530.368
20.5353	528.96
20.6538	527.553
20.773	526.147
20.893	524.743
21.0136	523.339
21.1349	521.937
21.2569	520.535
21.3796	519.135
21.503	517.736
21.6272	516.338
21.752	514.941
21.8776	513.545
22.0039	512.151
22.1309	510.757
22.2587	509.365
22.3872	507.973
22.5165	506.583
22.6464	505.194
22.7772	503.806
22.9087	502.42
23.0409	501.034
23.1739	499.65
23.3077	498.266
23.4423	496.884
23.5776	495.503
23.7137	494.123
23.8506	492.736
23.9883	491.308
24.1268	489.881
24.2661	488.455
24.4062	487.029
24.5471	485.604
24.6888	484.18
24.8313	482.785
24.9747	481.361
25.1189	479.937
25.2639	478.515
25.4097	477.093
25.5564	475.672
25.704	474.251
25.8523	472.83
26.0016	471.41
26.1517	469.99
26.3027	468.571
26.4545	467.153
26.6073	465.797
26.7609	464.38
26.9153	462.982
27.0707	461.566
27.227	460.151
27.3842	458.737
27.5423	457.324
27.7013	455.911
27.8612	454.499
28.0221	453.088
28.1838	451.679
28.3465	450.27
28.5102	448.862
28.6748	447.454
28.8403	446.048
29.0068	444.642
29.1743	443.497
29.3427	442.091
29.5121	440.686
29.6825	439.282
29.8538	437.014
30.0262	435.599
30.1995	434.263
30.3739	432.851
30.5492	431.439
30.7256	430.029
30.903	428.62
31.0814	427.215
31.2608	425.811
31.4413	424.408
31.6228	423.006
31.8053	421.606
31.989	420.208
32.1736	418.81
32.3594	417.414
32.5462	416.019
32.7341	414.626
32.923	413.234
33.1131	411.844
33.3043	410.455
33.4965	409.068
33.6899	407.683
33.8844	406.298
34.08	404.915
34.2768	403.534
34.4747	402.155
34.6737	400.777
34.8739	399.4
35.0752	398.026
35.2777	396.653
35.4813	395.529
35.6862	394.158
35.8922	392.789
36.0994	391.422
36.3078	390.057
36.5174	388.693
36.7282	387.331
36.9403	385.971
37.1535	384.613
37.368	383.252
37.5837	381.897
37.8007	380.544
38.0189	379.194
38.2384	377.845
38.4592	376.499
38.6812	375.154
38.9045	373.811
39.1291	372.471
39.355	371.133
39.5822	369.797
39.8107	368.463
40.0405	367.131
40.2717	365.802
40.5042	364.49
40.738	363.164
40.9732	361.841
41.2098	360.521
41.4477	359.202
41.6869	357.886
41.9276	356.584
42.1697	355.311
42.4131	354.038
42.658	352.767
42.9042	351.498
43.1519	350.231
43.401	348.966
43.6516	347.703
43.9036	346.442
44.157	345.183
44.412	343.926
44.6684	342.671
44.9262	341.418
45.1856	340.168
45.4465	338.92
45.7088	337.674
45.9727	336.43
46.2381	335.188
46.505	333.949
46.7735	332.712
47.0435	331.477
47.3151	330.245
47.5883	329.015
47.863	327.787
48.1393	326.562
48.4172	325.339
48.6968	324.208
48.9779	322.988
49.2606	321.771
49.545	320.557
49.831	319.345
50.1187	318.136
50.4081	316.929
50.6991	315.725
50.9918	314.524
51.2861	313.325
51.5822	312.128
51.88	310.935
52.1795	309.744
52.4807	308.556
52.7837	307.37
53.0884	306.188
53.3949	305.213
53.7032	304.034
54.0132	302.858
54.325	301.684
54.6387	300.513
54.9541	299.345
55.2713	298.18
55.5904	297.018
55.9114	295.858
56.2341	294.702
56.5588	293.548
56.8853	292.398
57.2137	291.25
57.544	290.105
57.8762	288.964
58.2103	287.825
58.5464	286.689
58.8844	285.556
59.2243	284.427
59.5662	283.3
59.9101	282.176
60.256	281.056
60.6038	279.938
60.9537	278.823
61.3056	277.712
61.6595	276.603
62.0155	275.497
62.3735	274.395
62.7336	273.296
63.0957	272.199
63.46	271.106
63.8263	270.016
64.1948	268.929
64.5654	267.845
64.9382	266.764
65.3131	265.686
65.6901	264.612
66.0693	263.54
66.4508	262.472
66.8344	261.407
67.2202	260.345
67.6083	259.291
67.9986	258.235
68.3912	257.236
68.786	256.186
69.1831	255.139
69.5825	254.094
69.9842	253.053
70.3882	252.015
70.7946	250.98
71.2033	249.948
71.6143	248.92
72.0278	247.895
72.4436	246.872
72.8618	245.853
73.2825	244.837
73.7055	243.825
74.131	242.815
74.559	241.809
74.9894	240.805
75.4223	239.805
75.8578	238.808
76.2957	237.814
76.7361	236.824
77.1792	235.836
77.6247	234.852
78.0728	233.87
78.5236	232.892
78.9769	231.917
79.4328	230.946
79.8914	229.977
80.3526	229.012
80.8165	228.05
81.2831	227.09
81.7523	226.134
82.2243	225.182
82.699	224.232
83.1764	223.285
83.6566	222.342
84.1395	221.402
84.6253	220.465
85.1138	219.531
85.6052	218.6
86.0994	217.673
86.5964	216.748
87.0964	215.827
87.5992	214.908
88.1049	213.993
88.6135	213.081
89.1251	212.172
89.6396	211.334
90.1571	210.43
90.6776	209.529
91.2011	208.631
91.7276	207.737
92.2571	206.845
92.7897	205.957
93.3254	205.072
93.8642	204.19
94.4061	203.311
94.9511	202.438
95.4993	201.565
96.0506	200.695
96.6051	199.828
97.1628	198.965
97.7237	198.104
98.2879	197.246
98.8553	196.392
99.426	195.541
100	194.693
100.577	193.848
101.158	193.006
101.742	192.167
102.329	191.331
102.92	190.498
103.514	189.667
104.112	188.841
104.713	188.017
105.317	187.196
105.925	186.378
106.537	185.563
107.152	184.751
107.771	183.942
108.393	183.136
109.018	182.333
109.648	181.532
110.281	180.735
110.917	179.941
111.558	179.15
112.202	178.362
112.85	177.576
113.501	176.794
114.156	176.015
114.815	175.238
115.478	174.465
116.145	173.694
116.815	172.926
117.49	172.161
118.168	171.399
118.85	170.64
119.536	169.884
120.226	169.131
120.921	168.381
121.619	167.633
122.321	166.889
123.027	166.147
123.737	165.408
124.451	164.672
125.17	163.939
125.893	163.249
126.619	162.521
127.35	161.796
128.086	161.073
128.825	160.354
129.569	159.637
130.317	158.923
131.069	158.212
131.826	157.503
132.587	156.798
133.352	156.095
134.122	155.395
134.896	154.698
135.675	154.003
136.458	153.312
137.246	152.623
138.038	151.937
138.835	151.253
139.637	150.573
140.443	149.895
141.254	149.22
142.069	148.547
142.889	147.877
143.714	147.21
144.544	146.546
145.378	145.884
146.218	145.225
147.062	144.569
147.911	143.915
148.765	143.265
149.624	142.616
150.487	141.971
151.356	141.328
152.23	140.688
153.109	140.05
153.993	139.415
154.882	138.783
155.776	138.153
156.675	137.526
157.58	136.901
158.489	136.279
159.404	135.66
160.325	135.043
161.25	134.429
162.181	133.817
163.117	133.208
164.059	132.601
165.006	131.997
165.959	131.396
166.917	130.797
167.88	130.2
168.85	129.606
169.824	129.015
170.805	128.426
171.791	127.84
172.783	127.256
173.78	126.674
174.783	126.095
175.792	125.519
176.807	124.945
177.828	124.373
178.855	123.804
179.887	123.237
180.926	122.673
181.97	122.111
183.021	121.552
184.077	120.995
185.14	120.44
186.209	119.888
187.284	119.338
188.365	118.791
189.452	118.246
190.546	117.703
191.646	117.163
192.752	116.625
193.865	116.089
194.984	115.556
196.11	115.025
197.242	114.496
198.381	113.969
199.526	113.445
200.678	112.924
201.837	112.404
203.002	111.887
204.174	111.372
205.353	110.859
206.538	110.348
207.73	109.84
208.93	109.334
210.136	108.83
211.349	108.329
212.569	107.829
213.796	107.332
215.03	106.837
216.272	106.344
217.52	105.853
218.776	105.365
220.039	104.879
221.309	104.394
222.587	103.912
223.872	103.432
225.165	102.955
226.464	102.479
227.772	102.006
229.087	101.534
230.409	101.065
231.739	100.598
233.077	100.133
234.423	99.6694
235.776	99.2085
237.137	98.7495
238.506	98.2927
239.883	97.8379
241.268	97.3851
242.661	96.9343
244.062	96.4856
245.471	96.0389
246.888	95.5943
248.313	95.1516
249.747	94.7109
251.189	94.2722
252.639	93.8355
254.097	93.4007
255.564	92.968
257.04	92.5372
258.523	92.1083
260.016	91.6814
261.517	91.2564
263.027	90.8334
264.545	90.4122
266.073	89.993
267.609	89.5757
269.153	89.1603
270.707	88.7468
272.27	88.3352
273.842	87.9254
275.423	87.5175
277.013	87.1115
278.612	86.7074
280.221	86.3051
281.838	85.9046
283.465	85.506
285.102	85.1092
286.748	84.7142
288.403	84.321
290.068	83.9297
291.743	83.5401
293.427	83.1523
295.121	82.7664
296.825	82.3822
298.538	81.9997
300.262	81.6191
301.995	81.2402
303.739	80.863
305.492	80.4875
307.256	80.1138
309.03	79.7419
310.814	79.3717
312.608	79.0032
314.413	78.6364
316.228	78.2713
318.053	77.9079
319.89	77.5462
321.736	77.1862
323.594	76.8279
325.462	76.4712
327.341	76.1162
329.23	75.7628
331.131	75.4111
333.043	75.0611
334.965	74.7126
336.899	74.3658
338.844	74.0207
340.8	73.6771
342.768	73.3351
344.747	72.9947
346.737	72.6559
348.739	72.3188
350.752	71.9832
352.777	71.6491
354.813	71.3167
356.862	70.9858
358.922	70.6564
360.994	70.3286
363.078	70.0023
365.174	69.6776
367.282	69.3544
369.403	69.0328
371.535	68.7126
373.68	68.394
375.837	68.0769
378.007	67.7612
380.189	67.4471
382.384	67.1344
384.592	66.8232
386.812	66.5135
389.045	66.2053
391.291	65.8985
393.55	65.5932
395.822	65.2893
398.107	64.9868
400.405	64.6858
402.717	64.3862
405.042	64.0881
407.38	63.7913
409.732	63.496
412.098	63.2021
414.477	62.9095
416.869	62.6184
419.276	62.3286
421.697	62.0402
424.131	61.7532
426.58	61.4676
429.042	61.1833
431.519	60.9004
434.01	60.6188
436.516	60.3386
439.036	60.0597
441.57	59.7821
444.12	59.5059
446.684	59.231
449.262	58.9574
451.856	58.6851
454.465	58.4141
457.088	58.1444
459.727	57.876
462.381	57.6089
465.05	57.3431
467.735	57.0785
470.435	56.8153
473.151	56.5532
475.883	56.2925
478.63	56.0329
481.393	55.7747
484.172	55.5177
486.968	55.2619
489.779	55.0073
492.606	54.754
495.45	54.5019
498.31	54.251
501.187	54.0013
504.081	53.7528
506.991	53.5055
509.918	53.2594
512.861	53.0145
515.822	52.7708
518.8	52.5282
521.795	52.2868
524.807	52.0466
527.837	51.8076
530.884	51.5697
533.949	51.3329
537.032	51.0973
540.132	50.8629
543.25	50.6296
546.387	50.3974
549.541	50.1663
552.713	49.9364
555.904	49.7075
559.114	49.4798
562.341	49.2532
565.588	49.0277
568.853	48.8032
572.137	48.5799
575.44	48.3577
578.762	48.1365
582.103	47.9164
585.464	47.6974
588.844	47.4794
592.243	47.2625
595.662	47.0467
599.101	46.8319
602.56	46.6182
606.038	46.4055
609.537	46.1938
613.056	45.9832
616.595	45.7736
620.155	45.565
623.735	45.3574
627.336	45.1509
630.957	44.9454
634.6	44.7408
638.263	44.5373
641.948	44.3348
645.654	44.1332
649.382	43.9326
653.131	43.7331
656.901	43.5345
660.693	43.3368
664.508	43.1402
668.344	42.9445
672.202	42.7498
676.083	42.556
679.986	42.3631
683.912	42.1713
687.86	41.9803
691.831	41.7903
695.825	41.6013
699.842	41.4131
703.882	41.2259
707.946	41.0396
712.033	40.8542
716.143	40.6698
720.278	40.4862
724.436	40.3036
728.618	40.1218
732.825	39.9409
737.055	39.761
741.31	39.5819
745.59	39.4037
749.894	39.2264
754.223	39.05
758.578	38.8744
762.957	38.6997
767.361	38.5259
771.792	38.3529
776.247	38.1808
780.728	38.0095
785.236	37.8391
789.769	37.6695
794.328	37.5007
798.914	37.3328
803.526	37.1658
808.165	36.9995
812.831	36.8341
817.523	36.6695
822.243	36.5057
826.99	36.3427
831.764	36.1806
836.566	36.0192
841.395	35.8587
846.253	35.6989
851.138	35.5399
856.052	35.3818
860.994	35.2244
865.964	35.0678
870.964	34.912
875.992	34.7569
881.049	34.6026
886.135	34.4491
891.251	34.2964
896.396	34.1444
901.571	33.9932
906.776	33.8427
912.011	33.693
917.276	33.544
922.571	33.3958
927.897	33.2483
933.254	33.1016
938.642	32.9556
944.061	32.8103
949.511	32.6657
954.993	32.5219
960.506	32.3788
966.051	32.2364
971.628	32.0947
977.237	31.9537
982.879	31.8135
988.553	31.6739
994.26	31.535
1000	31.3969
1005.77	31.2594
1011.58	31.1226
1017.42	30.9865
1023.29	30.8511
1029.2	30.7164
1035.14	30.5823
1041.12	30.4489
1047.13	30.3162
1053.17	30.1842
1059.25	30.0528
1065.37	29.9221
1071.52	29.792
1077.71	29.6626
1083.93	29.5339
1090.18	29.4058
1096.48	29.2783
1102.81	29.1515
1109.17	29.0254
1115.58	28.8998
1122.02	28.7749
1128.5	28.6507
1135.01	28.527
1141.56	28.404
1148.15	28.2816
1154.78	28.1598
1161.45	28.0387
1168.15	27.9182
1174.9	27.7982
1181.68	27.6789
1188.5	27.5602
1195.36	27.4421
1202.26	27.3246
1209.21	27.2076
1216.19	27.0913
1223.21	26.9756
1230.27	26.8605
1237.37	26.7459
1244.51	26.6319
1251.7	26.5185
1258.93	26.4057
1266.19	26.2935
1273.5	26.1818
1280.86	26.0707
1288.25	25.9601
1295.69	25.8502
1303.17	25.7408
1310.69	25.6319
1318.26	25.5236
1325.87	25.4159
1333.52	25.3087
1341.22	25.202
1348.96	25.0959
1356.75	24.9904
1364.58	24.8854
1372.46	24.7809
1380.38	24.6769
1388.35	24.5735
1396.37	24.4706
1404.43	24.3683
1412.54	24.2665
1420.69	24.1652
1428.89	24.0644
1437.14	23.9641
1445.44	23.8644
1453.78	23.7651
1462.18	23.6664
1470.62	23.5682
1479.11	23.4705
1487.65	23.3732
1496.24	23.2765
1504.87	23.1803
1513.56	23.0846
1522.3	22.9894
1531.09	22.8946
1539.93	22.8004
1548.82	22.7067
1557.76	22.6134
1566.75	22.5206
1575.8	22.4283
1584.89	22.3365
1594.04	22.2451
1603.25	22.1542
1612.5	22.0638
1621.81	21.9739
1631.17	21.8844
1640.59	21.7954
1650.06	21.7068
1659.59	21.6187
1669.17	21.5311
1678.8	21.4439
1688.5	21.3572
1698.24	21.2709
1708.05	21.1851
1717.91	21.0997
1727.83	21.0148
1737.8	20.9303
1747.83	20.8463
1757.92	20.7627
1768.07	20.6795
1778.28	20.5968
1788.55	20.5145
1798.87	20.4326
1809.26	20.3511
1819.7	20.2701
1830.21	20.1895
1840.77	20.1093
1851.4	20.0296
1862.09	19.9503
1872.84	19.8713
1883.65	19.7928
1894.52	19.7147
1905.46	19.6371
1916.46	19.5598
1927.52	19.4829
1938.65	19.4065
1949.84	19.3304
1961.1	19.2547
1972.42	19.1795
1983.81	19.1046
1995.26	19.0301
2006.78	18.9561
2018.37	18.8824
2030.02	18.8091
2041.74	18.7362
2053.53	18.6637
2065.38	18.5915
2077.3	18.5198
2089.3	18.4484
2101.36	18.3774
2113.49	18.3068
2125.69	18.2365
2137.96	18.1667
2150.3	18.0972
2162.72	18.028
2175.2	17.9593
2187.76	17.8909
2200.39	17.8229
2213.09	17.7552
2225.87	17.6879
2238.72	17.6209
2251.65	17.5543
2264.64	17.4881
2277.72	17.4222
2290.87	17.3567
2304.09	17.2915
2317.39	17.2267
2330.77	17.1622
2344.23	17.0981
2357.76	17.0343
2371.37	16.9708
2385.06	16.9077
2398.83	16.845
2412.68	16.7825
2426.61	16.7204
2440.62	16.6587
2454.71	16.5972
2468.88	16.5362
2483.13	16.4754
2497.47	16.415
2511.89	16.3548
2526.39	16.2951
2540.97	16.2356
2555.64	16.1765
2570.4	16.1176
2585.23	16.0591
2600.16	16.001
2615.17	15.9431
2630.27	15.8855
2645.45	15.8283
2660.73	15.7714
2676.09	15.7148
2691.53	15.6585
2707.07	15.6025
2722.7	15.5468
2738.42	15.4914
2754.23	15.4363
2770.13	15.3815
2786.12	15.327
2802.21	15.2728
2818.38	15.219
2834.65	15.1654
2851.02	15.1121
2867.48	15.0591
2884.03	15.0063
2900.68	14.9539
2917.43	14.9018
2934.27	14.8499
2951.21	14.7984
2968.25	14.7471
2985.38	14.6961
3002.62	14.6454
3019.95	14.595
3037.39	14.5448
3054.92	14.495
3072.56	14.4454
3090.3	14.396
3108.14	14.347
3126.08	14.2982
3144.13	14.2497
3162.28	14.2015
3180.53	14.1535
3198.9	14.1058
3217.36	14.0584
3235.94	14.0113
3254.62	13.9644
3273.41	13.9177
3292.3	13.8714
3311.31	13.8253
3330.43	13.7794
3349.65	13.7338
3368.99	13.6885
3388.44	13.6434
3408	13.5986
3427.68	13.554
3447.47	13.5097
3467.37	13.4656
3487.39	13.4218
3507.52	13.3782
3527.77	13.3349
3548.13	13.2918
3568.62	13.249
3589.22	13.2064
3609.94	13.1641
3630.78	13.1219
3651.74	13.0801
3672.82	13.0385
3694.03	12.9971
3715.35	12.9559
3736.8	12.915
3758.37	12.8743
3780.07	12.8339
3801.89	12.7937
3823.84	12.7537
3845.92	12.714
3868.12	12.6744
3890.45	12.6351
3912.91	12.5961
3935.5	12.5572
3958.22	12.5186
3981.07	12.4802
4004.05	12.4421
4027.17	12.4041
4050.42	12.3664
4073.8	12.3289
4097.32	12.2916
4120.98	12.2546
4144.77	12.2177
4168.69	12.1811
4192.76	12.1447
4216.97	12.1085
4241.31	12.0725
4265.8	12.0367
4290.42	12.0011
4315.19	11.9658
4340.1	11.9306
4365.16	11.8957
4390.36	11.861
4415.7	11.8264
4441.2	11.7921
4466.84	11.758
4492.62	11.7241
4518.56	11.6904
4544.65	11.6569
4570.88	11.6236
4597.27	11.5905
4623.81	11.5576
4650.5	11.5248
4677.35	11.4923
4704.35	11.46
4731.51	11.4279
4758.83	11.396
4786.3	11.3642
4813.93	11.3327
4841.72	11.3013
4869.68	11.2702
4897.79	11.2392
4926.06	11.2084
4954.5	11.1778
4983.1	11.1474
5011.87	11.1172
5040.81	11.0871
5069.91	11.0573
5099.18	11.0276
5128.61	10.9981
5158.22	10.9688
5188	10.9397
5217.95	10.9108
5248.07	10.882
5278.37	10.8534
5308.84	10.825
5339.49	10.7968
5370.32	10.7687
5401.32	10.7409
5432.5	10.7132
5463.87	10.6856
5495.41	10.6583
5527.13	10.6311
5559.04	10.6041
5591.14	10.5772
5623.41	10.5506
5655.88	10.524
5688.53	10.4977
5721.37	10.4715
5754.4	10.4455
5787.62	10.4197
5821.03	10.394
5854.64	10.3685
5888.44	10.3432
5922.43	10.318
5956.62	10.293
5991.01	10.2681
6025.6	10.2435
6060.38	10.2189
6095.37	10.1945
6130.56	10.1703
6165.95	10.1463
6201.55	10.1224
6237.35	10.0986
6273.36	10.075
6309.57	10.0516
6346	10.0283
6382.63	10.0052
6419.48	9.98222
6456.54	9.95939
6493.82	9.93672
6531.31	9.91421
6569.01	9.89184
6606.93	9.86962
6645.08	9.84755
6683.44	9.82562
6722.02	9.80385
6760.83	9.78222
6799.86	9.76074
6839.12	9.7394
6878.6	9.71821
6918.31	9.69716
6958.25	9.67625
6998.42	9.65549
7038.82	9.63487
7079.46	9.61439
7120.33	9.59405
7161.43	9.57386
7202.78	9.5538
7244.36	9.53388
7286.18	9.5141
7328.25	9.49445
7370.55	9.47495
7413.1	9.45558
7455.9	9.43634
7498.94	9.41725
7542.23	9.39828
7585.78	9.37945
7629.57	9.36076
7673.61	9.34219
7717.92	9.32376
7762.47	9.30546
7807.28	9.28729
7852.36	9.26925
7897.69	9.25134
7943.28	9.23356
7989.14	9.21591
8035.26	9.19839
8081.65	9.18099
8128.31	9.16372
8175.23	9.14658
8222.43	9.12956
8269.9	9.11267
8317.64	9.0959
8365.66	9.07926
8413.95	9.06274
8462.53	9.04635
8511.38	9.03007
8560.52	9.01392
8609.94	8.99789
8659.64	8.98198
8709.64	8.96619
8759.92	8.95052
8810.49	8.93496
8861.35	8.91953
8912.51	8.90422
8963.96	8.88902
9015.71	8.87394
9067.76	8.85897
9120.11	8.84413
9172.76	8.82939
9225.71	8.81478
9278.97	8.80027
9332.54	8.78588
9386.42	8.77161
9440.61	8.75744
9495.11	8.74339
9549.93	8.72945
9605.06	8.71562
9660.51	8.70191
9716.28	8.6883
9772.37	8.6748
9828.79	8.66141
9885.53	8.64813
9942.6	8.63496
10000	8.6219
10057.7	8.60894
10115.8	8.5961
10174.2	8.58335
10232.9	8.57072
10292	8.55818
10351.4	8.54576
10411.2	8.53344
10471.3	8.52122
10531.7	8.5091
10592.5	8.49709
10653.7	8.48518
10715.2	8.47338
10777.1	8.46167
10839.3	8.45007
10901.8	8.43856
10964.8	8.42716
11028.1	8.41586
11091.7	8.40465
11155.8	8.39355
11220.2	8.38254
11285	8.37163
11350.1	8.36082
11415.6	8.35011
11481.5	8.33949
11547.8	8.32897
11614.5	8.31811
11681.5	8.30689
11749	8.29576
11816.8	8.28472
11885	8.27377
11953.6	8.26292
12022.6	8.25216
12092.1	8.24149
12161.9	8.23091
12232.1	8.22042
12302.7	8.21003
12373.7	8.19972
12445.1	8.1895
12517	8.17937
12589.3	8.16932
12661.9	8.15937
12735	8.1495
12808.6	8.13972
12882.5	8.13003
12956.9	8.12042
13031.7	8.1109
13106.9	8.10147
13182.6	8.09212
13258.7	8.08285
13335.2	8.07367
13412.2	8.06457
13489.6	8.05555
13567.5	8.04662
13645.8	8.03777
13724.6	8.029
13803.8	8.02032
13883.5	8.01171
13963.7	8.00319
14044.3	7.99475
14125.4	7.98638
14206.9	7.9781
14288.9	7.9699
14371.4	7.96177
14454.4	7.95372
14537.8	7.94576
14621.8	7.93786
14706.2	7.93005
14791.1	7.92231
14876.5	7.91465
14962.4	7.90707
15048.7	7.89956
15135.6	7.89213
15223	7.88477
15310.9	7.87749
15399.3	7.87028
15488.2	7.86315
15577.6	7.85609
15667.5	7.8491
15758	7.84218
15848.9	7.83534
15940.4	7.82857
16032.5	7.82187
16125	7.81524
16218.1	7.80869
16311.7	7.8022
16405.9	7.79579
16500.6	7.78944
16595.9	7.78316
16691.7	7.77696
16788	7.77082
16885	7.76475
16982.4	7.75875
17080.5	7.75281
17179.1	7.74695
17278.3	7.74115
17378	7.73542
17478.3	7.72975
17579.2	7.72415
17680.7	7.71862
17782.8	7.71315
17885.5	7.70774
17988.7	7.7024
18092.6	7.69713
18197	7.69192
18302.1	7.68677
18407.7	7.68169
18514	7.67666
18620.9	7.67171
18728.4	7.66681
18836.5	7.66198
18945.2	7.6572
19054.6	7.65249
19164.6	7.64784
19275.2	7.64325
19386.5	7.63872
19498.4	7.63426
19611	7.62985
19724.2	7.6255
19838.1	7.62121
19952.6	7.61697
20067.8	7.6128
20183.7	7.60869
20300.2	7.60463
20417.4	7.60063
20535.3	7.59669
20653.8	7.5928
20773	7.58897
20893	7.5852
21013.6	7.58148
21134.9	7.57782
21256.9	7.57421
21379.6	7.57066
21503	7.56716
21627.2	7.56372
21752	7.56033
21877.6	7.557
22003.9	7.55372
22130.9	7.55049
22258.7	7.54732
22387.2	7.5442
22516.5	7.54113
22646.4	7.53811
22777.2	7.53514
22908.7	7.53223
23040.9	7.52937
23173.9	7.52656
23307.7	7.52379
23442.3	7.52108
23577.6	7.51842
23713.7	7.51581
23850.6	7.51325
23988.3	7.51074
24126.8	7.50827
24266.1	7.50586
24406.2	7.50349
24547.1	7.50117
24688.8	7.4989
24831.3	7.49668
24974.7	7.4945
25118.9	7.49237
25263.9	7.49029
25409.7	7.48825
25556.4	7.48626
25704	7.48432
25852.3	7.48242
26001.6	7.48056
26151.7	7.47876
26302.7	7.47699
26454.5	7.47527
26607.3	7.4736
26760.9	7.47197
26915.3	7.47038
27070.7	7.46884
27227	7.46734
27384.2	7.46588
27542.3	7.46447
27701.3	7.46309
27861.2	7.46176
28022.1	7.46047
28183.8	7.45923
28346.5	7.45802
28510.2	7.45686
28674.8	7.45574
28840.3	7.45465
29006.8	7.45361
29174.3	7.45261
29342.7	7.45165
29512.1	7.45073
29682.5	7.44984
29853.8	7.449
30026.2	7.4482
30199.5	7.44743
30373.9	7.4467
30549.2	7.44601
30725.6	7.44536
30903	7.44475
31081.4	7.44417
31260.8	7.44364
31441.3	7.44313
31622.8	7.44267
31805.3	7.44224
31989	7.44185
32173.6	7.44149
32359.4	7.44117
32546.2	7.44089
32734.1	7.44064
32923	7.44043
33113.1	7.44025
33304.3	7.4401
33496.5	7.43999
33689.9	7.43992
33884.4	7.43988
34080	7.43987
34276.8	7.4399
34474.7	7.43996
34673.7	7.44005
34873.9	7.44018
35075.2	7.44033
35277.7	7.44053
35481.3	7.44075
35686.2	7.44101
35892.2	7.44129
36099.4	7.44161
36307.8	7.44196
36517.4	7.44234
36728.2	7.44276
36940.3	7.4432
37153.5	7.44368
37368	7.44418
37583.7	7.44471
37800.7	7.44528
38018.9	7.44587
38238.4	7.4465
38459.2	7.44715
38681.2	7.44784
38904.5	7.44855
39129.1	7.44929
39355	7.45006
39582.2	7.45085
39810.7	7.45168
40040.5	7.45253
40271.7	7.45342
40504.2	7.45433
40738	7.45526
40973.2	7.45623
41209.8	7.45722
41447.7	7.45823
41686.9	7.45928
41927.6	7.46035
42169.7	7.46145
42413.1	7.46257
42658	7.46372
42904.2	7.46489
43151.9	7.46609
43401	7.46732
43651.6	7.46857
43903.6	7.46985
44157	7.47115
44412	7.47247
44668.4	7.47382
44926.2	7.4752
45185.6	7.47659
45446.5	7.47802
45708.8	7.47946
45972.7	7.48093
46238.1	7.48242
46505	7.48394
46773.5	7.48548
47043.5	7.48704
47315.1	7.48862
47588.3	7.49023
47863	7.49186
48139.3	7.49351
48417.2	7.49519
48696.8	7.49688
48977.9	7.4986
49260.6	7.50034
49545	7.5021
49831	7.50388
50118.7	7.50568
50408.1	7.5075
50699.1	7.50935
50991.8	7.51121
51286.1	7.51309
51582.2	7.515
51880	7.51692
52179.5	7.51887
52480.7	7.52083
52783.7	7.52282
53088.4	7.52482
53394.9	7.52684
53703.2	7.52888
54013.2	7.53095
54325	7.53303
54638.7	7.53512
54954.1	7.53724
55271.3	7.53938
55590.4	7.54153
55911.4	7.5437
56234.1	7.54589
56558.8	7.5481
56885.3	7.55032
57213.7	7.55257
57544	7.55483
57876.2	7.55711
58210.3	7.5594
58546.4	7.56171
58884.4	7.56404
59224.3	7.56638
59566.2	7.56875
59910.1	7.57112
60256	7.57352
60603.8	7.57593
60953.7	7.57835
61305.6	7.5808
61659.5	7.58325
62015.5	7.58573
62373.5	7.58822
62733.6	7.59072
63095.7	7.59324
63460	7.59577
63826.3	7.59832
64194.8	7.60089
64565.4	7.60347
64938.2	7.60606
65313.1	7.60867
65690.1	7.61129
66069.3	7.61393
66450.8	7.61658
66834.4	7.61924
67220.2	7.62192
67608.3	7.62461
67998.6	7.62732
68391.2	7.63004
68786	7.63277
69183.1	7.63552
69582.5	7.63827
69984.2	7.64105
70388.2	7.64383
70794.6	7.64663
71203.3	7.64944
71614.3	7.65226
72027.8	7.6551
72443.6	7.65794
72861.8	7.6608
73282.5	7.66367
73705.5	7.66656
74131	7.66945
74559	7.67236
74989.4	7.67528
75422.3	7.67821
75857.8	7.68115
76295.7	7.6841
76736.1	7.68707
77179.2	7.69004
77624.7	7.69303
78072.8	7.69603
78523.6	7.69903
78976.9	7.70205
79432.8	7.70508
79891.4	7.70812
80352.6	7.71117
80816.5	7.71423
81283.1	7.7173
81752.3	7.72038
82224.3	7.72347
82699	7.72658
83176.4	7.72969
83656.6	7.73281
84139.5	7.73594
84625.3	7.73907
85113.8	7.74222
85605.2	7.74538
86099.4	7.74855
86596.4	7.75173
87096.4	7.75491
87599.2	7.75811
88104.9	7.76131
88613.5	7.76452
89125.1	7.76774
89639.6	7.77097
90157.1	7.77421
90677.6	7.77746
91201.1	7.78071
91727.6	7.78397
92257.1	7.78724
92789.7	7.79052
93325.4	7.79381
93864.2	7.79711
94406.1	7.80041
94951.1	7.80372
95499.3	7.80704
96050.6	7.81036
96605.1	7.8137
97162.8	7.81704
97723.7	7.82039
98287.9	7.82374
98855.3	7.82711
99426	7.83048
100000	7.83385
100577	7.83724
101158	7.84063
101742	7.84403
102329	7.84743
102920	7.85084
103514	7.85426
104112	7.85768
104713	7.86111
105317	7.86455
105925	7.86799
106537	7.87144
107152	7.8749
107771	7.87836
108393	7.88183
109018	7.8853
109648	7.88878
110281	7.89227
110917	7.89576
111558	7.89926
112202	7.90276
112850	7.90627
113501	7.90978
114156	7.9133
114815	7.91682
115478	7.92035
116145	7.92389
116815	7.92743
117490	7.93097
118168	7.93452
118850	7.93808
119536	7.94164
120226	7.9452
120921	7.94877
121619	7.95235
122321	7.95593
123027	7.95951
123737	7.9631
124451	7.96669
125170	7.97029
125893	7.97389
126619	7.97749
127350	7.9811
128086	7.98472
128825	7.98834
129569	7.99196
130317	7.99559
131069	7.99922
131826	8.00285
132587	8.00649
133352	8.01013
134122	8.01378
134896	8.01743
135675	8.02108
136458	8.02474
137246	8.0284
138038	8.03206
138835	8.03573
139637	8.0394
140443	8.04308
141254	8.04675
142069	8.05044
142889	8.05412
143714	8.05781
144544	8.0615
145378	8.06519
146218	8.06889
147062	8.07259
147911	8.07629
148765	8.08
149624	8.08371
150487	8.08742
151356	8.09113
152230	8.09485
153109	8.09857
153993	8.10229
154882	8.10601
155776	8.10974
156675	8.11347
157580	8.1172
158489	8.12094
159404	8.12468
160325	8.12842
161250	8.13216
162181	8.1359
163117	8.13965
164059	8.1434
165006	8.14715
165959	8.1509
166917	8.15466
167880	8.15841
168850	8.16217
169824	8.16593
170805	8.1697
171791	8.17346
172783	8.17723
173780	8.181
174783	8.18477
175792	8.18854
176807	8.19231
177828	8.19609
178855	8.19987
179887	8.20364
180926	8.20742
181970	8.21121
183021	8.21499
184077	8.21877
185140	8.22256
186209	8.22635
187284	8.23014
188365	8.23393
189452	8.23772
190546	8.24151
191646	8.24531
192752	8.2491
193865	8.2529
194984	8.2567
196110	8.2605
197242	8.2643
198381	8.2681
199526	8.2719
200678	8.27571
201837	8.27951
203002	8.28332
204174	8.28712
205353	8.29093
206538	8.29474
207730	8.29855
208930	8.30236
210136	8.30617
211349	8.30998
212569	8.31379
213796	8.31761
215030	8.32142
216272	8.32523
217520	8.32905
218776	8.33287
220039	8.33668
221309	8.3405
222587	8.34432
223872	8.34813
225165	8.35195
226464	8.35577
227772	8.35959
229087	8.36341
230409	8.36723
231739	8.37105
233077	8.37487
234423	8.3787
235776	8.38252
237137	8.38634
238506	8.39016
239883	8.39398
241268	8.39781
242661	8.40163
244062	8.40545
245471	8.40928
246888	8.4131
248313	8.41693
249747	8.42075
251189	8.42457
252639	8.4284
254097	8.43222
255564	8.43605
257040	8.43987
258523	8.4437
260016	8.44752
261517	8.45134
263027	8.45517
264545	8.45899
266073	8.46282
267609	8.46664
269153	8.47047
270707	8.47429
272270	8.47811
273842	8.48194
275423	8.48576
277013	8.48958
278612	8.49341
280221	8.49723
281838	8.50105
283465	8.50487
285102	8.50869
286748	8.51252
288403	8.51634
290068	8.52016
291743	8.52398
293427	8.5278
295121	8.53162
296825	8.53544
298538	8.53926
300262	8.54308
301995	8.54689
303739	8.55071
305492	8.55453
307256	8.55835
309030	8.56216
310814	8.56598
312608	8.56979
314413	8.57361
316228	8.57742
318053	8.58124
319890	8.58505
321736	8.58886
323594	8.59268
325462	8.59649
327341	8.6003
329230	8.60411
331131	8.60792
333043	8.61173
334965	8.61553
336899	8.61934
338844	8.62315
340800	8.62696
342768	8.63076
344747	8.63457
346737	8.63837
348739	8.64217
350752	8.64598
352777	8.64978
354813	8.65358
356862	8.65738
358922	8.66118
360994	8.66498
363078	8.66877
365174	8.67257
367282	8.67637
369403	8.68016
371535	8.68396
373680	8.68775
375837	8.69154
378007	8.69534
380189	8.69913
382384	8.70292
384592	8.70671
386812	8.71049
389045	8.71428
391291	8.71807
393550	8.72185
395822	8.72564
398107	8.72942
400405	8.7332
402717	8.73699
405042	8.74077
407380	8.74455
409732	8.74833
412098	8.7521
414477	8.75588
416869	8.75966
419276	8.76343
421697	8.7672
424131	8.77098
426580	8.77475
429042	8.77852
431519	8.78229
434010	8.78606
436516	8.78982
439036	8.79359
441570	8.79735
444120	8.80112
446684	8.80488
449262	8.80864
451856	8.8124
454465	8.81616
457088	8.81992
459727	8.82368
462381	8.82743
465050	8.83119
467735	8.83494
470435	8.8387
473151	8.84245
475883	8.8462
478630	8.84995
481393	8.85369
484172	8.85744
486968	8.86119
489779	8.86493
492606	8.86867
495450	8.87242
498310	8.87616
501187	8.8799
504081	8.88363
506991	8.88737
509918	8.89111
512861	8.89484
515822	8.89857
518800	8.90231
521795	8.90604
524807	8.90977
527837	8.91349
530884	8.91722
533949	8.92095
537032	8.92467
540132	8.92839
543250	8.93211
546387	8.93584
549541	8.93955
552713	8.94327
555904	8.94699
559114	8.9507
562341	8.95442
565588	8.95813
568853	8.96184
572137	8.96555
575440	8.96926
578762	8.97297
582103	8.97667
585464	8.98038
588844	8.98408
592243	8.98778
595662	8.99148
599101	8.99518
602560	8.99888
606038	9.00258
609537	9.00627
613056	9.00996
616595	9.01366
620155	9.01735
623735	9.02104
627336	9.02473
630957	9.02841
634600	9.0321
638263	9.03578
641948	9.03946
645654	9.04315
649382	9.04682
653131	9.0505
656901	9.05418
660693	9.05786
664508	9.06153
668344	9.0652
672202	9.06887
676083	9.07254
679986	9.07621
683912	9.07988
687860	9.08354
691831	9.08721
695825	9.09087
699842	9.09453
703882	9.09819
707946	9.10185
712033	9.10551
716143	9.10916
720278	9.11282
724436	9.11647
728618	9.12012
732825	9.12377
737055	9.12742
741310	9.13106
745590	9.13471
749894	9.13835
754223	9.14199
758578	9.14563
762957	9.14927
767361	9.15291
771792	9.15655
776247	9.16018
780728	9.16382
785236	9.16745
789769	9.17108
794328	9.17471
798914	9.17833
803526	9.18196
808165	9.18558
812831	9.18921
817523	9.19283
822243	9.19645
826990	9.20007
831764	9.20368
836566	9.2073
841395	9.21091
846253	9.21452
851138	9.21813
856052	9.22174
860994	9.22535
865964	9.22896
870964	9.23256
875992	9.23616
881049	9.23977
886135	9.24337
891251	9.24696
896396	9.25056
901571	9.25416
906776	9.25775
912011	9.26134
917276	9.26493
922571	9.26852
927897	9.27211
933254	9.2757
938642	9.27928
944061	9.28286
949511	9.28645
954993	9.29003
960506	9.2936
966051	9.29718
971628	9.30076
977237	9.30433
982879	9.3079
988553	9.31147
994260	9.31504
1e+06	9.31861
1.00577e+06	9.32218
1.01158e+06	9.32574
1.01742e+06	9.3293
1.02329e+06	9.33286
1.0292e+06	9.33642
1.03514e+06	9.33998
1.04112e+06	9.34354
1.04713e+06	9.34709
1.05317e+06	9.35065
1.05925e+06	9.3542
1.06537e+06	9.35775
1.07152e+06	9.3613
1.07771e+06	9.36485
1.08393e+06	9.36839
1.09018e+06	9.37194
1.09648e+06	9.37548
1.10281e+06	9.37902
1.10917e+06	9.38256
1.11558e+06	9.3861
1.12202e+06	9.38963
1.1285e+06	9.39317
1.13501e+06	9.3967
1.14156e+06	9.40023
1.14815e+06	9.40376
1.15478e+06	9.40729
1.16145e+06	9.41081
1.16815e+06	9.41434
1.1749e+06	9.41786
1.18168e+06	9.42138
1.1885e+06	9.4249
1.19536e+06	9.42842
1.20226e+06	9.43194
1.20921e+06	9.43545
1.21619e+06	9.43897
1.22321e+06	9.44248
1.23027e+06	9.44599
1.23737e+06	9.4495
1.24451e+06	9.45301
1.2517e+06	9.45651
1.25893e+06	9.46002
1.26619e+06	9.46352
1.2735e+06	9.46702
1.28086e+06	9.47052
1.28825e+06	9.47402
1.29569e+06	9.47751
1.30317e+06	9.48101
1.31069e+06	9.4845
1.31826e+06	9.48799
1.32587e+06	9.49148
1.33352e+06	9.49497
1.34122e+06	9.49845
1.34896e+06	9.50194
1.35675e+06	9.50542
1.36458e+06	9.5089
1.37246e+06	9.51238
1.38038e+06	9.51586
1.38835e+06	9.51934
1.39637e+06	9.52281
1.40443e+06	9.52629
1.41254e+06	9.52976
1.42069e+06	9.53323
1.42889e+06	9.5367
1.43714e+06	9.54016
1.44544e+06	9.54363
1.45378e+06	9.54709
1.46218e+06	9.55055
1.47062e+06	9.55401
1.47911e+06	9.55747
1.48765e+06	9.56093
1.49624e+06	9.56438
1.50487e+06	9.56784
1.51356e+06	9.57129
1.5223e+06	9.57474
1.53109e+06	9.57819
1.53993e+06	9.58163
1.54882e+06	9.58508
1.55776e+06	9.58852
1.56675e+06	9.59197
1.5758e+06	9.59541
1.58489e+06	9.59884
1.59404e+06	9.60228
1.60325e+06	9.60572
1.6125e+06	9.60915
1.62181e+06	9.61258
1.63117e+06	9.61601
1.64059e+06	9.61944
1.65006e+06	9.62287
1.65959e+06	9.62629
1.66917e+06	9.62972
1.6788e+06	9.63314
1.6885e+06	9.63656
1.69824e+06	9.63998
1.70805e+06	9.6434
1.71791e+06	9.64681
1.72783e+06	9.65023
1.7378e+06	9.65364
1.74783e+06	9.65705
1.75792e+06	9.66046
1.76807e+06	9.66386
1.77828e+06	9.66727
1.78855e+06	9.67067
1.79887e+06	9.67408
1.80926e+06	9.67748
1.8197e+06	9.68087
1.83021e+06	9.68427
1.84077e+06	9.68767
1.8514e+06	9.69106
1.86209e+06	9.69445
1.87284e+06	9.69784
1.88365e+06	9.70123
1.89452e+06	9.70462
1.90546e+06	9.708
1.91646e+06	9.71139
1.92752e+06	9.71477
1.93865e+06	9.71815
1.94984e+06	9.72153
1.9611e+06	9.7249
1.97242e+06	9.72828
1.98381e+06	9.73165
1.99526e+06	9.73502
2.00678e+06	9.73839
2.01837e+06	9.74176
2.03002e+06	9.74513
2.04174e+06	9.74849
2.05353e+06	9.75185
2.06538e+06	9.75522
2.0773e+06	9.75858
2.0893e+06	9.76193
2.10136e+06	9.76529
2.11349e+06	9.76864
2.12569e+06	9.772
2.13796e+06	9.77535
2.1503e+06	9.7787
2.16272e+06	9.78204
2.1752e+06	9.78539
2.18776e+06	9.78873
2.20039e+06	9.79208
2.21309e+06	9.79542
2.22587e+06	9.79876
2.23872e+06	9.80209
2.25165e+06	9.80543
2.26464e+06	9.80876
2.27772e+06	9.8121
2.29087e+06	9.81543
2.30409e+06	9.81875
2.31739e+06	9.82208
2.33077e+06	9.82541
2.34423e+06	9.82873
2.35776e+06	9.83205
2.37137e+06	9.83537
2.38506e+06	9.83869
2.39883e+06	9.84201
2.41268e+06	9.84532
2.42661e+06	9.84863
2.44062e+06	9.85195
2.45471e+06	9.85525
2.46888e+06	9.85856
2.48313e+06	9.86187
2.49747e+06	9.86517
2.51189e+06	9.86847
2.52639e+06	9.87178
2.54097e+06	9.87507
2.55564e+06	9.87837
2.5704e+06	9.88167
2.58523e+06	9.88496
2.60016e+06	9.88825
2.61517e+06	9.89154
2.63027e+06	9.89483
2.64545e+06	9.89812
2.66073e+06	9.9014
2.67609e+06	9.90469
2.69153e+06	9.90797
2.70707e+06	9.91125
2.7227e+06	9.91452
2.73842e+06	9.9178
2.75423e+06	9.92107
2.77013e+06	9.92435
2.78612e+06	9.92762
2.80221e+06	9.93089
2.81838e+06	9.93415
2.83465e+06	9.93742
2.85102e+06	9.94068
2.86748e+06	9.94394
2.88403e+06	9.9472
2.90068e+06	9.95046
2.91743e+06	9.95372
2.93427e+06	9.95697
2.95121e+06	9.96023
2.96825e+06	9.96348
2.98538e+06	9.96673
3.00262e+06	9.96997
3.01995e+06	9.97322
3.03739e+06	9.97646
3.05492e+06	9.97971
3.07256e+06	9.98295
3.0903e+06	9.98618
3.10814e+06	9.98942
3.12608e+06	9.99266
3.14413e+06	9.99589
3.16228e+06	9.99912
3.18053e+06	10.0023
3.1989e+06	10.0056
3.21736e+06	10.0088
3.23594e+06	10.012
3.25462e+06	10.0152
3.27341e+06	10.0185
3.2923e+06	10.0217
3.31131e+06	10.0249
3.33043e+06	10.0281
3.34965e+06	10.0313
3.36899e+06	10.0345
3.38844e+06	10.0378
3.408e+06	10.041
3.42768e+06	10.0442
3.44747e+06	10.0474
3.46737e+06	10.0506
3.48739e+06	10.0538
3.50752e+06	10.057
3.52777e+06	10.0602
3.54813e+06	10.0634
3.56862e+06	10.0666
3.58922e+06	10.0697
3.60994e+06	10.0729
3.63078e+06	10.0761
3.65174e+06	10.0793
3.67282e+06	10.0825
3.69403e+06	10.0857
3.71535e+06	10.0889
3.7368e+06	10.092
3.75837e+06	10.0952
3.78007e+06	10.0984
3.80189e+06	10.1016
3.82384e+06	10.1047
3.84592e+06	10.1079
3.86812e+06	10.1111
3.89045e+06	10.1142
3.91291e+06	10.1174
3.9355e+06	10.1205
3.95822e+06	10.1237
3.98107e+06	10.1269
4.00405e+06	10.13
4.02717e+06	10.1332
4.05042e+06	10.1363
4.0738e+06	10.1395
4.09732e+06	10.1426
4.12098e+06	10.1458
4.14477e+06	10.1489
4.16869e+06	10.1521
4.19276e+06	10.1552
4.21697e+06	10.1583
4.24131e+06	10.1615
4.2658e+06	10.1646
4.29042e+06	10.1677
4.31519e+06	10.1709
4.3401e+06	10.174
4.36516e+06	10.1771
4.39036e+06	10.1803
4.4157e+06	10.1834
4.4412e+06	10.1865
4.46684e+06	10.1896
4.49262e+06	10.1927
4.51856e+06	10.1959
4.54465e+06	10.199
4.57088e+06	10.2021
4.59727e+06	10.2052
4.62381e+06	10.2083
4.6505e+06	10.2114
4.67735e+06	10.2145
4.70435e+06	10.2176
4.73151e+06	10.2207
4.75883e+06	10.2238
4.7863e+06	10.2269
4.81393e+06	10.23
4.84172e+06	10.2331
4.86968e+06	10.2362
4.89779e+06	10.2393
4.92606e+06	10.2424
4.9545e+06	10.2454
4.9831e+06	10.2485
5.01187e+06	10.2516
5.04081e+06	10.2547
5.06991e+06	10.2578
5.09918e+06	10.2608
5.12861e+06	10.2639
5.15822e+06	10.267
5.188e+06	10.2701
5.21795e+06	10.2731
5.24807e+06	10.2762
5.27837e+06	10.2792
5.30884e+06	10.2823
5.33949e+06	10.2854
5.37032e+06	10.2884
5.40132e+06	10.2915
5.4325e+06	10.2945
5.46387e+06	10.2976
5.49541e+06	10.3006
5.52713e+06	10.3037
5.55904e+06	10.3067
5.59114e+06	10.3098
5.62341e+06	10.3128
5.65588e+06	10.3159
5.68853e+06	10.3189
5.72137e+06	10.3219
5.7544e+06	10.325
5.78762e+06	10.328
5.82103e+06	10.331
5.85464e+06	10.3341
5.88844e+06	10.3371
5.92243e+06	10.3401
5.95662e+06	10.3431
5.99101e+06	10.3461
6.0256e+06	10.3492
6.06038e+06	10.3522
6.09537e+06	10.3552
6.13056e+06	10.3582
6.16595e+06	10.3612
6.20155e+06	10.3642
6.23735e+06	10.3672
6.27336e+06	10.3702
6.30957e+06	10.3732
6.346e+06	10.3762
6.38263e+06	10.3792
6.41948e+06	10.3822
6.45654e+06	10.3852
6.49382e+06	10.3882
6.53131e+06	10.3912
6.56901e+06	10.3942
6.60693e+06	10.3972
6.64508e+06	10.4002
6.68344e+06	10.4031
6.72202e+06	10.4061
6.76083e+06	10.4091
6.79986e+06	10.4121
6.83912e+06	10.415
6.8786e+06	10.418
6.91831e+06	10.421
6.95825e+06	10.4239
6.99842e+06	10.4269
7.03882e+06	10.4299
7.07946e+06	10.4328
7.12033e+06	10.4358
7.16143e+06	10.4388
7.20278e+06	10.4417
7.24436e+06	10.4447
7.28618e+06	10.4476
7.32825e+06	10.4506
7.37055e+06	10.4535
7.4131e+06	10.4564
7.4559e+06	10.4594
7.49894e+06	10.4623
7.54223e+06	10.4653
7.58578e+06	10.4682
7.62957e+06	10.4711
7.67361e+06	10.4741
7.71792e+06	10.477
7.76247e+06	10.4799
7.80728e+06	10.4828
7.85236e+06	10.4858
7.89769e+06	10.4887
7.94328e+06	10.4916
7.98914e+06	10.4945
8.03526e+06	10.4974
8.08165e+06	10.5004
8.12831e+06	10.5033
8.17523e+06	10.5062
8.22243e+06	10.5091
8.2699e+06	10.512
8.31764e+06	10.5149
8.36566e+06	10.5178
8.41395e+06	10.5207
8.46253e+06	10.5236
8.51138e+06	10.5265
8.56052e+06	10.5294
8.60994e+06	10.5322
8.65964e+06	10.5351
8.70964e+06	10.538
8.75992e+06	10.5409
8.81049e+06	10.5438
8.86135e+06	10.5467
8.91251e+06	10.5495
8.96396e+06	10.5524
9.01571e+06	10.5553
9.06776e+06	10.5581
9.12011e+06	10.561
9.17276e+06	10.5639
9.22571e+06	10.5667
9.27897e+06	10.5696
9.33254e+06	10.5725
9.38642e+06	10.5753
9.44061e+06	10.5782
9.49511e+06	10.581
9.54993e+06	10.5839
9.60506e+06	10.5867
9.66051e+06	10.5895
9.71628e+06	10.5924
9.77237e+06	10.5952
9.82879e+06	10.5981
9.88553e+06	10.6009
9.9426e+06	10.6037
1e+07	10.6066
