Stopping power dEdx from Ionisation for Ca40[0.0] Z = 20 in Water, process name: ionIoni
E [MeV]	dEdx [MeV/mm]
0.001	23.3963
0.00100577	23.4641
0.00101158	23.5321
0.00101742	23.6004
0.00102329	23.6688
0.0010292	23.7374
0.00103514	23.8062
0.00104112	23.8752
0.00104713	23.9445
0.00105317	24.0139
0.00105925	24.0835
0.00106537	24.1533
0.00107152	24.2233
0.00107771	24.2935
0.00108393	24.364
0.00109018	24.4346
0.00109648	24.5054
0.00110281	24.5765
0.00110917	24.6477
0.00111558	24.7191
0.00112202	24.7908
0.0011285	24.8626
0.00113501	24.9347
0.00114156	25.007
0.00114815	25.0795
0.00115478	25.1521
0.00116145	25.225
0.00116815	25.2981
0.0011749	25.3715
0.00118168	25.445
0.0011885	25.5187
0.00119536	25.5927
0.00120226	25.6669
0.00120921	25.7412
0.00121619	25.8158
0.00122321	25.8906
0.00123027	25.9657
0.00123737	26.0409
0.00124451	26.1164
0.0012517	26.192
0.00125893	26.2679
0.00126619	26.344
0.0012735	26.4204
0.00128086	26.4969
0.00128825	26.5737
0.00129569	26.6507
0.00130317	26.7279
0.00131069	26.8054
0.00131826	26.883
0.00132587	26.9609
0.00133352	27.039
0.00134122	27.1174
0.00134896	27.1959
0.00135675	27.2747
0.00136458	27.3537
0.00137246	27.433
0.00138038	27.5124
0.00138835	27.5921
0.00139637	27.6721
0.00140443	27.7522
0.00141254	27.8326
0.00142069	27.9132
0.00142889	27.9941
0.00143714	28.0752
0.00144544	28.1565
0.00145378	28.2381
0.00146218	28.3199
0.00147062	28.4019
0.00147911	28.4841
0.00148765	28.5666
0.00149624	28.6494
0.00150487	28.7324
0.00151356	28.8156
0.0015223	28.899
0.00153109	28.9827
0.00153993	29.0667
0.00154882	29.1509
0.00155776	29.2353
0.00156675	29.3199
0.0015758	29.4048
0.00158489	29.49
0.00159404	29.5754
0.00160325	29.6611
0.0016125	29.7469
0.00162181	29.8331
0.00163117	29.9195
0.00164059	30.0061
0.00165006	30.093
0.00165959	30.1801
0.00166917	30.2675
0.0016788	30.3552
0.0016885	30.4431
0.00169824	30.5312
0.00170805	30.6196
0.00171791	30.7083
0.00172783	30.7972
0.0017378	30.8864
0.00174783	30.9758
0.00175792	31.0655
0.00176807	31.1554
0.00177828	31.2456
0.00178855	31.3361
0.00179887	31.4268
0.00180926	31.5178
0.0018197	31.609
0.00183021	31.7005
0.00184077	31.7923
0.0018514	31.8843
0.00186209	31.9766
0.00187284	32.0692
0.00188365	32.162
0.00189452	32.2551
0.00190546	32.3485
0.00191646	32.4421
0.00192752	32.5361
0.00193865	32.6302
0.00194984	32.7247
0.0019611	32.8194
0.00197242	32.9144
0.00198381	33.0097
0.00199526	33.1052
0.00200678	33.201
0.00201837	33.2971
0.00203002	33.3935
0.00204174	33.4902
0.00205353	33.5871
0.00206538	33.6843
0.0020773	33.7818
0.0020893	33.8796
0.00210136	33.9776
0.00211349	34.076
0.00212569	34.1746
0.00213796	34.2735
0.0021503	34.3727
0.00216272	34.4721
0.0021752	34.5719
0.00218776	34.672
0.00220039	34.7723
0.00221309	34.8729
0.00222587	34.9738
0.00223872	35.075
0.00225165	35.1765
0.00226464	35.2783
0.00227772	35.3804
0.00229087	35.4828
0.00230409	35.5855
0.00231739	35.6884
0.00233077	35.7917
0.00234423	35.8953
0.00235776	35.9991
0.00237137	36.1033
0.00238506	36.2078
0.00239883	36.3125
0.00241268	36.4176
0.00242661	36.523
0.00244062	36.6286
0.00245471	36.7346
0.00246888	36.8409
0.00248313	36.9475
0.00249747	37.0544
0.00251189	37.1616
0.00252639	37.2691
0.00254097	37.3769
0.00255564	37.485
0.0025704	37.5935
0.00258523	37.7022
0.00260016	37.8113
0.00261517	37.9207
0.00263027	38.0304
0.00264545	38.1404
0.00266073	38.2508
0.00267609	38.3614
0.00269153	38.4724
0.00270707	38.5837
0.0027227	38.6953
0.00273842	38.8072
0.00275423	38.9195
0.00277013	39.032
0.00278612	39.145
0.00280221	39.2582
0.00281838	39.3717
0.00283465	39.4856
0.00285102	39.5998
0.00286748	39.7144
0.00288403	39.8292
0.00290068	39.9444
0.00291743	40.06
0.00293427	40.1758
0.00295121	40.292
0.00296825	40.4086
0.00298538	40.5255
0.00300262	40.6427
0.00301995	40.7602
0.00303739	40.8781
0.00305492	40.9963
0.00307256	41.1149
0.0030903	41.2338
0.00310814	41.353
0.00312608	41.4726
0.00314413	41.5926
0.00316228	41.7129
0.00318053	41.8335
0.0031989	41.9545
0.00321736	42.0758
0.00323594	42.1975
0.00325462	42.3195
0.00327341	42.4419
0.0032923	42.5646
0.00331131	42.6877
0.00333043	42.8111
0.00334965	42.9349
0.00336899	43.0591
0.00338844	43.1836
0.003408	43.3085
0.00342768	43.4337
0.00344747	43.5593
0.00346737	43.6853
0.00348739	43.8116
0.00350752	43.9383
0.00352777	44.0653
0.00354813	44.1927
0.00356862	44.3205
0.00358922	44.4486
0.00360994	44.5772
0.00363078	44.706
0.00365174	44.8353
0.00367282	44.9649
0.00369403	45.0949
0.00371535	45.2253
0.0037368	45.3561
0.00375837	45.4872
0.00378007	45.6187
0.00380189	45.7506
0.00382384	45.8829
0.00384592	46.0155
0.00386812	46.1486
0.00389045	46.282
0.00391291	46.4158
0.0039355	46.55
0.00395822	46.6845
0.00398107	46.8195
0.00400405	46.9548
0.00402717	47.0906
0.00405042	47.2267
0.0040738	47.3632
0.00409732	47.5002
0.00412098	47.6375
0.00414477	47.7752
0.00416869	47.9133
0.00419276	48.0518
0.00421697	48.1907
0.00424131	48.33
0.0042658	48.4697
0.00429042	48.6098
0.00431519	48.7503
0.0043401	48.8912
0.00436516	49.0326
0.00439036	49.1743
0.0044157	49.3164
0.0044412	49.459
0.00446684	49.6019
0.00449262	49.7453
0.00451856	49.8891
0.00454465	50.0333
0.00457088	50.1779
0.00459727	50.3229
0.00462381	50.4684
0.0046505	50.6142
0.00467735	50.7605
0.00470435	50.9072
0.00473151	51.0544
0.00475883	51.2019
0.0047863	51.3499
0.00481393	51.4983
0.00484172	51.6472
0.00486968	51.7964
0.00489779	51.9461
0.00492606	52.0963
0.0049545	52.2468
0.0049831	52.3978
0.00501187	52.5492
0.00504081	52.7011
0.00506991	52.8534
0.00509918	53.0061
0.00512861	53.1593
0.00515822	53.313
0.005188	53.467
0.00521795	53.6215
0.00524807	53.7765
0.00527837	53.9319
0.00530884	54.0877
0.00533949	54.244
0.00537032	54.4008
0.00540132	54.558
0.0054325	54.7157
0.00546387	54.524
0.00549541	54.6812
0.00552713	54.839
0.00555904	54.9971
0.00559114	55.1558
0.00562341	55.3149
0.00565588	55.4744
0.00568853	55.6345
0.00572137	55.7949
0.0057544	55.9559
0.00578762	56.1173
0.00582103	56.2792
0.00585464	56.4415
0.00588844	56.6043
0.00592243	56.7676
0.00595662	56.9313
0.00599101	57.0956
0.0060256	57.2603
0.00606038	57.4254
0.00609537	57.5911
0.00613056	57.7572
0.00616595	57.9238
0.00620155	58.0909
0.00623735	58.2585
0.00627336	58.4265
0.00630957	58.5951
0.006346	58.7641
0.00638263	58.9336
0.00641948	59.1036
0.00645654	59.2741
0.00649382	59.4451
0.00653131	59.6166
0.00656901	59.7885
0.00660693	59.961
0.00664508	60.134
0.00668344	60.3075
0.00672202	60.4814
0.00676083	60.6559
0.00679986	60.8309
0.00683912	61.0064
0.0068786	61.1823
0.00691831	61.3588
0.00695825	61.5358
0.00699842	61.7134
0.00703882	61.8914
0.00707946	62.0699
0.00712033	62.249
0.00716143	62.4286
0.00720278	62.6087
0.00724436	62.7893
0.00728618	62.9704
0.00732825	63.1521
0.00737055	63.3342
0.0074131	63.517
0.0074559	63.7002
0.00749894	63.884
0.00754223	64.0682
0.00758578	64.2531
0.00762957	64.4384
0.00767361	64.6243
0.00771792	64.8108
0.00776247	64.9977
0.00780728	65.1853
0.00785236	65.3733
0.00789769	65.5619
0.00794328	65.751
0.00798914	65.9407
0.00803526	66.131
0.00808165	66.3217
0.00812831	66.5131
0.00817523	66.705
0.00822243	66.8974
0.0082699	67.0904
0.00831764	67.284
0.00836566	67.4781
0.00841395	67.6727
0.00846253	67.868
0.00851138	68.0638
0.00856052	68.2601
0.00860994	68.4571
0.00865964	68.6546
0.00870964	68.8526
0.00875992	69.0513
0.00881049	69.2505
0.00886135	69.4503
0.00891251	69.6507
0.00896396	69.8516
0.00901571	70.0531
0.00906776	70.2553
0.00912011	70.4579
0.00917276	70.6612
0.00922571	70.8651
0.00927897	71.0695
0.00933254	71.2746
0.00938642	71.4802
0.00944061	71.6865
0.00949511	71.8933
0.00954993	72.1007
0.00960506	72.3087
0.00966051	72.5174
0.00971628	72.7266
0.00977237	72.9364
0.00982879	73.1468
0.00988553	73.3579
0.0099426	73.5695
0.01	73.7818
0.0100577	73.9947
0.0101158	74.2082
0.0101742	74.4223
0.0102329	74.637
0.010292	74.8524
0.0103514	75.0683
0.0104112	75.2849
0.0104713	75.5021
0.0105317	75.72
0.0105925	75.9385
0.0106537	76.1576
0.0107152	76.3773
0.0107771	76.5977
0.0108393	76.8187
0.0109018	77.0403
0.0109648	77.2626
0.0110281	77.4856
0.0110917	77.7091
0.0111558	77.9334
0.0112202	78.1582
0.011285	78.3837
0.0113501	78.6099
0.0114156	78.8367
0.0114815	79.0642
0.0115478	79.2923
0.0116145	79.5211
0.0116815	79.7506
0.011749	79.9807
0.0118168	80.2115
0.011885	80.4429
0.0119536	80.6751
0.0120226	80.9078
0.0120921	81.1413
0.0121619	81.3754
0.0122321	81.6103
0.0123027	81.8457
0.0123737	82.0819
0.0124451	82.3188
0.012517	82.5563
0.0125893	82.7945
0.0126619	83.0334
0.012735	83.273
0.0128086	83.5133
0.0128825	83.7543
0.0129569	83.996
0.0130317	84.2384
0.0131069	84.4815
0.0131826	84.7252
0.0132587	84.9697
0.0133352	85.2149
0.0134122	85.4608
0.0134896	85.7074
0.0135675	85.9548
0.0136458	86.2028
0.0137246	86.4516
0.0138038	86.701
0.0138835	86.9512
0.0139637	87.2021
0.0140443	87.4538
0.0141254	87.7062
0.0142069	87.9593
0.0142889	88.2131
0.0143714	88.4676
0.0144544	88.7229
0.0145378	88.979
0.0146218	89.2358
0.0147062	89.4933
0.0147911	89.7515
0.0148765	90.0106
0.0149624	90.2703
0.0150487	90.5308
0.0151356	90.7921
0.015223	91.0541
0.0153109	91.3169
0.0153993	91.5804
0.0154882	91.8447
0.0155776	92.1098
0.0156675	92.3756
0.015758	92.6422
0.0158489	92.9095
0.0159404	93.1777
0.0160325	93.4466
0.016125	93.7163
0.0162181	93.9867
0.0163117	94.258
0.0164059	94.53
0.0165006	94.8028
0.0165959	95.0764
0.0166917	95.3508
0.016788	95.626
0.016885	95.902
0.0169824	96.1788
0.0170805	96.4563
0.0171791	96.7347
0.0172783	97.0139
0.017378	97.2939
0.0174783	97.5747
0.0175792	97.8563
0.0176807	98.1388
0.0177828	98.422
0.0178855	98.7061
0.0179887	98.9909
0.0180926	99.2767
0.018197	99.5632
0.0183021	99.8506
0.0184077	100.139
0.018514	100.428
0.0186209	100.718
0.0187284	101.008
0.0188365	101.3
0.0189452	101.592
0.0190546	101.885
0.0191646	102.18
0.0192752	102.474
0.0193865	102.77
0.0194984	103.067
0.019611	103.364
0.0197242	103.663
0.0198381	103.962
0.0199526	104.262
0.0200678	104.563
0.0201837	104.865
0.0203002	105.167
0.0204174	105.471
0.0205353	105.775
0.0206538	106.081
0.020773	106.387
0.020893	106.694
0.0210136	107.002
0.0211349	107.311
0.0212569	107.621
0.0213796	107.931
0.021503	108.243
0.0216272	108.555
0.021752	108.869
0.0218776	109.183
0.0220039	109.498
0.0221309	109.814
0.0222587	110.131
0.0223872	110.449
0.0225165	110.768
0.0226464	111.088
0.0227772	111.408
0.0229087	111.73
0.0230409	112.052
0.0231739	112.376
0.0233077	112.7
0.0234423	113.026
0.0235776	113.352
0.0237137	113.679
0.0238506	114.007
0.0239883	114.336
0.0241268	114.666
0.0242661	114.997
0.0244062	115.329
0.0245471	115.662
0.0246888	115.996
0.0248313	116.331
0.0249747	116.667
0.0251189	117.004
0.0252639	117.342
0.0254097	117.68
0.0255564	118.02
0.025704	118.361
0.0258523	118.702
0.0260016	119.045
0.0261517	119.389
0.0263027	119.733
0.0264545	120.079
0.0266073	120.426
0.0267609	120.773
0.0269153	121.122
0.0270707	121.472
0.027227	121.823
0.0273842	122.174
0.0275423	122.527
0.0277013	122.881
0.0278612	123.235
0.0280221	123.591
0.0281838	123.948
0.0283465	124.306
0.0285102	124.665
0.0286748	125.025
0.0288403	125.386
0.0290068	125.748
0.0291743	126.111
0.0293427	126.475
0.0295121	126.84
0.0296825	127.206
0.0298538	127.574
0.0300262	127.942
0.0301995	128.311
0.0303739	128.682
0.0305492	129.053
0.0307256	129.426
0.030903	129.8
0.0310814	130.174
0.0312608	130.55
0.0314413	130.927
0.0316228	131.305
0.0318053	131.684
0.031989	132.065
0.0321736	132.446
0.0323594	132.828
0.0325462	133.212
0.0327341	133.597
0.032923	133.982
0.0331131	134.369
0.0333043	134.757
0.0334965	135.146
0.0336899	135.537
0.0338844	135.928
0.03408	136.321
0.0342768	136.714
0.0344747	137.109
0.0346737	137.505
0.0348739	137.902
0.0350752	138.3
0.0352777	138.7
0.0354813	139.1
0.0356862	139.502
0.0358922	139.905
0.0360994	140.309
0.0363078	140.714
0.0365174	141.12
0.0367282	141.528
0.0369403	141.936
0.0371535	142.346
0.037368	142.757
0.0375837	143.17
0.0378007	143.583
0.0380189	143.998
0.0382384	144.414
0.0384592	144.831
0.0386812	145.249
0.0389045	145.668
0.0391291	146.089
0.039355	146.511
0.0395822	146.934
0.0398107	147.358
0.0400405	147.784
0.0402717	148.211
0.0405042	148.639
0.040738	149.068
0.0409732	149.499
0.0412098	149.93
0.0414477	150.363
0.0416869	150.798
0.0419276	151.233
0.0421697	151.67
0.0424131	152.108
0.042658	152.547
0.0429042	152.988
0.0431519	153.43
0.043401	153.873
0.0436516	154.318
0.0439036	154.763
0.044157	155.21
0.044412	155.659
0.0446684	156.108
0.0449262	156.559
0.0451856	157.011
0.0454465	157.465
0.0457088	157.92
0.0459727	158.376
0.0462381	158.833
0.046505	159.292
0.0467735	159.752
0.0470435	160.214
0.0473151	160.676
0.0475883	161.14
0.047863	161.606
0.0481393	162.073
0.0484172	162.541
0.0486968	163.01
0.0489779	163.481
0.0492606	163.954
0.049545	164.427
0.049831	164.902
0.0501187	165.378
0.0504081	165.856
0.0506991	166.335
0.0509918	166.816
0.0512861	167.298
0.0515822	167.781
0.05188	168.266
0.0521795	168.752
0.0524807	169.239
0.0527837	169.728
0.0530884	170.219
0.0533949	170.71
0.0537032	171.203
0.0540132	171.698
0.054325	172.194
0.0546387	172.692
0.0549541	173.19
0.0552713	173.691
0.0555904	174.193
0.0559114	174.696
0.0562341	175.201
0.0565588	175.707
0.0568853	176.214
0.0572137	176.723
0.057544	177.234
0.0578762	177.746
0.0582103	178.26
0.0585464	178.775
0.0588844	179.291
0.0592243	179.809
0.0595662	180.329
0.0599101	180.85
0.060256	181.372
0.0606038	181.896
0.0609537	182.422
0.0613056	182.949
0.0616595	183.478
0.0620155	184.008
0.0623735	184.539
0.0627336	185.073
0.0630957	185.607
0.06346	186.144
0.0638263	186.682
0.0641948	187.221
0.0645654	187.762
0.0649382	188.305
0.0653131	188.849
0.0656901	189.394
0.0660693	189.942
0.0664508	190.491
0.0668344	191.041
0.0672202	191.593
0.0676083	192.147
0.0679986	192.702
0.0683912	193.259
0.068786	193.817
0.0691831	194.377
0.0695825	194.939
0.0699842	195.502
0.0703882	196.067
0.0707946	196.634
0.0712033	197.202
0.0716143	197.772
0.0720278	198.344
0.0724436	198.917
0.0728618	199.492
0.0732825	200.068
0.0737055	200.647
0.074131	201.226
0.074559	201.808
0.0749894	202.391
0.0754223	202.976
0.0758578	203.563
0.0762957	204.151
0.0767361	204.741
0.0771792	205.333
0.0776247	205.926
0.0780728	206.522
0.0785236	207.118
0.0789769	207.717
0.0794328	208.317
0.0798914	208.92
0.0803526	209.523
0.0808165	210.129
0.0812831	210.736
0.0817523	211.346
0.0822243	211.956
0.082699	212.569
0.0831764	213.184
0.0836566	213.8
0.0841395	214.418
0.0846253	215.038
0.0851138	215.659
0.0856052	216.283
0.0860994	216.908
0.0865964	217.535
0.0870964	218.164
0.0875992	218.794
0.0881049	219.427
0.0886135	220.061
0.0891251	220.697
0.0896396	221.335
0.0901571	221.975
0.0906776	222.617
0.0912011	223.26
0.0917276	223.906
0.0922571	224.553
0.0927897	225.202
0.0933254	225.853
0.0938642	226.506
0.0944061	227.161
0.0949511	227.818
0.0954993	228.476
0.0960506	229.137
0.0966051	229.799
0.0971628	230.464
0.0977237	231.13
0.0982879	231.798
0.0988553	232.468
0.099426	233.141
0.1	233.815
0.100577	234.491
0.101158	235.169
0.101742	235.849
0.102329	236.531
0.10292	237.215
0.103514	237.9
0.104112	238.588
0.104713	239.278
0.105317	239.97
0.105925	240.664
0.106537	241.36
0.107152	242.058
0.107771	242.758
0.108393	243.46
0.109018	244.164
0.109648	244.87
0.110281	245.578
0.110917	246.288
0.111558	247
0.112202	247.714
0.11285	248.431
0.113501	249.149
0.114156	249.87
0.114815	250.592
0.115478	251.317
0.116145	252.044
0.116815	252.773
0.11749	253.504
0.118168	254.237
0.11885	254.972
0.119536	255.71
0.120226	256.449
0.120921	257.191
0.121619	257.935
0.122321	258.681
0.123027	259.429
0.123737	260.179
0.124451	260.932
0.12517	261.686
0.125893	262.443
0.126619	263.202
0.12735	263.964
0.128086	264.727
0.128825	265.493
0.129569	266.261
0.130317	267.031
0.131069	267.803
0.131826	268.578
0.132587	269.355
0.133352	270.134
0.134122	270.915
0.134896	271.699
0.135675	272.485
0.136458	273.273
0.137246	274.064
0.138038	274.857
0.138835	275.652
0.139637	276.449
0.140443	277.249
0.141254	278.051
0.142069	278.855
0.142889	279.662
0.143714	280.471
0.144544	281.283
0.145378	282.096
0.146218	282.913
0.147062	283.731
0.147911	284.552
0.148765	285.375
0.149624	286.201
0.150487	287.029
0.151356	287.859
0.15223	288.692
0.153109	289.528
0.153993	290.365
0.154882	291.205
0.155776	292.048
0.156675	292.893
0.15758	293.741
0.158489	294.59
0.159404	295.443
0.160325	296.298
0.16125	297.155
0.162181	298.015
0.163117	298.877
0.164059	299.742
0.165006	300.61
0.165959	301.48
0.166917	302.352
0.16788	303.227
0.16885	304.104
0.169824	304.985
0.170805	305.867
0.171791	306.752
0.172783	307.64
0.17378	308.53
0.174783	309.423
0.175792	310.319
0.176807	311.217
0.177828	312.118
0.178855	313.021
0.179887	313.927
0.180926	314.836
0.18197	315.747
0.183021	316.661
0.184077	317.577
0.18514	318.496
0.186209	319.418
0.187284	320.343
0.188365	321.27
0.189452	322.2
0.190546	323.133
0.191646	324.068
0.192752	325.006
0.193865	325.947
0.194984	326.89
0.19611	327.837
0.197242	328.786
0.198381	329.738
0.199526	330.692
0.200678	331.649
0.201837	332.61
0.203002	333.572
0.204174	334.538
0.205353	335.507
0.206538	336.478
0.20773	337.452
0.20893	338.429
0.210136	339.409
0.211349	340.392
0.212569	341.377
0.213796	342.366
0.21503	343.357
0.216272	344.351
0.21752	345.348
0.218776	346.348
0.220039	347.351
0.221309	348.357
0.222587	349.365
0.223872	350.377
0.225165	351.391
0.226464	352.409
0.227772	353.429
0.229087	354.453
0.230409	355.479
0.231739	356.509
0.233077	357.541
0.234423	358.576
0.235776	359.615
0.237137	360.656
0.238506	361.701
0.239883	362.748
0.241268	363.799
0.242661	364.852
0.244062	365.909
0.245471	366.969
0.246888	368.032
0.248313	369.098
0.249747	370.167
0.251189	371.239
0.252639	372.314
0.254097	373.392
0.255564	374.474
0.25704	375.559
0.258523	376.647
0.260016	377.738
0.261517	378.832
0.263027	379.929
0.264545	381.03
0.266073	382.133
0.267609	383.24
0.269153	384.351
0.270707	385.464
0.27227	386.581
0.273842	387.701
0.275423	388.824
0.277013	389.95
0.278612	391.08
0.280221	392.213
0.281838	393.349
0.283465	394.489
0.285102	395.632
0.286748	396.778
0.288403	397.928
0.290068	399.081
0.291743	400.237
0.293427	401.397
0.295121	402.56
0.296825	403.726
0.298538	404.896
0.300262	406.069
0.301995	407.246
0.303739	408.426
0.305492	409.609
0.307256	410.796
0.30903	411.987
0.310814	413.181
0.312608	414.378
0.314413	415.579
0.316228	416.783
0.318053	417.991
0.31989	419.203
0.321736	420.417
0.323594	421.636
0.325462	422.858
0.327341	424.084
0.32923	425.313
0.331131	426.545
0.333043	427.782
0.334965	429.022
0.336899	430.265
0.338844	431.512
0.3408	432.763
0.342768	434.017
0.344747	435.276
0.346737	436.537
0.348739	437.803
0.350752	439.072
0.352777	440.345
0.354813	441.621
0.356862	442.901
0.358922	444.185
0.360994	445.473
0.363078	446.765
0.365174	448.06
0.367282	449.359
0.369403	450.662
0.371535	451.968
0.37368	453.279
0.375837	454.593
0.378007	455.911
0.380189	457.233
0.382384	458.559
0.384592	459.888
0.386812	461.222
0.389045	462.559
0.391291	463.901
0.39355	465.246
0.395822	466.595
0.398107	467.948
0.400405	469.305
0.402717	470.666
0.405042	472.031
0.40738	473.4
0.409732	474.773
0.412098	476.15
0.414477	477.531
0.416869	478.916
0.419276	480.305
0.421697	481.698
0.424131	483.095
0.42658	484.496
0.429042	485.901
0.431519	487.311
0.43401	488.724
0.436516	490.142
0.439036	491.564
0.44157	492.99
0.44412	494.42
0.446684	495.854
0.449262	497.292
0.451856	498.735
0.454465	500.182
0.457088	501.633
0.459727	503.088
0.462381	504.548
0.46505	506.012
0.467735	507.48
0.470435	508.952
0.473151	510.429
0.475883	511.91
0.47863	513.395
0.481393	514.885
0.484172	516.379
0.486968	517.877
0.489779	519.38
0.492606	520.887
0.49545	522.399
0.49831	523.915
0.501187	525.435
0.504081	526.96
0.506991	528.489
0.509918	530.023
0.512861	531.561
0.515822	533.104
0.5188	534.651
0.521795	536.203
0.524807	537.759
0.527837	539.32
0.530884	540.885
0.533949	542.455
0.537032	544.03
0.540132	545.609
0.54325	547.192
0.546387	548.781
0.549541	550.374
0.552713	551.971
0.555904	553.574
0.559114	555.181
0.562341	556.793
0.565588	558.409
0.568853	560.03
0.572137	561.656
0.57544	563.287
0.578762	564.922
0.582103	566.562
0.585464	568.207
0.588844	569.857
0.592243	571.512
0.595662	573.171
0.599101	574.836
0.60256	576.505
0.606038	578.179
0.609537	579.858
0.613056	581.542
0.616595	583.23
0.620155	584.924
0.623735	586.623
0.627336	588.327
0.630957	590.035
0.6346	591.749
0.638263	593.467
0.641948	595.191
0.645654	596.92
0.649382	598.654
0.653131	600.393
0.656901	602.136
0.660693	603.886
0.664508	605.64
0.668344	607.399
0.672202	609.163
0.676083	610.933
0.679986	612.708
0.683912	614.488
0.68786	616.273
0.691831	618.063
0.695825	619.859
0.699842	621.66
0.703882	623.466
0.707946	625.278
0.712033	627.094
0.716143	628.917
0.720278	630.744
0.724436	632.577
0.728618	634.415
0.732825	636.258
0.737055	638.107
0.74131	639.962
0.74559	641.821
0.749894	643.687
0.754223	645.557
0.758578	647.433
0.762957	649.315
0.767361	651.202
0.771792	653.095
0.776247	654.993
0.780728	656.897
0.785236	658.806
0.789769	660.721
0.794328	662.642
0.798914	664.568
0.803526	666.5
0.808165	668.438
0.812831	670.381
0.817523	672.33
0.822243	674.284
0.82699	676.245
0.831764	678.211
0.836566	680.182
0.841395	682.16
0.846253	684.144
0.851138	686.133
0.856052	688.128
0.860994	690.129
0.865964	692.135
0.870964	694.148
0.875992	696.167
0.881049	698.191
0.886135	700.222
0.891251	702.258
0.896396	704.3
0.901571	706.349
0.906776	708.403
0.912011	710.463
0.917276	712.53
0.922571	714.602
0.927897	716.681
0.933254	718.765
0.938642	720.856
0.944061	722.953
0.949511	725.056
0.954993	727.165
0.960506	729.281
0.966051	731.402
0.971628	733.53
0.977237	735.664
0.982879	737.805
0.988553	739.951
0.99426	742.104
1	744.264
1.00577	746.533
1.01158	748.814
1.01742	751.107
1.02329	753.412
1.0292	755.73
1.03514	758.059
1.04112	760.401
1.04713	762.754
1.05317	765.121
1.05925	767.499
1.06537	769.89
1.07152	772.293
1.07771	774.709
1.08393	777.137
1.09018	779.578
1.09648	782.032
1.10281	784.498
1.10917	786.977
1.11558	789.468
1.12202	791.973
1.1285	794.49
1.13501	797.021
1.14156	799.564
1.14815	802.12
1.15478	804.69
1.16145	807.272
1.16815	809.868
1.1749	812.477
1.18168	815.099
1.1885	817.735
1.19536	820.383
1.20226	823.016
1.20921	825.601
1.21619	828.199
1.22321	830.81
1.23027	833.434
1.23737	836.071
1.24451	838.721
1.2517	841.384
1.25893	844.061
1.26619	846.751
1.2735	849.454
1.28086	852.171
1.28825	854.9
1.29569	857.644
1.30317	860.401
1.31069	863.171
1.31826	865.955
1.32587	868.752
1.33352	871.563
1.34122	874.387
1.34896	877.226
1.35675	880.078
1.36458	882.943
1.37246	885.823
1.38038	888.716
1.38835	891.623
1.39637	894.544
1.40443	897.479
1.41254	900.428
1.42069	903.391
1.42889	906.367
1.43714	909.358
1.44544	912.363
1.45378	915.382
1.46218	918.415
1.47062	921.463
1.47911	924.524
1.48765	927.6
1.49624	930.689
1.50487	933.793
1.51356	936.912
1.5223	940.044
1.53109	943.191
1.53993	946.352
1.54882	949.528
1.55776	952.718
1.56675	955.922
1.5758	959.141
1.58489	962.374
1.59404	965.621
1.60325	968.875
1.6125	972.127
1.62181	975.393
1.63117	978.674
1.64059	981.969
1.65006	985.279
1.65959	988.604
1.66917	991.943
1.6788	995.298
1.6885	998.667
1.69824	1002.05
1.70805	1005.45
1.71791	1008.86
1.72783	1012.29
1.7378	1015.74
1.74783	1019.2
1.75792	1022.67
1.76807	1026.16
1.77828	1029.67
1.78855	1033.19
1.79887	1036.73
1.80926	1040.28
1.8197	1043.85
1.83021	1047.44
1.84077	1051.04
1.8514	1054.66
1.86209	1058.29
1.87284	1061.94
1.88365	1065.61
1.89452	1069.29
1.90546	1072.99
1.91646	1076.71
1.92752	1080.45
1.93865	1084.2
1.94984	1087.97
1.9611	1091.75
1.97242	1095.55
1.98381	1099.37
1.99526	1103.21
2.00678	1107.07
2.01837	1110.94
2.03002	1114.83
2.04174	1118.74
2.05353	1122.66
2.06538	1126.6
2.0773	1130.57
2.0893	1134.55
2.10136	1138.54
2.11349	1142.56
2.12569	1146.59
2.13796	1150.64
2.1503	1154.71
2.16272	1158.8
2.1752	1162.91
2.18776	1167.03
2.20039	1171.18
2.21309	1175.34
2.22587	1179.52
2.23872	1183.72
2.25165	1187.93
2.26464	1192.17
2.27772	1196.42
2.29087	1200.69
2.30409	1204.98
2.31739	1209.29
2.33077	1213.62
2.34423	1217.97
2.35776	1222.33
2.37137	1226.72
2.38506	1231.12
2.39883	1235.54
2.41268	1239.98
2.42661	1244.44
2.44062	1248.92
2.45471	1253.42
2.46888	1257.93
2.48313	1262.47
2.49747	1267.02
2.51189	1271.59
2.52639	1276.19
2.54097	1280.8
2.55564	1285.43
2.5704	1290.07
2.58523	1294.74
2.60016	1299.43
2.61517	1304.13
2.63027	1308.86
2.64545	1313.6
2.66073	1318.37
2.67609	1323.15
2.69153	1327.95
2.70707	1332.77
2.7227	1337.61
2.73842	1342.47
2.75423	1347.35
2.77013	1352.25
2.78612	1357.16
2.80221	1362.1
2.81838	1367.05
2.83465	1372.03
2.85102	1377.02
2.86748	1382.04
2.88403	1387.07
2.90068	1392.12
2.91743	1397.19
2.93427	1402.28
2.95121	1407.39
2.96825	1412.51
2.98538	1417.66
3.00262	1422.83
3.01995	1428.01
3.03739	1433.21
3.05492	1438.44
3.07256	1443.68
3.0903	1448.94
3.10814	1454.22
3.12608	1459.52
3.14413	1464.83
3.16228	1470.17
3.18053	1475.52
3.1989	1480.89
3.21736	1486.28
3.23594	1491.69
3.25462	1497.12
3.27341	1502.57
3.2923	1508.03
3.31131	1513.52
3.33043	1519.02
3.34965	1524.54
3.36899	1530.08
3.38844	1535.63
3.408	1541.21
3.42768	1546.8
3.44747	1552.41
3.46737	1558.03
3.48739	1563.68
3.50752	1569.34
3.52777	1575.02
3.54813	1580.72
3.56862	1586.44
3.58922	1592.17
3.60994	1597.92
3.63078	1603.69
3.65174	1609.47
3.67282	1615.28
3.69403	1621.09
3.71535	1626.93
3.7368	1632.78
3.75837	1638.65
3.78007	1644.54
3.80189	1650.44
3.82384	1656.36
3.84592	1662.3
3.86812	1668.25
3.89045	1674.21
3.91291	1680.2
3.9355	1686.2
3.95822	1692.21
3.98107	1698.25
4.00405	1704.29
4.02717	1710.36
4.05042	1716.44
4.0738	1722.54
4.09732	1728.65
4.12098	1734.78
4.14477	1740.92
4.16869	1747.08
4.19276	1753.25
4.21697	1759.44
4.24131	1765.64
4.2658	1771.86
4.29042	1778.09
4.31519	1784.33
4.3401	1790.59
4.36516	1796.87
4.39036	1803.15
4.4157	1809.45
4.4412	1815.77
4.46684	1822.1
4.49262	1828.44
4.51856	1834.8
4.54465	1841.17
4.57088	1847.55
4.59727	1853.95
4.62381	1860.36
4.6505	1866.78
4.67735	1873.22
4.70435	1879.67
4.73151	1886.13
4.75883	1892.6
4.7863	1899.08
4.81393	1905.58
4.84172	1912.09
4.86968	1918.61
4.89779	1925.14
4.92606	1931.69
4.9545	1938.24
4.9831	1944.81
5.01187	1951.39
5.04081	1957.98
5.06991	1964.58
5.09918	1971.19
5.12861	1977.81
5.15822	1984.44
5.188	1991.08
5.21795	1997.73
5.24807	2004.39
5.27837	2011.06
5.30884	2017.74
5.33949	2024.43
5.37032	2031.13
5.40132	2037.84
5.4325	2044.56
5.46387	2051.28
5.49541	2058.02
5.52713	2064.76
5.55904	2071.51
5.59114	2078.27
5.62341	2085.04
5.65588	2091.81
5.68853	2098.59
5.72137	2105.38
5.7544	2112.18
5.78762	2118.98
5.82103	2125.79
5.85464	2132.6
5.88844	2139.43
5.92243	2146.26
5.95662	2153.09
5.99101	2159.93
6.0256	2166.74
6.06038	2173.54
6.09537	2180.34
6.13056	2187.14
6.16595	2193.96
6.20155	2200.77
6.23735	2207.59
6.27336	2214.41
6.30957	2221.23
6.346	2228.06
6.38263	2234.89
6.41948	2241.72
6.45654	2248.55
6.49382	2255.39
6.53131	2262.22
6.56901	2269.05
6.60693	2275.89
6.64508	2282.72
6.68344	2289.56
6.72202	2296.39
6.76083	2303.22
6.79986	2310.05
6.83912	2316.88
6.8786	2323.7
6.91831	2330.52
6.95825	2337.34
6.99842	2344.15
7.03882	2350.96
7.07946	2357.77
7.12033	2364.57
7.16143	2371.36
7.20278	2378.15
7.24436	2384.93
7.28618	2391.71
7.32825	2398.47
7.37055	2405.23
7.4131	2411.98
7.4559	2418.73
7.49894	2425.46
7.54223	2432.18
7.58578	2438.89
7.62957	2445.6
7.67361	2452.29
7.71792	2458.97
7.76247	2465.64
7.80728	2472.29
7.85236	2478.93
7.89769	2485.56
7.94328	2492.17
7.98914	2498.77
8.03526	2505.37
8.08165	2511.96
8.12831	2518.53
8.17523	2525.09
8.22243	2531.62
8.2699	2538.15
8.31764	2544.65
8.36566	2551.14
8.41395	2557.61
8.46253	2564.06
8.51138	2570.49
8.56052	2576.9
8.60994	2583.29
8.65964	2589.66
8.70964	2596.01
8.75992	2602.34
8.81049	2608.65
8.86135	2614.94
8.91251	2621.21
8.96396	2627.45
9.01571	2633.67
9.06776	2639.87
9.12011	2646.05
9.17276	2652.2
9.22571	2658.33
9.27897	2664.43
9.33254	2670.51
9.38642	2676.57
9.44061	2682.6
9.49511	2688.6
9.54993	2694.58
9.60506	2700.54
9.66051	2706.46
9.71628	2712.37
9.77237	2718.24
9.82879	2724.09
9.88553	2729.91
9.9426	2735.71
10	2741.47
10.0577	2747.22
10.1158	2752.93
10.1742	2758.61
10.2329	2764.27
10.292	2769.9
10.3514	2775.5
10.4112	2781.06
10.4713	2786.6
10.5317	2792.11
10.5925	2797.59
10.6537	2803.04
10.7152	2808.45
10.7771	2813.84
10.8393	2819.19
10.9018	2824.52
10.9648	2829.81
11.0281	2835.06
11.0917	2840.29
11.1558	2845.48
11.2202	2850.64
11.285	2855.77
11.3501	2860.86
11.4156	2865.92
11.4815	2870.94
11.5478	2875.94
11.6145	2880.9
11.6815	2885.82
11.749	2890.71
11.8168	2895.57
11.885	2900.39
11.9536	2905.18
12.0226	2909.93
12.0921	2914.66
12.1619	2919.36
12.2321	2924.02
12.3027	2928.65
12.3737	2933.24
12.4451	2937.79
12.517	2942.31
12.5893	2946.8
12.6619	2951.24
12.735	2955.65
12.8086	2960.03
12.8825	2964.36
12.9569	2968.66
13.0317	2972.92
13.1069	2977.14
13.1826	2981.33
13.2587	2985.48
13.3352	2989.59
13.4122	2993.66
13.4896	2997.69
13.5675	3001.69
13.6458	3005.65
13.7246	3009.56
13.8038	3013.44
13.8835	3017.29
13.9637	3021.09
14.0443	3024.85
14.1254	3028.58
14.2069	3032.27
14.2889	3035.92
14.3714	3039.53
14.4544	3043.11
14.5378	3046.64
14.6218	3050.14
14.7062	3053.6
14.7911	3057.03
14.8765	3060.42
14.9624	3063.77
15.0487	3067.09
15.1356	3070.37
15.223	3073.61
15.3109	3076.82
15.3993	3079.99
15.4882	3083.14
15.5776	3086.24
15.6675	3089.32
15.758	3092.36
15.8489	3095.37
15.9404	3098.35
16.0325	3101.28
16.125	3104.16
16.2181	3107
16.3117	3109.82
16.4059	3112.6
16.5006	3115.36
16.5959	3118.08
16.6917	3120.77
16.788	3123.42
16.885	3126.05
16.9824	3128.64
17.0805	3131.2
17.1791	3133.73
17.2783	3136.23
17.378	3138.69
17.4783	3141.12
17.5792	3143.52
17.6807	3145.89
17.7828	3148.22
17.8855	3150.52
17.9887	3152.78
18.0926	3155.01
18.197	3157.21
18.3021	3159.38
18.4077	3161.51
18.514	3163.61
18.6209	3165.67
18.7284	3167.71
18.8365	3169.7
18.9452	3171.67
19.0546	3173.6
19.1646	3175.5
19.2752	3177.37
19.3865	3179.2
19.4984	3181
19.611	3182.77
19.7242	3184.5
19.8381	3186.21
19.9526	3187.88
20.0678	3189.53
20.1837	3191.15
20.3002	3192.74
20.4174	3194.29
20.5353	3195.82
20.6538	3197.31
20.773	3198.77
20.893	3200.2
21.0136	3201.6
21.1349	3202.96
21.2569	3204.3
21.3796	3205.6
21.503	3206.87
21.6272	3208.11
21.752	3209.31
21.8776	3210.49
22.0039	3211.63
22.1309	3212.74
22.2587	3213.82
22.3872	3214.87
22.5165	3215.88
22.6464	3216.87
22.7772	3217.82
22.9087	3218.75
23.0409	3219.64
23.1739	3220.5
23.3077	3221.33
23.4423	3222.13
23.5776	3222.91
23.7137	3223.65
23.8506	3224.36
23.9883	3225.05
24.1268	3225.7
24.2661	3226.33
24.4062	3226.93
24.5471	3227.51
24.6888	3228.05
24.8313	3228.56
24.9747	3229.05
25.1189	3229.51
25.2639	3229.94
25.4097	3230.34
25.5564	3230.71
25.704	3231.05
25.8523	3231.37
26.0016	3231.65
26.1517	3231.91
26.3027	3232.14
26.4545	3232.34
26.6073	3232.51
26.7609	3232.66
26.9153	3232.78
27.0707	3232.87
27.227	3232.93
27.3842	3232.96
27.5423	3232.97
27.7013	3232.95
27.8612	3232.9
28.0221	3232.83
28.1838	3232.72
28.3465	3232.6
28.5102	3232.44
28.6748	3232.26
28.8403	3232.06
29.0068	3231.83
29.1743	3231.57
29.3427	3231.28
29.5121	3230.97
29.6825	3230.63
29.8538	3230.26
30.0262	3229.87
30.1995	3229.45
30.3739	3229.01
30.5492	3228.53
30.7256	3228.04
30.903	3227.51
31.0814	3226.96
31.2608	3226.39
31.4413	3225.78
31.6228	3225.16
31.8053	3224.5
31.989	3223.83
32.1736	3223.12
32.3594	3222.39
32.5462	3221.64
32.7341	3220.86
32.923	3220.06
33.1131	3219.23
33.3043	3218.37
33.4965	3217.5
33.6899	3216.59
33.8844	3215.66
34.08	3214.71
34.2768	3213.73
34.4747	3212.72
34.6737	3211.69
34.8739	3210.64
35.0752	3209.56
35.2777	3208.46
35.4813	3207.33
35.6862	3206.18
35.8922	3205.01
36.0994	3203.81
36.3078	3202.59
36.5174	3201.34
36.7282	3200.07
36.9403	3198.78
37.1535	3197.46
37.368	3196.12
37.5837	3194.76
37.8007	3193.37
38.0189	3191.97
38.2384	3190.54
38.4592	3189.08
38.6812	3187.61
38.9045	3186.11
39.1291	3184.59
39.355	3183.05
39.5822	3181.49
39.8107	3179.91
40.0405	3178.31
40.2717	3176.69
40.5042	3175.05
40.738	3173.39
40.9732	3171.7
41.2098	3170
41.4477	3168.28
41.6869	3166.53
41.9276	3164.77
42.1697	3162.98
42.4131	3161.18
42.658	3159.35
42.9042	3157.5
43.1519	3155.63
43.401	3153.74
43.6516	3151.82
43.9036	3149.89
44.157	3147.93
44.412	3145.95
44.6684	3143.95
44.9262	3141.93
45.1856	3139.89
45.4465	3137.82
45.7088	3135.73
45.9727	3133.62
46.2381	3131.49
46.505	3129.34
46.7735	3127.16
47.0435	3124.97
47.3151	3122.75
47.5883	3120.51
47.863	3118.25
48.1393	3115.96
48.4172	3113.66
48.6968	3111.33
48.9779	3108.98
49.2606	3106.61
49.545	3104.21
49.831	3101.8
50.1187	3099.36
50.4081	3096.9
50.6991	3094.42
50.9918	3091.92
51.2861	3089.4
51.5822	3086.85
51.88	3084.29
52.1795	3081.7
52.4807	3079.09
52.7837	3076.46
53.0884	3073.82
53.3949	3071.15
53.7032	3068.46
54.0132	3065.75
54.325	3063.02
54.6387	3060.27
54.9541	3057.5
55.2713	3054.71
55.5904	3051.9
55.9114	3049.07
56.2341	3046.23
56.5588	3043.36
56.8853	3040.48
57.2137	3037.58
57.544	3034.66
57.8762	3031.73
58.2103	3028.78
58.5464	3025.81
58.8844	3022.82
59.2243	3019.82
59.5662	3016.8
59.9101	3013.77
60.256	3010.71
60.6038	3007.63
60.9537	3004.54
61.3056	3001.43
61.6595	2998.31
62.0155	2995.17
62.3735	2992.02
62.7336	2988.85
63.0957	2985.67
63.46	2982.47
63.8263	2979.26
64.1948	2976.03
64.5654	2972.79
64.9382	2969.53
65.3131	2966.26
65.6901	2962.97
66.0693	2959.67
66.4508	2956.35
66.8344	2953.02
67.2202	2949.67
67.6083	2946.31
67.9986	2942.93
68.3912	2939.54
68.786	2936.13
69.1831	2932.71
69.5825	2929.27
69.9842	2925.82
70.3882	2922.35
70.7946	2918.87
71.2033	2915.37
71.6143	2911.85
72.0278	2908.33
72.4436	2904.78
72.8618	2901.22
73.2825	2897.65
73.7055	2894.06
74.131	2890.46
74.559	2886.84
74.9894	2883.2
75.4223	2879.55
75.8578	2875.89
76.2957	2872.21
76.7361	2868.52
77.1792	2864.81
77.6247	2861.09
78.0728	2857.35
78.5236	2853.6
78.9769	2849.83
79.4328	2846.05
79.8914	2842.25
80.3526	2838.44
80.8165	2834.61
81.2831	2830.76
81.7523	2826.9
82.2243	2823.03
82.699	2819.14
83.1764	2815.24
83.6566	2811.32
84.1395	2807.39
84.6253	2803.45
85.1138	2799.49
85.6052	2795.52
86.0994	2791.53
86.5964	2787.53
87.0964	2783.51
87.5992	2779.48
88.1049	2775.44
88.6135	2771.38
89.1251	2767.31
89.6396	2763.23
90.1571	2759.13
90.6776	2755.02
91.2011	2750.9
91.7276	2746.76
92.2571	2742.61
92.7897	2738.45
93.3254	2734.27
93.8642	2730.09
94.4061	2725.89
94.9511	2721.67
95.4993	2717.45
96.0506	2713.21
96.6051	2708.96
97.1628	2704.69
97.7237	2700.42
98.2879	2696.13
98.8553	2691.83
99.426	2687.52
100	2683.2
100.577	2678.87
101.158	2674.52
101.742	2670.17
102.329	2665.8
102.92	2661.42
103.514	2657.03
104.112	2652.63
104.713	2648.22
105.317	2643.8
105.925	2639.37
106.537	2634.92
107.152	2630.47
107.771	2626.01
108.393	2621.53
109.018	2617.05
109.648	2612.55
110.281	2608.05
110.917	2603.53
111.558	2599
112.202	2594.47
112.85	2589.92
113.501	2585.37
114.156	2580.8
114.815	2576.23
115.478	2571.65
116.145	2567.05
116.815	2562.45
117.49	2557.84
118.168	2553.22
118.85	2548.59
119.536	2543.95
120.226	2539.3
120.921	2534.64
121.619	2529.97
122.321	2525.29
123.027	2520.61
123.737	2515.91
124.451	2511.21
125.17	2506.5
125.893	2501.78
126.619	2497.05
127.35	2492.31
128.086	2487.57
128.825	2482.81
129.569	2478.05
130.317	2473.28
131.069	2468.51
131.826	2463.72
132.587	2458.93
133.352	2454.13
134.122	2449.32
134.896	2444.51
135.675	2439.69
136.458	2434.86
137.246	2430.02
138.038	2425.17
138.835	2420.32
139.637	2415.46
140.443	2410.6
141.254	2405.73
142.069	2400.85
142.889	2395.96
143.714	2391.07
144.544	2386.17
145.378	2381.26
146.218	2376.35
147.062	2371.42
147.911	2366.5
148.765	2361.56
149.624	2356.62
150.487	2351.67
151.356	2346.72
152.23	2341.76
153.109	2336.79
153.993	2331.82
154.882	2326.84
155.776	2321.85
156.675	2316.86
157.58	2311.86
158.489	2306.85
159.404	2301.84
160.325	2296.83
161.25	2291.82
162.181	2286.8
163.117	2281.78
164.059	2276.75
165.006	2271.71
165.959	2266.67
166.917	2261.63
167.88	2256.57
168.85	2251.52
169.824	2246.46
170.805	2241.39
171.791	2236.32
172.783	2231.24
173.78	2226.16
174.783	2221.07
175.792	2215.98
176.807	2210.88
177.828	2205.78
178.855	2200.68
179.887	2195.57
180.926	2190.46
181.97	2185.34
183.021	2180.22
184.077	2175.1
185.14	2169.97
186.209	2164.85
187.284	2159.71
188.365	2154.58
189.452	2149.44
190.546	2144.3
191.646	2139.15
192.752	2134.01
193.865	2128.86
194.984	2123.71
196.11	2118.56
197.242	2113.4
198.381	2108.24
199.526	2103.08
200.678	2097.92
201.837	2092.75
203.002	2087.58
204.174	2082.41
205.353	2077.24
206.538	2072.06
207.73	2066.89
208.93	2061.71
210.136	2056.54
211.349	2051.36
212.569	2046.18
213.796	2041
215.03	2035.82
216.272	2030.64
217.52	2025.46
218.776	2020.28
220.039	2015.09
221.309	2009.91
222.587	2004.73
223.872	1999.55
225.165	1994.36
226.464	1989.18
227.772	1984
229.087	1978.82
230.409	1973.64
231.739	1968.45
233.077	1963.27
234.423	1958.09
235.776	1952.91
237.137	1947.73
238.506	1942.55
239.883	1937.37
241.268	1932.18
242.661	1927
244.062	1921.82
245.471	1916.64
246.888	1911.46
248.313	1906.28
249.747	1901.11
251.189	1895.93
252.639	1890.75
254.097	1885.58
255.564	1880.4
257.04	1875.23
258.523	1870.06
260.016	1864.89
261.517	1859.72
263.027	1854.55
264.545	1849.39
266.073	1844.22
267.609	1839.06
269.153	1833.9
270.707	1828.74
272.27	1823.59
273.842	1818.43
275.423	1813.28
277.013	1808.13
278.612	1802.98
280.221	1797.83
281.838	1792.69
283.465	1787.55
285.102	1782.41
286.748	1777.27
288.403	1772.13
290.068	1767
291.743	1761.87
293.427	1756.74
295.121	1751.62
296.825	1746.49
298.538	1741.38
300.262	1736.26
301.995	1731.15
303.739	1726.04
305.492	1720.93
307.256	1715.82
309.03	1710.72
310.814	1705.63
312.608	1700.53
314.413	1695.44
316.228	1690.35
318.053	1685.27
319.89	1680.18
321.736	1675.11
323.594	1670.03
325.462	1664.96
327.341	1659.89
329.23	1654.83
331.131	1649.77
333.043	1644.71
334.965	1639.66
336.899	1634.61
338.844	1629.57
340.8	1624.53
342.768	1619.5
344.747	1614.47
346.737	1609.45
348.739	1604.43
350.752	1599.42
352.777	1594.41
354.813	1589.41
356.862	1584.41
358.922	1579.42
360.994	1574.43
363.078	1569.45
365.174	1564.48
367.282	1559.51
369.403	1554.55
371.535	1549.59
373.68	1544.64
375.837	1539.7
378.007	1534.76
380.189	1529.83
382.384	1524.9
384.592	1519.98
386.812	1515.06
389.045	1510.15
391.291	1505.24
393.55	1500.34
395.822	1495.45
398.107	1490.56
400.405	1485.67
402.717	1480.78
405.042	1475.9
407.38	1471.02
409.732	1466.15
412.098	1461.28
414.477	1456.42
416.869	1451.56
419.276	1446.71
421.697	1441.87
424.131	1437.03
426.58	1432.2
429.042	1427.37
431.519	1422.56
434.01	1417.75
436.516	1412.94
439.036	1408.15
441.57	1403.36
444.12	1398.58
446.684	1393.81
449.262	1389.04
451.856	1384.29
454.465	1379.54
457.088	1374.8
459.727	1370.07
462.381	1365.35
465.05	1360.64
467.735	1355.93
470.435	1351.24
473.151	1346.55
475.883	1341.87
478.63	1337.21
481.393	1332.55
484.172	1327.9
486.968	1323.26
489.779	1318.63
492.606	1314.02
495.45	1309.41
498.31	1304.81
501.187	1300.22
504.081	1295.64
506.991	1291.07
509.918	1286.51
512.861	1281.96
515.822	1277.42
518.8	1272.89
521.795	1268.36
524.807	1263.85
527.837	1259.35
530.884	1254.86
533.949	1250.38
537.032	1245.9
540.132	1241.44
543.25	1236.99
546.387	1232.54
549.541	1228.1
552.713	1223.67
555.904	1219.26
559.114	1214.84
562.341	1210.44
565.588	1206.04
568.853	1201.66
572.137	1197.28
575.44	1192.9
578.762	1188.53
582.103	1184.17
585.464	1179.82
588.844	1175.47
592.243	1171.13
595.662	1166.79
599.101	1162.45
602.56	1158.19
606.038	1153.95
609.537	1149.71
613.056	1145.48
616.595	1141.26
620.155	1137.04
623.735	1132.82
627.336	1128.61
630.957	1124.41
634.6	1120.21
638.263	1116.02
641.948	1111.84
645.654	1107.66
649.382	1103.49
653.131	1099.32
656.901	1095.17
660.693	1091.02
664.508	1086.88
668.344	1082.74
672.202	1078.62
676.083	1074.5
679.986	1070.39
683.912	1066.29
687.86	1062.2
691.831	1058.12
695.825	1054.04
699.842	1049.98
703.882	1045.93
707.946	1041.88
712.033	1037.84
716.143	1033.82
720.278	1029.8
724.436	1025.8
728.618	1021.8
732.825	1017.82
737.055	1013.84
741.31	1009.88
745.59	1005.92
749.894	1001.98
754.223	998.051
758.578	994.132
762.957	990.223
767.361	986.326
771.792	982.44
776.247	978.566
780.728	974.703
785.236	970.852
789.769	967.013
794.328	963.186
798.914	959.37
803.526	955.552
808.165	951.742
812.831	947.943
817.523	944.157
822.243	940.382
826.99	936.62
831.764	932.871
836.566	929.133
841.395	925.408
846.253	921.696
851.138	917.996
856.052	914.309
860.994	910.635
865.964	906.973
870.964	903.324
875.992	899.688
881.049	896.064
886.135	892.453
891.251	888.855
896.396	885.27
901.571	881.697
906.776	878.136
912.011	874.589
917.276	871.053
922.571	867.53
927.897	864.019
933.254	860.521
938.642	857.034
944.061	853.559
949.511	850.096
954.993	846.645
960.506	843.205
966.051	839.776
971.628	836.358
977.237	832.95
982.879	829.554
988.553	826.167
994.26	822.79
1000	819.423
1005.77	816.064
1011.58	812.715
1017.42	809.375
1023.29	806.045
1029.2	802.725
1035.14	799.414
1041.12	796.113
1047.13	792.823
1053.17	789.543
1059.25	786.273
1065.37	783.013
1071.52	779.763
1077.71	776.525
1083.93	773.296
1090.18	770.079
1096.48	766.872
1102.81	763.675
1109.17	760.49
1115.58	757.315
1122.02	754.151
1128.5	750.998
1135.01	747.856
1141.56	744.724
1148.15	741.604
1154.78	738.494
1161.45	735.395
1168.15	732.307
1174.9	729.23
1181.68	726.163
1188.5	723.107
1195.36	720.062
1202.26	717.025
1209.21	713.994
1216.19	710.975
1223.21	707.965
1230.27	704.967
1237.37	701.98
1244.51	699.003
1251.7	696.038
1258.93	693.084
1266.19	690.141
1273.5	687.209
1280.86	684.289
1288.25	681.38
1295.69	678.483
1303.17	675.597
1310.69	672.723
1318.26	669.861
1325.87	667.01
1333.52	664.171
1341.22	661.344
1348.96	658.529
1356.75	655.726
1364.58	652.934
1372.46	650.155
1380.38	647.387
1388.35	644.631
1396.37	641.887
1404.43	639.154
1412.54	636.433
1420.69	633.724
1428.89	631.026
1437.14	628.339
1445.44	625.665
1453.78	623.001
1462.18	620.348
1470.62	617.707
1479.11	615.076
1487.65	612.456
1496.24	609.847
1504.87	607.248
1513.56	604.659
1522.3	602.081
1531.09	599.512
1539.93	596.953
1548.82	594.403
1557.76	591.862
1566.75	589.33
1575.8	586.806
1584.89	584.291
1594.04	581.783
1603.25	579.291
1612.5	576.818
1621.81	574.353
1631.17	571.895
1640.59	569.446
1650.06	567.004
1659.59	564.57
1669.17	562.145
1678.8	559.727
1688.5	557.318
1698.24	554.918
1708.05	552.525
1717.91	550.142
1727.83	547.767
1737.8	545.401
1747.83	543.044
1757.92	540.695
1768.07	538.356
1778.28	536.026
1788.55	533.705
1798.87	531.393
1809.26	529.09
1819.7	526.797
1830.21	524.513
1840.77	522.239
1851.4	519.974
1862.09	517.718
1872.84	515.472
1883.65	513.236
1894.52	511.009
1905.46	508.792
1916.46	506.584
1927.52	504.387
1938.65	502.198
1949.84	500.019
1961.1	497.85
1972.42	495.691
1983.81	493.541
1995.26	491.4
2006.78	489.266
2018.37	487.14
2030.02	485.022
2041.74	482.915
2053.53	480.817
2065.38	478.729
2077.3	476.65
2089.3	474.58
2101.36	472.521
2113.49	470.471
2125.69	468.43
2137.96	466.399
2150.3	464.378
2162.72	462.366
2175.2	460.364
2187.76	458.371
2200.39	456.388
2213.09	454.414
2225.87	452.449
2238.72	450.494
2251.65	448.548
2264.64	446.611
2277.72	444.683
2290.87	442.764
2304.09	440.853
2317.39	438.952
2330.77	437.058
2344.23	435.174
2357.76	433.297
2371.37	431.429
2385.06	429.569
2398.83	427.716
2412.68	425.87
2426.61	424.033
2440.62	422.202
2454.71	420.38
2468.88	418.565
2483.13	416.758
2497.47	414.959
2511.89	413.167
2526.39	411.383
2540.97	409.608
2555.64	407.84
2570.4	406.08
2585.23	404.328
2600.16	402.583
2615.17	400.847
2630.27	399.119
2645.45	397.398
2660.73	395.686
2676.09	393.981
2691.53	392.284
2707.07	390.595
2722.7	388.914
2738.42	387.24
2754.23	385.574
2770.13	383.916
2786.12	382.265
2802.21	380.622
2818.38	378.986
2834.65	377.357
2851.02	375.736
2867.48	374.123
2884.03	372.516
2900.68	370.918
2917.43	369.327
2934.27	367.743
2951.21	366.167
2968.25	364.598
2985.38	363.037
3002.62	361.483
3019.95	359.937
3037.39	358.398
3054.92	356.866
3072.56	355.341
3090.3	353.824
3108.14	352.314
3126.08	350.811
3144.13	349.315
3162.28	347.826
3180.53	346.344
3198.9	344.869
3217.36	343.4
3235.94	341.939
3254.62	340.483
3273.41	339.035
3292.3	337.593
3311.31	336.159
3330.43	334.731
3349.65	333.309
3368.99	331.895
3388.44	330.487
3408	329.086
3427.68	327.692
3447.47	326.305
3467.37	324.925
3487.39	323.551
3507.52	322.184
3527.77	320.824
3548.13	319.47
3568.62	318.123
3589.22	316.782
3609.94	315.448
3630.78	314.121
3651.74	312.8
3672.82	311.485
3694.03	310.176
3715.35	308.874
3736.8	307.578
3758.37	306.288
3780.07	305.004
3801.89	303.727
3823.84	302.455
3845.92	301.189
3868.12	299.881
3890.45	298.533
3912.91	297.192
3935.5	295.857
3958.22	294.528
3981.07	293.206
4004.05	291.889
4027.17	290.575
4050.42	289.268
4073.8	287.966
4097.32	286.671
4120.98	285.381
4144.77	284.098
4168.69	282.82
4192.76	281.549
4216.97	280.285
4241.31	279.026
4265.8	277.774
4290.42	276.528
4315.19	275.289
4340.1	274.056
4365.16	272.83
4390.36	271.61
4415.7	270.397
4441.2	269.191
4466.84	267.991
4492.62	266.798
4518.56	265.612
4544.65	264.432
4570.88	263.259
4597.27	262.093
4623.81	260.933
4650.5	259.781
4677.35	258.635
4704.35	257.496
4731.51	256.364
4758.83	255.239
4786.3	254.12
4813.93	253.009
4841.72	251.904
4869.68	250.806
4897.79	249.715
4926.06	248.63
4954.5	247.553
4983.1	246.482
5011.87	245.418
5040.81	244.36
5069.91	243.309
5099.18	242.265
5128.61	241.227
5158.22	240.196
5188	239.171
5217.95	238.152
5248.07	237.14
5278.37	236.134
5308.84	235.134
5339.49	234.14
5370.32	233.152
5401.32	232.17
5432.5	231.194
5463.87	230.223
5495.41	229.258
5527.13	228.298
5559.04	227.344
5591.14	226.395
5623.41	225.45
5655.88	224.511
5688.53	223.576
5721.37	222.646
5754.4	221.72
5787.62	220.798
5821.03	219.881
5854.64	218.967
5888.44	218.056
5922.43	217.149
5956.62	216.245
5991.01	215.344
6025.6	214.466
6060.38	213.598
6095.37	212.732
6130.56	211.869
6165.95	211.009
6201.55	210.152
6237.35	209.298
6273.36	208.447
6309.57	207.599
6346	206.754
6382.63	205.913
6419.48	205.074
6456.54	204.239
6493.82	203.406
6531.31	202.578
6569.01	201.752
6606.93	200.93
6645.08	200.111
6683.44	199.296
6722.02	198.484
6760.83	197.676
6799.86	196.871
6839.12	196.07
6878.6	195.272
6918.31	194.479
6958.25	193.688
6998.42	192.902
7038.82	192.119
7079.46	191.341
7120.33	190.566
7161.43	189.795
7202.78	189.027
7244.36	188.264
7286.18	187.505
7328.25	186.749
7370.55	185.998
7413.1	185.251
7455.9	184.508
7498.94	183.768
7542.23	183.033
7585.78	182.302
7629.57	181.576
7673.61	180.853
7717.92	180.134
7762.47	179.42
7807.28	178.71
7852.36	178.004
7897.69	177.302
7943.28	176.605
7989.14	175.912
8035.26	175.219
8081.65	174.53
8128.31	173.846
8175.23	173.165
8222.43	172.489
8269.9	171.817
8317.64	171.149
8365.66	170.485
8413.95	169.826
8462.53	169.17
8511.38	168.519
8560.52	167.873
8609.94	167.23
8659.64	166.592
8709.64	165.957
8759.92	165.327
8810.49	164.701
8861.35	164.08
8912.51	163.462
8963.96	162.848
9015.71	162.238
9067.76	161.632
9120.11	161.03
9172.76	160.432
9225.71	159.838
9278.97	159.247
9332.54	158.661
9386.42	158.077
9440.61	157.498
9495.11	156.922
9549.93	156.349
9605.06	155.78
9660.51	155.214
9716.28	154.651
9772.37	154.092
9828.79	153.535
9885.53	152.982
9942.6	152.431
10000	151.883
10057.7	151.337
10115.8	150.794
10174.2	150.253
10232.9	149.716
10292	149.18
10351.4	148.648
10411.2	148.118
10471.3	147.591
10531.7	147.066
10592.5	146.545
10653.7	146.026
10715.2	145.509
10777.1	144.996
10839.3	144.485
10901.8	143.977
10964.8	143.472
11028.1	142.969
11091.7	142.469
11155.8	141.972
11220.2	141.478
11285	140.986
11350.1	140.497
11415.6	140.011
11481.5	139.528
11547.8	139.047
11614.5	138.569
11681.5	138.094
11749	137.621
11816.8	137.151
11885	136.683
11953.6	136.218
12022.6	135.755
12092.1	135.295
12161.9	134.836
12232.1	134.38
12302.7	133.927
12373.7	133.477
12445.1	133.029
12517	132.583
12589.3	132.14
12661.9	131.7
12735	131.263
12808.6	130.828
12882.5	130.396
12956.9	129.966
13031.7	129.54
13106.9	129.115
13182.6	128.694
13258.7	128.275
13335.2	127.859
13412.2	127.446
13489.6	127.035
13567.5	126.627
13645.8	126.221
13724.6	125.818
13803.8	125.418
13883.5	125.021
13963.7	124.626
14044.3	124.233
14125.4	123.844
14206.9	123.456
14288.9	123.072
14371.4	122.69
14454.4	122.31
14537.8	121.933
14621.8	121.558
14706.2	121.186
14791.1	120.816
14876.5	120.448
14962.4	120.083
15048.7	119.719
15135.6	119.358
15223	119
15310.9	118.643
15399.3	118.288
15488.2	117.936
15577.6	117.585
15667.5	117.236
15758	116.889
15848.9	116.544
15940.4	116.2
16032.5	115.859
16125	115.522
16218.1	115.187
16311.7	114.853
16405.9	114.52
16500.6	114.19
16595.9	113.861
16691.7	113.533
16788	113.208
16885	112.884
16982.4	112.561
17080.5	112.241
17179.1	111.922
17278.3	111.605
17378	111.289
17478.3	110.976
17579.2	110.664
17680.7	110.354
17782.8	110.045
17885.5	109.739
17988.7	109.434
18092.6	109.131
18197	108.83
18302.1	108.53
18407.7	108.233
18514	107.937
18620.9	107.643
18728.4	107.351
18836.5	107.061
18945.2	106.772
19054.6	106.485
19164.6	106.201
19275.2	105.918
19386.5	105.636
19498.4	105.357
19611	105.079
19724.2	104.803
19838.1	104.529
19952.6	104.257
20067.8	103.986
20183.7	103.716
20300.2	103.449
20417.4	103.183
20535.3	102.918
20653.8	102.656
20773	102.395
20893	102.136
21013.6	101.878
21134.9	101.623
21256.9	101.369
21379.6	101.117
21503	100.867
21627.2	100.618
21752	100.371
21877.6	100.126
22003.9	99.8828
22130.9	99.641
22258.7	99.401
22387.2	99.1626
22516.5	98.9259
22646.4	98.6908
22777.2	98.4573
22908.7	98.2254
23040.9	97.9951
23173.9	97.7664
23307.7	97.5392
23442.3	97.3135
23577.6	97.0892
23713.7	96.8665
23850.6	96.6451
23988.3	96.4251
24126.8	96.2065
24266.1	95.9892
24406.2	95.7733
24547.1	95.5587
24688.8	95.3454
24831.3	95.1336
24974.7	94.9231
25118.9	94.714
25263.9	94.5062
25409.7	94.2998
25556.4	94.0948
25704	93.8911
25852.3	93.6888
26001.6	93.4879
26151.7	93.2883
26302.7	93.0901
26454.5	92.8932
26607.3	92.6976
26760.9	92.5033
26915.3	92.3104
27070.7	92.1187
27227	91.9284
27384.2	91.7393
27542.3	91.5515
27701.3	91.365
27861.2	91.1797
28022.1	90.9956
28183.8	90.8127
28346.5	90.631
28510.2	90.4506
28674.8	90.2713
28840.3	90.0933
29006.8	89.9165
29174.3	89.7409
29342.7	89.5665
29512.1	89.3934
29682.5	89.2215
29853.8	89.0508
30026.2	88.8814
30199.5	88.7131
30373.9	88.5461
30549.2	88.3803
30725.6	88.2157
30903	88.0523
31081.4	87.8902
31260.8	87.7292
31441.3	87.5694
31622.8	87.4108
31805.3	87.2533
31989	87.0971
32173.6	86.9419
32359.4	86.788
32546.2	86.6351
32734.1	86.4834
32923	86.3329
33113.1	86.1835
33304.3	86.0352
33496.5	85.888
33689.9	85.7419
33884.4	85.597
34080	85.4531
34276.8	85.3103
34474.7	85.1686
34673.7	85.0279
34873.9	84.8883
35075.2	84.7498
35277.7	84.6122
35481.3	84.4757
35686.2	84.3401
35892.2	84.2055
36099.4	84.0718
36307.8	83.9391
36517.4	83.8073
36728.2	83.6763
36940.3	83.5463
37153.5	83.417
37368	83.2886
37583.7	83.1609
37800.7	83.034
38018.9	82.9077
38238.4	82.7822
38459.2	82.6573
38681.2	82.533
38904.5	82.4093
39129.1	82.2862
39355	82.1635
39582.2	82.0413
39810.7	81.9194
40040.5	81.7971
40271.7	81.6717
40504.2	81.5472
40738	81.4237
40973.2	81.3011
41209.8	81.1793
41447.7	81.0585
41686.9	80.9386
41927.6	80.8195
42169.7	80.7014
42413.1	80.5841
42658	80.4678
42904.2	80.3523
43151.9	80.2376
43401	80.1239
43651.6	80.011
43903.6	79.8989
44157	79.7877
44412	79.6773
44668.4	79.5678
44926.2	79.4591
45185.6	79.3513
45446.5	79.2443
45708.8	79.1381
45972.7	79.0327
46238.1	78.9281
46505	78.8244
46773.5	78.7214
47043.5	78.6192
47315.1	78.5179
47588.3	78.4173
47863	78.3175
48139.3	78.2185
48417.2	78.1203
48696.8	78.0228
48977.9	77.9261
49260.6	77.8302
49545	77.735
49831	77.6406
50118.7	77.5469
50408.1	77.454
50699.1	77.3618
50991.8	77.2704
51286.1	77.1797
51582.2	77.0897
51880	77.0004
52179.5	76.9119
52480.7	76.8241
52783.7	76.737
53088.4	76.6506
53394.9	76.5649
53703.2	76.4799
54013.2	76.3955
54325	76.3119
54638.7	76.229
54954.1	76.1468
55271.3	76.0652
55590.4	75.9843
55911.4	75.9041
56234.1	75.8245
56558.8	75.7456
56885.3	75.6674
57213.7	75.5898
57544	75.5129
57876.2	75.4366
58210.3	75.361
58546.4	75.286
58884.4	75.2117
59224.3	75.1379
59566.2	75.0648
59910.1	74.9924
60256	74.9205
60603.8	74.8493
60953.7	74.7787
61305.6	74.7086
61659.5	74.6392
62015.5	74.5704
62373.5	74.5022
62733.6	74.4346
63095.7	74.3676
63460	74.3011
63826.3	74.2353
64194.8	74.17
64565.4	74.1053
64938.2	74.0412
65313.1	73.9777
65690.1	73.9147
66069.3	73.8522
66450.8	73.7904
66834.4	73.7291
67220.2	73.6683
67608.3	73.6081
67998.6	73.5484
68391.2	73.4893
68786	73.4307
69183.1	73.3727
69582.5	73.3152
69984.2	73.2582
70388.2	73.2017
70794.6	73.1458
71203.3	73.0903
71614.3	73.0354
72027.8	72.981
72443.6	72.9271
72861.8	72.8737
73282.5	72.8208
73705.5	72.7685
74131	72.7166
74559	72.6652
74989.4	72.6143
75422.3	72.5638
75857.8	72.5139
76295.7	72.4644
76736.1	72.4154
77179.2	72.3669
77624.7	72.3189
78072.8	72.2713
78523.6	72.2242
78976.9	72.1775
79432.8	72.1313
79891.4	72.0856
80352.6	72.0403
80816.5	71.9954
81283.1	71.951
81752.3	71.9071
82224.3	71.8636
82699	71.8205
83176.4	71.7778
83656.6	71.7356
84139.5	71.6938
84625.3	71.6525
85113.8	71.6115
85605.2	71.571
86099.4	71.5309
86596.4	71.4912
87096.4	71.4519
87599.2	71.4131
88104.9	71.3746
88613.5	71.3365
89125.1	71.2989
89639.6	71.2616
90157.1	71.2247
90677.6	71.1882
91201.1	71.1521
91727.6	71.1164
92257.1	71.0811
92789.7	71.0461
93325.4	71.0115
93864.2	70.9773
94406.1	70.9435
94951.1	70.9101
95499.3	70.877
96050.6	70.8442
96605.1	70.8119
97162.8	70.7799
97723.7	70.7482
98287.9	70.7169
98855.3	70.686
99426	70.6554
100000	70.6251
100577	70.5952
101158	70.5656
101742	70.5364
102329	70.5075
102920	70.479
103514	70.4507
104112	70.4228
104713	70.3952
105317	70.368
105925	70.3411
106537	70.3145
107152	70.2882
107771	70.2622
108393	70.2365
109018	70.2111
109648	70.1861
110281	70.1613
110917	70.1369
111558	70.1128
112202	70.0889
112850	70.0653
113501	70.0421
114156	70.0191
114815	69.9964
115478	69.974
116145	69.9519
116815	69.9301
117490	69.9085
118168	69.8873
118850	69.8663
119536	69.8455
120226	69.8251
120921	69.8049
121619	69.785
122321	69.7653
123027	69.7459
123737	69.7268
124451	69.7079
125170	69.6893
125893	69.6709
126619	69.6528
127350	69.635
128086	69.6173
128825	69.6
129569	69.5828
130317	69.566
131069	69.5493
131826	69.5329
132587	69.5167
133352	69.5008
134122	69.4851
134896	69.4696
135675	69.4543
136458	69.4393
137246	69.4245
138038	69.4099
138835	69.3956
139637	69.3814
140443	69.3675
141254	69.3538
142069	69.3403
142889	69.327
143714	69.3139
144544	69.301
145378	69.2884
146218	69.2759
147062	69.2636
147911	69.2516
148765	69.2397
149624	69.228
150487	69.2166
151356	69.2053
152230	69.1942
153109	69.1833
153993	69.1726
154882	69.162
155776	69.1517
156675	69.1415
157580	69.1315
158489	69.1217
159404	69.1121
160325	69.1026
161250	69.0934
162181	69.0843
163117	69.0753
164059	69.0665
165006	69.0579
165959	69.0495
166917	69.0412
167880	69.0331
168850	69.0252
169824	69.0174
170805	69.0098
171791	69.0023
172783	68.995
173780	68.9878
174783	68.9808
175792	68.974
176807	68.9673
177828	68.9607
178855	68.9543
179887	68.948
180926	68.9419
181970	68.9359
183021	68.93
184077	68.9243
185140	68.9188
186209	68.9133
187284	68.908
188365	68.9029
189452	68.8978
190546	68.8929
191646	68.8881
192752	68.8835
193865	68.879
194984	68.8746
196110	68.8703
197242	68.8662
198381	68.8621
199526	68.8582
200678	68.8544
201837	68.8508
203002	68.8472
204174	68.8438
205353	68.8404
206538	68.8372
207730	68.8341
208930	68.8311
210136	68.8282
211349	68.8254
212569	68.8228
213796	68.8202
215030	68.8177
216272	68.8154
217520	68.8131
218776	68.811
220039	68.8089
221309	68.8069
222587	68.8051
223872	68.8033
225165	68.8016
226464	68.8
227772	68.7985
229087	68.7971
230409	68.7958
231739	68.7946
233077	68.7935
234423	68.7924
235776	68.7915
237137	68.7906
238506	68.7898
239883	68.7891
241268	68.7885
242661	68.7879
244062	68.7874
245471	68.787
246888	68.7867
248313	68.7865
249747	68.7863
251189	68.7863
252639	68.7862
254097	68.7863
255564	68.7864
257040	68.7866
258523	68.7869
260016	68.7873
261517	68.7877
263027	68.7881
264545	68.7887
266073	68.7893
267609	68.79
269153	68.7907
270707	68.7915
272270	68.7924
273842	68.7933
275423	68.7943
277013	68.7953
278612	68.7964
280221	68.7975
281838	68.7988
283465	68.8
285102	68.8013
286748	68.8027
288403	68.8042
290068	68.8056
291743	68.8072
293427	68.8088
295121	68.8104
296825	68.8121
298538	68.8138
300262	68.8156
301995	68.8174
303739	68.8193
305492	68.8212
307256	68.8232
309030	68.8252
310814	68.8272
312608	68.8293
314413	68.8314
316228	68.8336
318053	68.8358
319890	68.8381
321736	68.8404
323594	68.8427
325462	68.8451
327341	68.8475
329230	68.8499
331131	68.8524
333043	68.8549
334965	68.8575
336899	68.8601
338844	68.8627
340800	68.8653
342768	68.868
344747	68.8707
346737	68.8735
348739	68.8762
350752	68.879
352777	68.8819
354813	68.8847
356862	68.8876
358922	68.8905
360994	68.8935
363078	68.8964
365174	68.8994
367282	68.9024
369403	68.9055
371535	68.9085
373680	68.9116
375837	68.9147
378007	68.9179
380189	68.921
382384	68.9242
384592	68.9274
386812	68.9306
389045	68.9338
391291	68.9371
393550	68.9403
395822	68.9436
398107	68.9469
400405	68.9502
402717	68.9536
405042	68.9569
407380	68.9603
409732	68.9637
412098	68.9671
414477	68.9705
416869	68.9739
419276	68.9774
421697	68.9808
424131	68.9843
426580	68.9878
429042	68.9912
431519	68.9947
434010	68.9982
436516	69.0018
439036	69.0053
441570	69.0088
444120	69.0124
446684	69.0159
449262	69.0195
451856	69.0231
454465	69.0266
457088	69.0302
459727	69.0338
462381	69.0374
465050	69.041
467735	69.0446
470435	69.0483
473151	69.0519
475883	69.0555
478630	69.0591
481393	69.0628
484172	69.0664
486968	69.07
489779	69.0737
492606	69.0773
495450	69.081
498310	69.0846
501187	69.0883
504081	69.0919
506991	69.0955
509918	69.0992
512861	69.1028
515822	69.1065
518800	69.1101
521795	69.1138
524807	69.1174
527837	69.1211
530884	69.1247
533949	69.1284
537032	69.132
540132	69.1357
543250	69.1393
546387	69.1429
549541	69.1466
552713	69.1502
555904	69.1538
559114	69.1574
562341	69.161
565588	69.1646
568853	69.1682
572137	69.1718
575440	69.1754
578762	69.179
582103	69.1826
585464	69.1862
588844	69.1898
592243	69.1933
595662	69.1969
599101	69.2004
602560	69.204
606038	69.2075
609537	69.211
613056	69.2146
616595	69.2181
620155	69.2216
623735	69.2251
627336	69.2286
630957	69.2321
634600	69.2355
638263	69.239
641948	69.2424
645654	69.2459
649382	69.2493
653131	69.2527
656901	69.2562
660693	69.2596
664508	69.263
668344	69.2663
672202	69.2697
676083	69.2731
679986	69.2764
683912	69.2798
687860	69.2831
691831	69.2864
695825	69.2897
699842	69.293
703882	69.2963
707946	69.2996
712033	69.3028
716143	69.3061
720278	69.3093
724436	69.3125
728618	69.3157
732825	69.3189
737055	69.3221
741310	69.3253
745590	69.3285
749894	69.3316
754223	69.3347
758578	69.3379
762957	69.341
767361	69.3441
771792	69.3471
776247	69.3502
780728	69.3532
785236	69.3563
789769	69.3593
794328	69.3623
798914	69.3653
803526	69.3683
808165	69.3712
812831	69.3742
817523	69.3771
822243	69.3801
826990	69.383
831764	69.3859
836566	69.3887
841395	69.3916
846253	69.3944
851138	69.3973
856052	69.4001
860994	69.4029
865964	69.4057
870964	69.4084
875992	69.4112
881049	69.4139
886135	69.4167
891251	69.4194
896396	69.4221
901571	69.4247
906776	69.4274
912011	69.43
917276	69.4327
922571	69.4353
927897	69.4379
933254	69.4405
938642	69.443
944061	69.4456
949511	69.4481
954993	69.4506
960506	69.4531
966051	69.4556
971628	69.4581
977237	69.4605
982879	69.463
988553	69.4654
994260	69.4678
1e+06	69.4702
1.00577e+06	69.4725
1.01158e+06	69.4749
1.01742e+06	69.4772
1.02329e+06	69.4795
1.0292e+06	69.4818
1.03514e+06	69.4841
1.04112e+06	69.4864
1.04713e+06	69.4887
1.05317e+06	69.4909
1.05925e+06	69.4931
1.06537e+06	69.4953
1.07152e+06	69.4975
1.07771e+06	69.4997
1.08393e+06	69.5018
1.09018e+06	69.504
1.09648e+06	69.5061
1.10281e+06	69.5082
1.10917e+06	69.5103
1.11558e+06	69.5123
1.12202e+06	69.5144
1.1285e+06	69.5164
1.13501e+06	69.5185
1.14156e+06	69.5205
1.14815e+06	69.5224
1.15478e+06	69.5244
1.16145e+06	69.5264
1.16815e+06	69.5283
1.1749e+06	69.5302
1.18168e+06	69.5321
1.1885e+06	69.534
1.19536e+06	69.5359
1.20226e+06	69.5377
1.20921e+06	69.5396
1.21619e+06	69.5414
1.22321e+06	69.5432
1.23027e+06	69.545
1.23737e+06	69.5468
1.24451e+06	69.5485
1.2517e+06	69.5503
1.25893e+06	69.552
1.26619e+06	69.5537
1.2735e+06	69.5554
1.28086e+06	69.5571
1.28825e+06	69.5587
1.29569e+06	69.5604
1.30317e+06	69.562
1.31069e+06	69.5636
1.31826e+06	69.5652
1.32587e+06	69.5668
1.33352e+06	69.5683
1.34122e+06	69.5699
1.34896e+06	69.5714
1.35675e+06	69.5729
1.36458e+06	69.5744
1.37246e+06	69.5759
1.38038e+06	69.5774
1.38835e+06	69.5788
1.39637e+06	69.5802
1.40443e+06	69.5817
1.41254e+06	69.5831
1.42069e+06	69.5845
1.42889e+06	69.5858
1.43714e+06	69.5872
1.44544e+06	69.5885
1.45378e+06	69.5898
1.46218e+06	69.5912
1.47062e+06	69.5925
1.47911e+06	69.5937
1.48765e+06	69.595
1.49624e+06	69.5962
1.50487e+06	69.5975
1.51356e+06	69.5987
1.5223e+06	69.5999
1.53109e+06	69.6011
1.53993e+06	69.6023
1.54882e+06	69.6034
1.55776e+06	69.6046
1.56675e+06	69.6057
1.5758e+06	69.6068
1.58489e+06	69.6079
1.59404e+06	69.609
1.60325e+06	69.6101
1.6125e+06	69.6111
1.62181e+06	69.6122
1.63117e+06	69.6132
1.64059e+06	69.6142
1.65006e+06	69.6152
1.65959e+06	69.6162
1.66917e+06	69.6172
1.6788e+06	69.6181
1.6885e+06	69.6191
1.69824e+06	69.62
1.70805e+06	69.6209
1.71791e+06	69.6218
1.72783e+06	69.6227
1.7378e+06	69.6236
1.74783e+06	69.6245
1.75792e+06	69.6253
1.76807e+06	69.6261
1.77828e+06	69.627
1.78855e+06	69.6278
1.79887e+06	69.6286
1.80926e+06	69.6293
1.8197e+06	69.6301
1.83021e+06	69.6309
1.84077e+06	69.6316
1.8514e+06	69.6324
1.86209e+06	69.6331
1.87284e+06	69.6338
1.88365e+06	69.6345
1.89452e+06	69.6352
1.90546e+06	69.6358
1.91646e+06	69.6365
1.92752e+06	69.6371
1.93865e+06	69.6378
1.94984e+06	69.6384
1.9611e+06	69.639
1.97242e+06	69.6396
1.98381e+06	69.6402
1.99526e+06	69.6407
2.00678e+06	69.6413
2.01837e+06	69.6418
2.03002e+06	69.6424
2.04174e+06	69.6429
2.05353e+06	69.6434
2.06538e+06	69.6439
2.0773e+06	69.6444
2.0893e+06	69.6449
2.10136e+06	69.6454
2.11349e+06	69.6458
2.12569e+06	69.6463
2.13796e+06	69.6467
2.1503e+06	69.6472
2.16272e+06	69.6476
2.1752e+06	69.648
2.18776e+06	69.6484
2.20039e+06	69.6488
2.21309e+06	69.6491
2.22587e+06	69.6495
2.23872e+06	69.6499
2.25165e+06	69.6502
2.26464e+06	69.6506
2.27772e+06	69.6509
2.29087e+06	69.6512
2.30409e+06	69.6515
2.31739e+06	69.6518
2.33077e+06	69.6521
2.34423e+06	69.6524
2.35776e+06	69.6526
2.37137e+06	69.6529
2.38506e+06	69.6532
2.39883e+06	69.6534
2.41268e+06	69.6536
2.42661e+06	69.6539
2.44062e+06	69.6541
2.45471e+06	69.6543
2.46888e+06	69.6545
2.48313e+06	69.6547
2.49747e+06	69.6549
2.51189e+06	69.6551
2.52639e+06	69.6552
2.54097e+06	69.6554
2.55564e+06	69.6556
2.5704e+06	69.6557
2.58523e+06	69.6558
2.60016e+06	69.656
2.61517e+06	69.6561
2.63027e+06	69.6562
2.64545e+06	69.6563
2.66073e+06	69.6564
2.67609e+06	69.6565
2.69153e+06	69.6566
2.70707e+06	69.6567
2.7227e+06	69.6568
2.73842e+06	69.6568
2.75423e+06	69.6569
2.77013e+06	69.657
2.78612e+06	69.657
2.80221e+06	69.6571
2.81838e+06	69.6571
2.83465e+06	69.6571
2.85102e+06	69.6572
2.86748e+06	69.6572
2.88403e+06	69.6572
2.90068e+06	69.6572
2.91743e+06	69.6572
2.93427e+06	69.6572
2.95121e+06	69.6572
2.96825e+06	69.6572
2.98538e+06	69.6572
3.00262e+06	69.6572
3.01995e+06	69.6571
3.03739e+06	69.6571
3.05492e+06	69.6571
3.07256e+06	69.657
3.0903e+06	69.657
3.10814e+06	69.657
3.12608e+06	69.6569
3.14413e+06	69.6569
3.16228e+06	69.6568
3.18053e+06	69.6567
3.1989e+06	69.6567
3.21736e+06	69.6566
3.23594e+06	69.6565
3.25462e+06	69.6565
3.27341e+06	69.6564
3.2923e+06	69.6563
3.31131e+06	69.6562
3.33043e+06	69.6561
3.34965e+06	69.656
3.36899e+06	69.6559
3.38844e+06	69.6559
3.408e+06	69.6558
3.42768e+06	69.6557
3.44747e+06	69.6556
3.46737e+06	69.6555
3.48739e+06	69.6553
3.50752e+06	69.6552
3.52777e+06	69.6551
3.54813e+06	69.655
3.56862e+06	69.6549
3.58922e+06	69.6548
3.60994e+06	69.6547
3.63078e+06	69.6546
3.65174e+06	69.6545
3.67282e+06	69.6543
3.69403e+06	69.6542
3.71535e+06	69.6541
3.7368e+06	69.654
3.75837e+06	69.6539
3.78007e+06	69.6537
3.80189e+06	69.6536
3.82384e+06	69.6535
3.84592e+06	69.6534
3.86812e+06	69.6533
3.89045e+06	69.6532
3.91291e+06	69.653
3.9355e+06	69.6529
3.95822e+06	69.6528
3.98107e+06	69.6527
4.00405e+06	69.6526
4.02717e+06	69.6525
4.05042e+06	69.6523
4.0738e+06	69.6522
4.09732e+06	69.6521
4.12098e+06	69.652
4.14477e+06	69.6519
4.16869e+06	69.6518
4.19276e+06	69.6517
4.21697e+06	69.6516
4.24131e+06	69.6515
4.2658e+06	69.6514
4.29042e+06	69.6513
4.31519e+06	69.6512
4.3401e+06	69.6511
4.36516e+06	69.651
4.39036e+06	69.6509
4.4157e+06	69.6508
4.4412e+06	69.6507
4.46684e+06	69.6506
4.49262e+06	69.6505
4.51856e+06	69.6504
4.54465e+06	69.6503
4.57088e+06	69.6502
4.59727e+06	69.6501
4.62381e+06	69.65
4.6505e+06	69.6499
4.67735e+06	69.6498
4.70435e+06	69.6497
4.73151e+06	69.6496
4.75883e+06	69.6495
4.7863e+06	69.6495
4.81393e+06	69.6494
4.84172e+06	69.6493
4.86968e+06	69.6492
4.89779e+06	69.6491
4.92606e+06	69.649
4.9545e+06	69.649
4.9831e+06	69.6489
5.01187e+06	69.6488
5.04081e+06	69.6487
5.06991e+06	69.6486
5.09918e+06	69.6485
5.12861e+06	69.6485
5.15822e+06	69.6484
5.188e+06	69.6483
5.21795e+06	69.6482
5.24807e+06	69.6482
5.27837e+06	69.6481
5.30884e+06	69.648
5.33949e+06	69.6479
5.37032e+06	69.6479
5.40132e+06	69.6478
5.4325e+06	69.6477
5.46387e+06	69.6477
5.49541e+06	69.6476
5.52713e+06	69.6475
5.55904e+06	69.6474
5.59114e+06	69.6474
5.62341e+06	69.6473
5.65588e+06	69.6472
5.68853e+06	69.6472
5.72137e+06	69.6471
5.7544e+06	69.647
5.78762e+06	69.647
5.82103e+06	69.6469
5.85464e+06	69.6468
5.88844e+06	69.6468
5.92243e+06	69.6467
5.95662e+06	69.6467
5.99101e+06	69.6466
6.0256e+06	69.6465
6.06038e+06	69.6465
6.09537e+06	69.6464
6.13056e+06	69.6463
6.16595e+06	69.6463
6.20155e+06	69.6462
6.23735e+06	69.6462
6.27336e+06	69.6461
6.30957e+06	69.6461
6.346e+06	69.646
6.38263e+06	69.6459
6.41948e+06	69.6459
6.45654e+06	69.6458
6.49382e+06	69.6458
6.53131e+06	69.6457
6.56901e+06	69.6457
6.60693e+06	69.6456
6.64508e+06	69.6456
6.68344e+06	69.6455
6.72202e+06	69.6455
6.76083e+06	69.6454
6.79986e+06	69.6454
6.83912e+06	69.6453
6.8786e+06	69.6453
6.91831e+06	69.6452
6.95825e+06	69.6452
6.99842e+06	69.6451
7.03882e+06	69.6451
7.07946e+06	69.645
7.12033e+06	69.645
7.16143e+06	69.6449
7.20278e+06	69.6449
7.24436e+06	69.6448
7.28618e+06	69.6448
7.32825e+06	69.6447
7.37055e+06	69.6447
7.4131e+06	69.6446
7.4559e+06	69.6446
7.49894e+06	69.6445
7.54223e+06	69.6445
7.58578e+06	69.6445
7.62957e+06	69.6444
7.67361e+06	69.6444
7.71792e+06	69.6443
7.76247e+06	69.6443
7.80728e+06	69.6442
7.85236e+06	69.6442
7.89769e+06	69.6442
7.94328e+06	69.6441
7.98914e+06	69.6441
8.03526e+06	69.644
8.08165e+06	69.644
8.12831e+06	69.644
8.17523e+06	69.6439
8.22243e+06	69.6439
8.2699e+06	69.6438
8.31764e+06	69.6438
8.36566e+06	69.6438
8.41395e+06	69.6437
8.46253e+06	69.6437
8.51138e+06	69.6436
8.56052e+06	69.6436
8.60994e+06	69.6436
8.65964e+06	69.6435
8.70964e+06	69.6435
8.75992e+06	69.6435
8.81049e+06	69.6434
8.86135e+06	69.6434
8.91251e+06	69.6434
8.96396e+06	69.6433
9.01571e+06	69.6433
9.06776e+06	69.6433
9.12011e+06	69.6432
9.17276e+06	69.6432
9.22571e+06	69.6432
9.27897e+06	69.6431
9.33254e+06	69.6431
9.38642e+06	69.6431
9.44061e+06	69.643
9.49511e+06	69.643
9.54993e+06	69.643
9.60506e+06	69.6429
9.66051e+06	69.6429
9.71628e+06	69.6429
9.77237e+06	69.6428
9.82879e+06	69.6428
9.88553e+06	69.6428
9.9426e+06	69.6427
1e+07	69.6427
