Stopping power dEdx from Ionisation for Cl35[0.0] Z = 17 in Water, process name: ionIoni
E [MeV]	dEdx [MeV/mm]
0.001	22.5989
0.00100577	22.6644
0.00101158	22.7301
0.00101742	22.796
0.00102329	22.8621
0.0010292	22.9283
0.00103514	22.9948
0.00104112	23.0615
0.00104713	23.1283
0.00105317	23.1953
0.00105925	23.2626
0.00106537	23.33
0.00107152	23.3976
0.00107771	23.4654
0.00108393	23.5334
0.00109018	23.6016
0.00109648	23.67
0.00110281	23.7386
0.00110917	23.8074
0.00111558	23.8764
0.00112202	23.9456
0.0011285	24.015
0.00113501	24.0846
0.00114156	24.1544
0.00114815	24.2244
0.00115478	24.2946
0.00116145	24.365
0.00116815	24.4356
0.0011749	24.5064
0.00118168	24.5774
0.0011885	24.6486
0.00119536	24.72
0.00120226	24.7917
0.00120921	24.8635
0.00121619	24.9355
0.00122321	25.0078
0.00123027	25.0802
0.00123737	25.1529
0.00124451	25.2258
0.0012517	25.2988
0.00125893	25.3721
0.00126619	25.4456
0.0012735	25.5194
0.00128086	25.5933
0.00128825	25.6674
0.00129569	25.7418
0.00130317	25.8163
0.00131069	25.8911
0.00131826	25.9661
0.00132587	26.0413
0.00133352	26.1168
0.00134122	26.1924
0.00134896	26.2683
0.00135675	26.3444
0.00136458	26.4207
0.00137246	26.4972
0.00138038	26.574
0.00138835	26.6509
0.00139637	26.7281
0.00140443	26.8055
0.00141254	26.8832
0.00142069	26.961
0.00142889	27.0391
0.00143714	27.1174
0.00144544	27.196
0.00145378	27.2747
0.00146218	27.3537
0.00147062	27.4329
0.00147911	27.5124
0.00148765	27.592
0.00149624	27.672
0.00150487	27.7521
0.00151356	27.8324
0.0015223	27.913
0.00153109	27.9939
0.00153993	28.0749
0.00154882	28.1562
0.00155776	28.2378
0.00156675	28.3195
0.0015758	28.4015
0.00158489	28.4838
0.00159404	28.5662
0.00160325	28.6489
0.0016125	28.7319
0.00162181	28.8151
0.00163117	28.8985
0.00164059	28.9822
0.00165006	29.0661
0.00165959	29.1502
0.00166917	29.2346
0.0016788	29.3193
0.0016885	29.4042
0.00169824	29.4893
0.00170805	29.5746
0.00171791	29.6603
0.00172783	29.7461
0.0017378	29.8322
0.00174783	29.9186
0.00175792	30.0052
0.00176807	30.0921
0.00177828	30.1792
0.00178855	30.2665
0.00179887	30.3542
0.00180926	30.442
0.0018197	30.5301
0.00183021	30.6185
0.00184077	30.7071
0.0018514	30.796
0.00186209	30.8852
0.00187284	30.9745
0.00188365	31.0642
0.00189452	31.1541
0.00190546	31.2443
0.00191646	31.3347
0.00192752	31.4254
0.00193865	31.5164
0.00194984	31.6076
0.0019611	31.699
0.00197242	31.7908
0.00198381	31.8828
0.00199526	31.9751
0.00200678	32.0676
0.00201837	32.1604
0.00203002	32.2535
0.00204174	32.3468
0.00205353	32.4404
0.00206538	32.5343
0.0020773	32.6284
0.0020893	32.7229
0.00210136	32.8176
0.00211349	32.9125
0.00212569	33.0078
0.00213796	33.1033
0.0021503	33.1991
0.00216272	33.2951
0.0021752	33.3915
0.00218776	33.4881
0.00220039	33.585
0.00221309	33.6822
0.00222587	33.7796
0.00223872	33.8774
0.00225165	33.9754
0.00226464	34.0737
0.00227772	34.1723
0.00229087	34.2711
0.00230409	34.3703
0.00231739	34.4697
0.00233077	34.5695
0.00234423	34.6695
0.00235776	34.7698
0.00237137	34.8704
0.00238506	34.9712
0.00239883	35.0724
0.00241268	35.1739
0.00242661	35.2756
0.00244062	35.3777
0.00245471	35.48
0.00246888	35.5827
0.00248313	35.6856
0.00249747	35.7888
0.00251189	35.8924
0.00252639	35.9962
0.00254097	36.1003
0.00255564	36.2047
0.0025704	36.3095
0.00258523	36.4145
0.00260016	36.5198
0.00261517	36.6255
0.00263027	36.7314
0.00264545	36.8377
0.00266073	36.9442
0.00267609	37.0511
0.00269153	37.1582
0.00270707	37.2657
0.0027227	37.3735
0.00273842	37.4816
0.00275423	37.59
0.00277013	37.6987
0.00278612	37.8078
0.00280221	37.9171
0.00281838	38.0268
0.00283465	38.1368
0.00285102	38.2471
0.00286748	38.3577
0.00288403	38.4686
0.00290068	38.5799
0.00291743	38.6914
0.00293427	38.8033
0.00295121	38.9155
0.00296825	39.0281
0.00298538	39.1409
0.00300262	39.2541
0.00301995	39.3677
0.00303739	39.4815
0.00305492	39.5957
0.00307256	39.7102
0.0030903	39.825
0.00310814	39.9402
0.00312608	40.0557
0.00314413	40.1715
0.00316228	40.2877
0.00318053	40.4042
0.0031989	40.521
0.00321736	40.6382
0.00323594	40.7557
0.00325462	40.8735
0.00327341	40.9917
0.0032923	41.1102
0.00331131	41.2291
0.00333043	41.3483
0.00334965	41.4678
0.00336899	41.5877
0.00338844	41.708
0.003408	41.8286
0.00342768	41.9495
0.00344747	42.0708
0.00346737	42.1924
0.00348739	42.3144
0.00350752	42.4368
0.00352777	42.5595
0.00354813	42.6825
0.00356862	42.8059
0.00358922	42.9297
0.00360994	43.0538
0.00363078	43.1782
0.00365174	43.3031
0.00367282	43.4283
0.00369403	43.5538
0.00371535	43.6797
0.0037368	43.806
0.00375837	43.9326
0.00378007	44.0596
0.00380189	44.187
0.00382384	44.3147
0.00384592	44.4428
0.00386812	44.5713
0.00389045	44.7001
0.00391291	44.8294
0.0039355	44.959
0.00395822	45.0889
0.00398107	45.2192
0.00400405	45.35
0.00402717	45.481
0.00405042	45.6125
0.0040738	45.7444
0.00409732	45.8766
0.00412098	46.0092
0.00414477	46.1422
0.00416869	46.2755
0.00419276	46.4093
0.00421697	46.5434
0.00424131	46.678
0.0042658	46.8129
0.00429042	46.9482
0.00431519	47.0839
0.0043401	47.22
0.00436516	47.3565
0.00439036	47.4933
0.0044157	47.6306
0.0044412	47.7683
0.00446684	47.9063
0.00449262	48.0448
0.00451856	48.1836
0.00454465	48.3229
0.00457088	48.4625
0.00459727	48.6026
0.00462381	48.7431
0.0046505	48.8839
0.00467735	49.0252
0.00470435	49.1669
0.00473151	49.309
0.00475883	49.4515
0.0047863	49.5944
0.00481393	49.7377
0.00484172	49.8814
0.00486968	50.0256
0.00489779	50.1702
0.00492606	50.3151
0.0049545	50.4605
0.0049831	50.6063
0.00501187	50.7526
0.00504081	50.8992
0.00506991	51.0463
0.00509918	51.1938
0.00512861	51.3418
0.00515822	51.4901
0.005188	51.7681
0.00521795	51.9173
0.00524807	52.0669
0.00527837	52.217
0.00530884	52.3675
0.00533949	52.5184
0.00537032	52.6698
0.00540132	52.8216
0.0054325	52.9739
0.00546387	53.1266
0.00549541	53.2797
0.00552713	53.4333
0.00555904	53.5873
0.00559114	53.7418
0.00562341	53.8967
0.00565588	54.052
0.00568853	54.2078
0.00572137	54.3641
0.0057544	54.5208
0.00578762	54.6779
0.00582103	54.8355
0.00585464	54.9936
0.00588844	55.1521
0.00592243	55.311
0.00595662	55.4705
0.00599101	55.6304
0.0060256	55.7907
0.00606038	55.9515
0.00609537	56.1128
0.00613056	56.2745
0.00616595	56.4367
0.00620155	56.5994
0.00623735	56.7625
0.00627336	56.9262
0.00630957	57.0902
0.006346	57.2548
0.00638263	57.4198
0.00641948	57.5853
0.00645654	57.7513
0.00649382	57.9178
0.00653131	58.0847
0.00656901	58.2521
0.00660693	58.42
0.00664508	58.5884
0.00668344	58.7573
0.00672202	58.9267
0.00676083	59.0965
0.00679986	59.2669
0.00683912	59.4377
0.0068786	59.609
0.00691831	59.7808
0.00695825	59.9531
0.00699842	60.1259
0.00703882	60.2992
0.00707946	60.473
0.00712033	60.6474
0.00716143	60.8222
0.00720278	60.9975
0.00724436	61.1733
0.00728618	61.3496
0.00732825	61.5265
0.00737055	61.7038
0.0074131	61.8816
0.0074559	62.06
0.00749894	62.2389
0.00754223	62.4183
0.00758578	62.5982
0.00762957	62.7786
0.00767361	62.9596
0.00771792	63.1411
0.00776247	63.3231
0.00780728	63.5056
0.00785236	63.6886
0.00789769	63.8722
0.00794328	64.0563
0.00798914	64.2409
0.00803526	64.4261
0.00808165	64.6118
0.00812831	64.798
0.00817523	64.9848
0.00822243	65.1721
0.0082699	65.36
0.00831764	65.5484
0.00836566	65.7373
0.00841395	65.9268
0.00846253	66.1168
0.00851138	66.3074
0.00856052	66.4985
0.00860994	66.6902
0.00865964	66.8824
0.00870964	67.0752
0.00875992	67.2685
0.00881049	67.4624
0.00886135	67.6569
0.00891251	67.8519
0.00896396	68.0475
0.00901571	68.2436
0.00906776	68.4403
0.00912011	68.6376
0.00917276	68.8354
0.00922571	69.0338
0.00927897	69.2328
0.00933254	69.4324
0.00938642	69.6325
0.00944061	69.8332
0.00949511	70.0345
0.00954993	70.2363
0.00960506	70.4388
0.00966051	70.6418
0.00971628	70.8454
0.00977237	71.0496
0.00982879	71.2544
0.00988553	71.4598
0.0099426	71.6658
0.01	71.8724
0.0100577	72.0795
0.0101158	72.2873
0.0101742	72.4956
0.0102329	72.7046
0.010292	72.9142
0.0103514	73.1243
0.0104112	73.3351
0.0104713	73.5465
0.0105317	73.7585
0.0105925	73.9711
0.0106537	74.1843
0.0107152	74.3981
0.0107771	74.6125
0.0108393	74.8276
0.0109018	75.0433
0.0109648	75.2596
0.0110281	75.4765
0.0110917	75.6941
0.0111558	75.9123
0.0112202	76.1311
0.011285	76.3505
0.0113501	76.5706
0.0114156	76.7913
0.0114815	77.0126
0.0115478	77.2346
0.0116145	77.4572
0.0116815	77.6805
0.011749	77.9044
0.0118168	78.1289
0.011885	78.3541
0.0119536	78.58
0.0120226	78.8065
0.0120921	79.0336
0.0121619	79.2614
0.0122321	79.4899
0.0123027	79.719
0.0123737	79.9488
0.0124451	80.1792
0.012517	80.4103
0.0125893	80.6421
0.0126619	80.8745
0.012735	81.1077
0.0128086	81.3414
0.0128825	81.5759
0.0129569	81.811
0.0130317	82.0468
0.0131069	82.2833
0.0131826	82.5205
0.0132587	82.7584
0.0133352	82.9969
0.0134122	83.2361
0.0134896	83.476
0.0135675	83.7167
0.0136458	83.958
0.0137246	84.2
0.0138038	84.4427
0.0138835	84.686
0.0139637	84.9301
0.0140443	85.1749
0.0141254	85.4205
0.0142069	85.6667
0.0142889	85.9136
0.0143714	86.1612
0.0144544	86.4096
0.0145378	86.6586
0.0146218	86.9084
0.0147062	87.1589
0.0147911	87.4102
0.0148765	87.6621
0.0149624	87.9148
0.0150487	88.1682
0.0151356	88.4223
0.015223	88.6772
0.0153109	88.9328
0.0153993	89.1891
0.0154882	89.4462
0.0155776	89.704
0.0156675	89.9626
0.015758	90.2219
0.0158489	90.4819
0.0159404	90.7427
0.0160325	91.0043
0.016125	91.2666
0.0162181	91.5297
0.0163117	91.7935
0.0164059	92.0581
0.0165006	92.3234
0.0165959	92.5895
0.0166917	92.8564
0.016788	93.1241
0.016885	93.3925
0.0169824	93.6617
0.0170805	93.9316
0.0171791	94.2024
0.0172783	94.4739
0.017378	94.7462
0.0174783	95.0193
0.0175792	95.2932
0.0176807	95.5679
0.0177828	95.8433
0.0178855	96.1196
0.0179887	96.3966
0.0180926	96.6745
0.018197	96.9531
0.0183021	97.2326
0.0184077	97.5129
0.018514	97.7939
0.0186209	98.0758
0.0187284	98.3585
0.0188365	98.642
0.0189452	98.9263
0.0190546	99.2115
0.0191646	99.4974
0.0192752	99.7842
0.0193865	100.072
0.0194984	100.36
0.019611	100.65
0.0197242	100.94
0.0198381	101.231
0.0199526	101.522
0.0200678	101.815
0.0201837	102.108
0.0203002	102.403
0.0204174	102.698
0.0205353	102.994
0.0206538	103.291
0.020773	103.589
0.020893	103.887
0.0210136	104.187
0.0211349	104.487
0.0212569	104.788
0.0213796	105.09
0.021503	105.393
0.0216272	105.697
0.021752	106.001
0.0218776	106.307
0.0220039	106.613
0.0221309	106.921
0.0222587	107.229
0.0223872	107.538
0.0225165	107.848
0.0226464	108.159
0.0227772	108.471
0.0229087	108.783
0.0230409	109.097
0.0231739	109.411
0.0233077	109.727
0.0234423	110.043
0.0235776	110.36
0.0237137	110.678
0.0238506	110.997
0.0239883	111.317
0.0241268	111.638
0.0242661	111.96
0.0244062	112.282
0.0245471	112.606
0.0246888	112.931
0.0248313	113.256
0.0249747	113.583
0.0251189	113.91
0.0252639	114.238
0.0254097	114.568
0.0255564	114.898
0.025704	115.229
0.0258523	115.561
0.0260016	115.894
0.0261517	116.228
0.0263027	116.563
0.0264545	116.899
0.0266073	117.236
0.0267609	117.574
0.0269153	117.913
0.0270707	118.253
0.027227	118.594
0.0273842	118.936
0.0275423	119.278
0.0277013	119.622
0.0278612	119.967
0.0280221	120.313
0.0281838	120.66
0.0283465	121.007
0.0285102	121.356
0.0286748	121.706
0.0288403	122.057
0.0290068	122.409
0.0291743	122.761
0.0293427	123.115
0.0295121	123.47
0.0296825	123.826
0.0298538	124.183
0.0300262	124.541
0.0301995	124.9
0.0303739	125.26
0.0305492	125.621
0.0307256	125.983
0.030903	126.346
0.0310814	126.71
0.0312608	127.076
0.0314413	127.442
0.0316228	127.809
0.0318053	128.178
0.031989	128.547
0.0321736	128.917
0.0323594	129.289
0.0325462	129.662
0.0327341	130.035
0.032923	130.41
0.0331131	130.786
0.0333043	131.163
0.0334965	131.541
0.0336899	131.92
0.0338844	132.301
0.03408	132.682
0.0342768	133.064
0.0344747	133.448
0.0346737	133.833
0.0348739	134.218
0.0350752	134.605
0.0352777	134.993
0.0354813	135.382
0.0356862	135.773
0.0358922	136.164
0.0360994	136.556
0.0363078	136.95
0.0365174	137.345
0.0367282	137.741
0.0369403	138.138
0.0371535	138.536
0.037368	138.935
0.0375837	139.336
0.0378007	139.737
0.0380189	140.14
0.0382384	140.544
0.0384592	140.949
0.0386812	141.355
0.0389045	141.763
0.0391291	142.171
0.039355	142.581
0.0395822	142.992
0.0398107	143.404
0.0400405	143.818
0.0402717	144.232
0.0405042	144.648
0.040738	145.065
0.0409732	145.483
0.0412098	145.902
0.0414477	146.323
0.0416869	146.745
0.0419276	147.167
0.0421697	147.592
0.0424131	148.017
0.042658	148.444
0.0429042	148.872
0.0431519	149.301
0.043401	149.731
0.0436516	150.163
0.0439036	150.595
0.044157	151.03
0.044412	151.465
0.0446684	151.901
0.0449262	152.339
0.0451856	152.778
0.0454465	153.219
0.0457088	153.66
0.0459727	154.103
0.0462381	154.547
0.046505	154.993
0.0467735	155.44
0.0470435	155.888
0.0473151	156.337
0.0475883	156.788
0.047863	157.24
0.0481393	157.693
0.0484172	158.147
0.0486968	158.603
0.0489779	159.06
0.0492606	159.519
0.049545	159.979
0.049831	160.44
0.0501187	160.902
0.0504081	161.366
0.0506991	161.831
0.0509918	162.298
0.0512861	162.765
0.0515822	163.234
0.05188	163.705
0.0521795	164.177
0.0524807	164.65
0.0527837	165.125
0.0530884	165.601
0.0533949	166.078
0.0537032	166.557
0.0540132	167.037
0.054325	167.518
0.0546387	168.001
0.0549541	168.485
0.0552713	168.971
0.0555904	169.458
0.0559114	169.946
0.0562341	170.436
0.0565588	170.927
0.0568853	171.42
0.0572137	171.914
0.057544	172.41
0.0578762	172.907
0.0582103	173.405
0.0585464	173.905
0.0588844	174.406
0.0592243	174.909
0.0595662	175.413
0.0599101	175.919
0.060256	176.426
0.0606038	176.934
0.0609537	177.444
0.0613056	177.956
0.0616595	178.469
0.0620155	178.983
0.0623735	179.499
0.0627336	180.016
0.0630957	180.535
0.06346	181.056
0.0638263	181.577
0.0641948	182.101
0.0645654	182.626
0.0649382	183.152
0.0653131	183.68
0.0656901	184.209
0.0660693	184.74
0.0664508	185.273
0.0668344	185.807
0.0672202	186.342
0.0676083	186.88
0.0679986	187.418
0.0683912	187.958
0.068786	188.5
0.0691831	189.044
0.0695825	189.588
0.0699842	190.135
0.0703882	190.683
0.0707946	191.233
0.0712033	191.784
0.0716143	192.337
0.0720278	192.891
0.0724436	193.447
0.0728618	194.005
0.0732825	194.564
0.0737055	195.125
0.074131	195.687
0.074559	196.251
0.0749894	196.817
0.0754223	197.384
0.0758578	197.953
0.0762957	198.523
0.0767361	199.096
0.0771792	199.67
0.0776247	200.245
0.0780728	200.822
0.0785236	201.401
0.0789769	201.982
0.0794328	202.564
0.0798914	203.148
0.0803526	203.733
0.0808165	204.32
0.0812831	204.909
0.0817523	205.5
0.0822243	206.092
0.082699	206.686
0.0831764	207.282
0.0836566	207.88
0.0841395	208.479
0.0846253	209.08
0.0851138	209.682
0.0856052	210.287
0.0860994	210.893
0.0865964	211.501
0.0870964	212.11
0.0875992	212.722
0.0881049	213.335
0.0886135	213.95
0.0891251	214.566
0.0896396	215.185
0.0901571	215.805
0.0906776	216.427
0.0912011	217.051
0.0917276	217.677
0.0922571	218.304
0.0927897	218.933
0.0933254	219.564
0.0938642	220.197
0.0944061	220.832
0.0949511	221.468
0.0954993	222.107
0.0960506	222.747
0.0966051	223.389
0.0971628	224.033
0.0977237	224.679
0.0982879	225.326
0.0988553	225.976
0.099426	226.627
0.1	227.28
0.100577	227.935
0.101158	228.592
0.101742	229.251
0.102329	229.912
0.10292	230.575
0.103514	231.239
0.104112	231.906
0.104713	232.574
0.105317	233.245
0.105925	233.917
0.106537	234.591
0.107152	235.267
0.107771	235.946
0.108393	236.626
0.109018	237.308
0.109648	237.992
0.110281	238.678
0.110917	239.366
0.111558	240.056
0.112202	240.748
0.11285	241.441
0.113501	242.137
0.114156	242.835
0.114815	243.535
0.115478	244.237
0.116145	244.941
0.116815	245.647
0.11749	246.355
0.118168	247.065
0.11885	247.777
0.119536	248.492
0.120226	249.208
0.120921	249.926
0.121619	250.647
0.122321	251.369
0.123027	252.094
0.123737	252.82
0.124451	253.549
0.12517	254.28
0.125893	255.013
0.126619	255.748
0.12735	256.485
0.128086	257.224
0.128825	257.966
0.129569	258.709
0.130317	259.455
0.131069	260.203
0.131826	260.953
0.132587	261.705
0.133352	262.459
0.134122	263.216
0.134896	263.974
0.135675	264.735
0.136458	265.498
0.137246	266.264
0.138038	267.031
0.138835	267.801
0.139637	268.573
0.140443	269.347
0.141254	270.123
0.142069	270.902
0.142889	271.683
0.143714	272.466
0.144544	273.251
0.145378	274.039
0.146218	274.829
0.147062	275.621
0.147911	276.415
0.148765	277.212
0.149624	278.011
0.150487	278.812
0.151356	279.616
0.15223	280.422
0.153109	281.23
0.153993	282.041
0.154882	282.854
0.155776	283.669
0.156675	284.487
0.15758	285.307
0.158489	286.129
0.159404	286.954
0.160325	287.781
0.16125	288.61
0.162181	289.442
0.163117	290.276
0.164059	291.113
0.165006	291.952
0.165959	292.794
0.166917	293.638
0.16788	294.484
0.16885	295.333
0.169824	296.184
0.170805	297.038
0.171791	297.894
0.172783	298.753
0.17378	299.614
0.174783	300.477
0.175792	301.344
0.176807	302.212
0.177828	303.083
0.178855	303.957
0.179887	304.833
0.180926	305.712
0.18197	306.593
0.183021	307.476
0.184077	308.363
0.18514	309.252
0.186209	310.143
0.187284	311.037
0.188365	311.933
0.189452	312.833
0.190546	313.734
0.191646	314.639
0.192752	315.545
0.193865	316.455
0.194984	317.367
0.19611	318.282
0.197242	319.199
0.198381	320.119
0.199526	321.042
0.200678	321.967
0.201837	322.895
0.203002	323.826
0.204174	324.76
0.205353	325.696
0.206538	326.634
0.20773	327.576
0.20893	328.52
0.210136	329.467
0.211349	330.417
0.212569	331.369
0.213796	332.324
0.21503	333.282
0.216272	334.243
0.21752	335.206
0.218776	336.172
0.220039	337.141
0.221309	338.113
0.222587	339.088
0.223872	340.065
0.225165	341.045
0.226464	342.028
0.227772	343.014
0.229087	344.003
0.230409	344.994
0.231739	345.989
0.233077	346.986
0.234423	347.986
0.235776	348.989
0.237137	349.995
0.238506	351.004
0.239883	352.016
0.241268	353.03
0.242661	354.048
0.244062	355.068
0.245471	356.092
0.246888	357.118
0.248313	358.147
0.249747	359.18
0.251189	360.215
0.252639	361.253
0.254097	362.295
0.255564	363.339
0.25704	364.386
0.258523	365.436
0.260016	366.49
0.261517	367.546
0.263027	368.606
0.264545	369.668
0.266073	370.734
0.267609	371.802
0.269153	372.874
0.270707	373.949
0.27227	375.026
0.273842	376.107
0.275423	377.191
0.277013	378.279
0.278612	379.369
0.280221	380.463
0.281838	381.559
0.283465	382.659
0.285102	383.762
0.286748	384.868
0.288403	385.977
0.290068	387.09
0.291743	388.206
0.293427	389.325
0.295121	390.447
0.296825	391.572
0.298538	392.701
0.300262	393.833
0.301995	394.968
0.303739	396.106
0.305492	397.248
0.307256	398.393
0.30903	399.541
0.310814	400.693
0.312608	401.848
0.314413	403.006
0.316228	404.168
0.318053	405.333
0.31989	406.501
0.321736	407.673
0.323594	408.848
0.325462	410.026
0.327341	411.208
0.32923	412.394
0.331131	413.582
0.333043	414.774
0.334965	415.97
0.336899	417.169
0.338844	418.371
0.3408	419.577
0.342768	420.787
0.344747	421.999
0.346737	423.216
0.348739	424.436
0.350752	425.659
0.352777	426.886
0.354813	428.116
0.356862	429.35
0.358922	430.588
0.360994	431.829
0.363078	433.074
0.365174	434.322
0.367282	435.574
0.369403	436.829
0.371535	438.089
0.37368	439.351
0.375837	440.618
0.378007	441.888
0.380189	443.161
0.382384	444.439
0.384592	445.72
0.386812	447.004
0.389045	448.293
0.391291	449.585
0.39355	450.881
0.395822	452.181
0.398107	453.484
0.400405	454.791
0.402717	456.102
0.405042	457.417
0.40738	458.735
0.409732	460.057
0.412098	461.383
0.414477	462.713
0.416869	464.047
0.419276	465.384
0.421697	466.726
0.424131	468.071
0.42658	469.42
0.429042	470.773
0.431519	472.13
0.43401	473.491
0.436516	474.856
0.439036	476.225
0.44157	477.597
0.44412	478.974
0.446684	480.355
0.449262	481.739
0.451856	483.128
0.454465	484.52
0.457088	485.917
0.459727	487.317
0.462381	488.722
0.46505	490.131
0.467735	491.543
0.470435	492.96
0.473151	494.381
0.475883	495.806
0.47863	497.235
0.481393	498.668
0.484172	500.106
0.486968	501.547
0.489779	502.993
0.492606	504.443
0.49545	505.897
0.49831	507.355
0.501187	508.817
0.504081	510.284
0.506991	511.755
0.509918	513.23
0.512861	514.709
0.515822	516.193
0.5188	517.681
0.521795	519.173
0.524807	520.669
0.527837	522.17
0.530884	523.675
0.533949	525.184
0.537032	526.698
0.540132	528.216
0.54325	529.739
0.546387	531.266
0.549541	532.797
0.552713	534.333
0.555904	535.873
0.559114	537.418
0.562341	538.967
0.565588	540.52
0.568853	542.078
0.572137	543.641
0.57544	545.208
0.578762	546.779
0.582103	548.355
0.585464	549.936
0.588844	551.521
0.592243	553.11
0.595662	554.705
0.599101	556.304
0.60256	557.907
0.606038	559.515
0.609537	561.128
0.613056	562.745
0.616595	564.367
0.620155	565.994
0.623735	567.625
0.627336	569.262
0.630957	570.902
0.6346	572.548
0.638263	574.198
0.641948	575.853
0.645654	577.513
0.649382	579.178
0.653131	580.847
0.656901	582.521
0.660693	584.2
0.664508	585.884
0.668344	587.573
0.672202	589.267
0.676083	590.965
0.679986	592.669
0.683912	594.377
0.68786	596.09
0.691831	597.808
0.695825	599.531
0.699842	601.259
0.703882	602.992
0.707946	604.73
0.712033	606.474
0.716143	608.222
0.720278	609.975
0.724436	611.733
0.728618	613.496
0.732825	615.265
0.737055	617.038
0.74131	618.816
0.74559	620.6
0.749894	622.389
0.754223	624.183
0.758578	625.982
0.762957	627.786
0.767361	629.596
0.771792	631.411
0.776247	633.231
0.780728	635.056
0.785236	636.886
0.789769	638.722
0.794328	640.563
0.798914	642.409
0.803526	644.261
0.808165	646.118
0.812831	647.98
0.817523	649.848
0.822243	651.721
0.82699	653.6
0.831764	655.484
0.836566	657.373
0.841395	659.268
0.846253	661.168
0.851138	663.074
0.856052	664.985
0.860994	666.902
0.865964	668.824
0.870964	670.752
0.875992	672.705
0.881049	674.748
0.886135	676.802
0.891251	678.866
0.896396	680.941
0.901571	683.027
0.906776	685.124
0.912011	687.231
0.917276	689.35
0.922571	691.479
0.927897	693.62
0.933254	695.771
0.938642	697.934
0.944061	700.108
0.949511	702.293
0.954993	704.489
0.960506	706.697
0.966051	708.916
0.971628	711.146
0.977237	713.388
0.982879	715.641
0.988553	717.906
0.99426	720.182
1	722.47
1.00577	724.77
1.01158	727.081
1.01742	729.404
1.02329	731.739
1.0292	734.085
1.03514	736.444
1.04112	738.814
1.04713	741.196
1.05317	743.549
1.05925	745.875
1.06537	748.213
1.07152	750.563
1.07771	752.925
1.08393	755.298
1.09018	757.683
1.09648	760.08
1.10281	762.489
1.10917	764.909
1.11558	767.342
1.12202	769.786
1.1285	772.243
1.13501	774.711
1.14156	777.192
1.14815	779.685
1.15478	782.19
1.16145	784.707
1.16815	787.236
1.1749	789.778
1.18168	792.332
1.1885	794.898
1.19536	797.476
1.20226	800.067
1.20921	802.671
1.21619	805.287
1.22321	807.915
1.23027	810.556
1.23737	813.209
1.24451	815.876
1.2517	818.554
1.25893	821.246
1.26619	823.95
1.2735	826.667
1.28086	829.396
1.28825	832.138
1.29569	834.894
1.30317	837.662
1.31069	840.442
1.31826	843.236
1.32587	846.043
1.33352	848.862
1.34122	851.695
1.34896	854.54
1.35675	857.399
1.36458	860.271
1.37246	863.155
1.38038	866.053
1.38835	868.964
1.39637	871.888
1.40443	874.813
1.41254	877.742
1.42069	880.684
1.42889	883.639
1.43714	886.607
1.44544	889.589
1.45378	892.584
1.46218	895.592
1.47062	898.613
1.47911	901.648
1.48765	904.697
1.49624	907.759
1.50487	910.835
1.51356	913.924
1.5223	917.027
1.53109	920.144
1.53993	923.274
1.54882	926.419
1.55776	929.577
1.56675	932.75
1.5758	935.936
1.58489	939.136
1.59404	942.351
1.60325	945.58
1.6125	948.823
1.62181	952.08
1.63117	955.352
1.64059	958.638
1.65006	961.938
1.65959	965.253
1.66917	968.583
1.6788	971.927
1.6885	975.286
1.69824	978.66
1.70805	982.049
1.71791	985.452
1.72783	988.871
1.7378	992.304
1.74783	995.753
1.75792	999.216
1.76807	1002.69
1.77828	1006.19
1.78855	1009.7
1.79887	1013.22
1.80926	1016.76
1.8197	1020.31
1.83021	1023.88
1.84077	1027.47
1.8514	1031.07
1.86209	1034.69
1.87284	1038.32
1.88365	1041.97
1.89452	1045.63
1.90546	1049.31
1.91646	1053
1.92752	1056.72
1.93865	1060.44
1.94984	1064.18
1.9611	1067.94
1.97242	1071.71
1.98381	1075.5
1.99526	1079.31
2.00678	1083.13
2.01837	1086.97
2.03002	1090.82
2.04174	1094.69
2.05353	1098.58
2.06538	1102.48
2.0773	1106.4
2.0893	1110.33
2.10136	1114.28
2.11349	1118.25
2.12569	1122.23
2.13796	1126.23
2.1503	1130.24
2.16272	1134.27
2.1752	1138.32
2.18776	1142.38
2.20039	1146.46
2.21309	1150.56
2.22587	1154.67
2.23872	1158.8
2.25165	1162.94
2.26464	1167.1
2.27772	1171.28
2.29087	1175.47
2.30409	1179.68
2.31739	1183.9
2.33077	1188.14
2.34423	1192.4
2.35776	1196.67
2.37137	1200.96
2.38506	1205.26
2.39883	1209.58
2.41268	1213.92
2.42661	1218.27
2.44062	1222.64
2.45471	1227.02
2.46888	1231.42
2.48313	1235.83
2.49747	1240.26
2.51189	1244.71
2.52639	1249.17
2.54097	1253.64
2.55564	1258.13
2.5704	1262.64
2.58523	1267.16
2.60016	1271.7
2.61517	1276.25
2.63027	1280.82
2.64545	1285.41
2.66073	1290
2.67609	1294.62
2.69153	1299.25
2.70707	1303.89
2.7227	1308.55
2.73842	1313.23
2.75423	1317.92
2.77013	1322.62
2.78612	1327.34
2.80221	1332.07
2.81838	1336.82
2.83465	1341.59
2.85102	1346.37
2.86748	1351.16
2.88403	1355.97
2.90068	1360.79
2.91743	1365.63
2.93427	1370.48
2.95121	1375.34
2.96825	1380.22
2.98538	1385.12
3.00262	1390.03
3.01995	1394.95
3.03739	1399.89
3.05492	1404.84
3.07256	1409.8
3.0903	1414.78
3.10814	1419.77
3.12608	1424.78
3.14413	1429.8
3.16228	1434.84
3.18053	1439.88
3.1989	1444.95
3.21736	1450.02
3.23594	1455.11
3.25462	1460.21
3.27341	1465.32
3.2923	1470.45
3.31131	1475.59
3.33043	1480.75
3.34965	1485.91
3.36899	1491.09
3.38844	1496.28
3.408	1501.49
3.42768	1506.7
3.44747	1511.93
3.46737	1517.17
3.48739	1522.42
3.50752	1527.68
3.52777	1532.96
3.54813	1538.25
3.56862	1543.55
3.58922	1548.87
3.60994	1554.19
3.63078	1559.53
3.65174	1564.87
3.67282	1570.23
3.69403	1575.6
3.71535	1580.98
3.7368	1586.36
3.75837	1591.76
3.78007	1597.17
3.80189	1602.6
3.82384	1608.03
3.84592	1613.47
3.86812	1618.92
3.89045	1624.38
3.91291	1629.85
3.9355	1635.33
3.95822	1640.82
3.98107	1646.32
4.00405	1651.82
4.02717	1657.34
4.05042	1662.87
4.0738	1668.4
4.09732	1673.94
4.12098	1679.49
4.14477	1685.05
4.16869	1690.62
4.19276	1696.2
4.21697	1701.78
4.24131	1707.38
4.2658	1712.98
4.29042	1718.58
4.31519	1724.2
4.3401	1729.82
4.36516	1735.45
4.39036	1741.09
4.4157	1746.73
4.4412	1752.38
4.46684	1758.03
4.49262	1763.7
4.51856	1769.36
4.54465	1775.04
4.57088	1780.72
4.59727	1786.41
4.62381	1792.1
4.6505	1797.79
4.67735	1803.5
4.70435	1809.2
4.73151	1814.92
4.75883	1820.63
4.7863	1826.35
4.81393	1832.08
4.84172	1837.81
4.86968	1843.54
4.89779	1849.28
4.92606	1855.02
4.9545	1860.77
4.9831	1866.52
5.01187	1872.27
5.04081	1878.02
5.06991	1883.78
5.09918	1889.54
5.12861	1895.3
5.15822	1901.07
5.188	1906.84
5.21795	1912.6
5.24807	1918.37
5.27837	1924.1
5.30884	1929.82
5.33949	1935.55
5.37032	1941.27
5.40132	1946.99
5.4325	1952.72
5.46387	1958.44
5.49541	1964.16
5.52713	1969.89
5.55904	1975.61
5.59114	1981.33
5.62341	1987.04
5.65588	1992.76
5.68853	1998.47
5.72137	2004.18
5.7544	2009.88
5.78762	2015.58
5.82103	2021.28
5.85464	2026.98
5.88844	2032.67
5.92243	2038.35
5.95662	2044.03
5.99101	2049.7
6.0256	2055.37
6.06038	2061.03
6.09537	2066.68
6.13056	2072.33
6.16595	2077.97
6.20155	2083.6
6.23735	2089.22
6.27336	2094.84
6.30957	2100.44
6.346	2106.04
6.38263	2111.62
6.41948	2117.2
6.45654	2122.76
6.49382	2128.32
6.53131	2133.86
6.56901	2139.39
6.60693	2144.91
6.64508	2150.41
6.68344	2155.9
6.72202	2161.38
6.76083	2166.84
6.79986	2172.29
6.83912	2177.73
6.8786	2183.15
6.91831	2188.55
6.95825	2193.93
6.99842	2199.3
7.03882	2204.68
7.07946	2210.03
7.12033	2215.37
7.16143	2220.69
7.20278	2225.99
7.24436	2231.27
7.28618	2236.53
7.32825	2241.77
7.37055	2247
7.4131	2252.2
7.4559	2257.38
7.49894	2262.54
7.54223	2267.69
7.58578	2272.81
7.62957	2277.9
7.67361	2282.98
7.71792	2288.04
7.76247	2293.07
7.80728	2298.08
7.85236	2303.06
7.89769	2308.03
7.94328	2312.97
7.98914	2317.89
8.03526	2322.78
8.08165	2327.65
8.12831	2332.49
8.17523	2337.31
8.22243	2342.1
8.2699	2346.87
8.31764	2351.62
8.36566	2356.34
8.41395	2361.03
8.46253	2365.7
8.51138	2370.34
8.56052	2374.95
8.60994	2379.54
8.65964	2384.1
8.70964	2388.64
8.75992	2393.14
8.81049	2397.63
8.86135	2402.08
8.91251	2406.51
8.96396	2410.91
9.01571	2415.28
9.06776	2419.63
9.12011	2423.94
9.17276	2428.23
9.22571	2432.49
9.27897	2436.72
9.33254	2440.92
9.38642	2445.09
9.44061	2449.23
9.49511	2453.34
9.54993	2457.42
9.60506	2461.47
9.66051	2465.49
9.71628	2469.48
9.77237	2473.44
9.82879	2477.36
9.88553	2481.26
9.9426	2485.13
10	2488.96
10.0577	2492.77
10.1158	2496.54
10.1742	2500.28
10.2329	2503.99
10.292	2507.67
10.3514	2511.32
10.4112	2514.94
10.4713	2518.52
10.5317	2522.09
10.5925	2525.62
10.6537	2529.12
10.7152	2532.59
10.7771	2536.03
10.8393	2539.44
10.9018	2542.82
10.9648	2546.16
11.0281	2549.47
11.0917	2552.75
11.1558	2556
11.2202	2559.21
11.285	2562.39
11.3501	2565.53
11.4156	2568.64
11.4815	2571.72
11.5478	2574.77
11.6145	2577.78
11.6815	2580.75
11.749	2583.7
11.8168	2586.61
11.885	2589.48
11.9536	2592.32
12.0226	2595.13
12.0921	2597.9
12.1619	2600.64
12.2321	2603.35
12.3027	2606.02
12.3737	2608.65
12.4451	2611.26
12.517	2613.83
12.5893	2616.36
12.6619	2618.87
12.735	2621.34
12.8086	2623.77
12.8825	2626.18
12.9569	2628.55
13.0317	2630.89
13.1069	2633.19
13.1826	2635.47
13.2587	2637.71
13.3352	2639.93
13.4122	2642.11
13.4896	2644.26
13.5675	2646.39
13.6458	2648.48
13.7246	2650.54
13.8038	2652.58
13.8835	2654.59
13.9637	2656.57
14.0443	2658.51
14.1254	2660.4
14.2069	2662.27
14.2889	2664.11
14.3714	2665.92
14.4544	2667.71
14.5378	2669.47
14.6218	2671.2
14.7062	2672.9
14.7911	2674.58
14.8765	2676.23
14.9624	2677.85
15.0487	2679.44
15.1356	2681
15.223	2682.54
15.3109	2684.04
15.3993	2685.52
15.4882	2686.97
15.5776	2688.4
15.6675	2689.79
15.758	2691.15
15.8489	2692.49
15.9404	2693.8
16.0325	2695.07
16.125	2696.32
16.2181	2697.54
16.3117	2698.74
16.4059	2699.9
16.5006	2701.03
16.5959	2702.14
16.6917	2703.22
16.788	2704.27
16.885	2705.29
16.9824	2706.28
17.0805	2707.24
17.1791	2708.18
17.2783	2709.09
17.378	2709.97
17.4783	2710.83
17.5792	2711.66
17.6807	2712.47
17.7828	2713.25
17.8855	2714.01
17.9887	2714.73
18.0926	2715.43
18.197	2716.11
18.3021	2716.75
18.4077	2717.37
18.514	2717.96
18.6209	2718.53
18.7284	2719.06
18.8365	2719.57
18.9452	2720.05
19.0546	2720.51
19.1646	2720.94
19.2752	2721.34
19.3865	2721.71
19.4984	2722.06
19.611	2722.38
19.7242	2722.67
19.8381	2722.94
19.9526	2723.18
20.0678	2723.39
20.1837	2723.58
20.3002	2723.74
20.4174	2723.88
20.5353	2723.99
20.6538	2724.07
20.773	2724.13
20.893	2724.17
21.0136	2724.18
21.1349	2724.17
21.2569	2724.14
21.3796	2724.08
21.503	2723.99
21.6272	2723.89
21.752	2723.76
21.8776	2723.6
22.0039	2723.42
22.1309	2723.22
22.2587	2722.99
22.3872	2722.73
22.5165	2722.46
22.6464	2722.16
22.7772	2721.83
22.9087	2721.49
23.0409	2721.11
23.1739	2720.72
23.3077	2720.3
23.4423	2719.86
23.5776	2719.39
23.7137	2718.9
23.8506	2718.39
23.9883	2717.85
24.1268	2717.29
24.2661	2716.71
24.4062	2716.11
24.5471	2715.48
24.6888	2714.84
24.8313	2714.17
24.9747	2713.48
25.1189	2712.76
25.2639	2712.03
25.4097	2711.27
25.5564	2710.49
25.704	2709.69
25.8523	2708.86
26.0016	2708.01
26.1517	2707.15
26.3027	2706.25
26.4545	2705.34
26.6073	2704.41
26.7609	2703.45
26.9153	2702.47
27.0707	2701.47
27.227	2700.44
27.3842	2699.4
27.5423	2698.33
27.7013	2697.25
27.8612	2696.14
28.0221	2695.01
28.1838	2693.85
28.3465	2692.68
28.5102	2691.49
28.6748	2690.27
28.8403	2689.03
29.0068	2687.78
29.1743	2686.5
29.3427	2685.2
29.5121	2683.88
29.6825	2682.54
29.8538	2681.18
30.0262	2679.79
30.1995	2678.39
30.3739	2676.97
30.5492	2675.52
30.7256	2674.06
30.903	2672.57
31.0814	2671.07
31.2608	2669.54
31.4413	2668
31.6228	2666.44
31.8053	2664.85
31.989	2663.25
32.1736	2661.63
32.3594	2659.99
32.5462	2658.33
32.7341	2656.65
32.923	2654.95
33.1131	2653.24
33.3043	2651.5
33.4965	2649.75
33.6899	2647.98
33.8844	2646.19
34.08	2644.39
34.2768	2642.56
34.4747	2640.72
34.6737	2638.86
34.8739	2636.99
35.0752	2635.1
35.2777	2633.19
35.4813	2631.27
35.6862	2629.33
35.8922	2627.37
36.0994	2625.4
36.3078	2623.41
36.5174	2621.4
36.7282	2619.38
36.9403	2617.34
37.1535	2615.28
37.368	2613.2
37.5837	2611.11
37.8007	2609
38.0189	2606.87
38.2384	2604.73
38.4592	2602.57
38.6812	2600.39
38.9045	2598.2
39.1291	2595.98
39.355	2593.75
39.5822	2591.5
39.8107	2589.24
40.0405	2586.96
40.2717	2584.66
40.5042	2582.34
40.738	2580
40.9732	2577.65
41.2098	2575.28
41.4477	2572.89
41.6869	2570.49
41.9276	2568.07
42.1697	2565.63
42.4131	2563.17
42.658	2560.7
42.9042	2558.21
43.1519	2555.7
43.401	2553.17
43.6516	2550.63
43.9036	2548.07
44.157	2545.49
44.412	2542.9
44.6684	2540.29
44.9262	2537.66
45.1856	2535.01
45.4465	2532.35
45.7088	2529.67
45.9727	2526.98
46.2381	2524.27
46.505	2521.54
46.7735	2518.8
47.0435	2516.04
47.3151	2513.27
47.5883	2510.48
47.863	2507.67
48.1393	2504.85
48.4172	2502.01
48.6968	2499.16
48.9779	2496.29
49.2606	2493.41
49.545	2490.51
49.831	2487.6
50.1187	2484.68
50.4081	2481.74
50.6991	2478.79
50.9918	2475.83
51.2861	2472.85
51.5822	2469.86
51.88	2466.85
52.1795	2463.84
52.4807	2460.81
52.7837	2457.76
53.0884	2454.7
53.3949	2451.63
53.7032	2448.54
54.0132	2445.45
54.325	2442.34
54.6387	2439.22
54.9541	2436.09
55.2713	2432.95
55.5904	2429.8
55.9114	2426.63
56.2341	2423.45
56.5588	2420.27
56.8853	2417.07
57.2137	2413.85
57.544	2410.63
57.8762	2407.4
58.2103	2404.15
58.5464	2400.89
58.8844	2397.62
59.2243	2394.34
59.5662	2391.05
59.9101	2387.74
60.256	2384.43
60.6038	2381.1
60.9537	2377.76
61.3056	2374.41
61.6595	2371.05
62.0155	2367.68
62.3735	2364.29
62.7336	2360.9
63.0957	2357.49
63.46	2354.07
63.8263	2350.64
64.1948	2347.2
64.5654	2343.75
64.9382	2340.29
65.3131	2336.81
65.6901	2333.33
66.0693	2329.83
66.4508	2326.32
66.8344	2322.81
67.2202	2319.28
67.6083	2315.74
67.9986	2312.19
68.3912	2308.62
68.786	2305.05
69.1831	2301.47
69.5825	2297.88
69.9842	2294.27
70.3882	2290.65
70.7946	2287.03
71.2033	2283.39
71.6143	2279.74
72.0278	2276.08
72.4436	2272.41
72.8618	2268.73
73.2825	2265.04
73.7055	2261.34
74.131	2257.62
74.559	2253.9
74.9894	2250.17
75.4223	2246.43
75.8578	2242.68
76.2957	2238.92
76.7361	2235.15
77.1792	2231.37
77.6247	2227.58
78.0728	2223.79
78.5236	2219.98
78.9769	2216.16
79.4328	2212.33
79.8914	2208.5
80.3526	2204.65
80.8165	2200.8
81.2831	2196.94
81.7523	2193.07
82.2243	2189.19
82.699	2185.3
83.1764	2181.4
83.6566	2177.49
84.1395	2173.58
84.6253	2169.66
85.1138	2165.73
85.6052	2161.79
86.0994	2157.84
86.5964	2153.89
87.0964	2149.92
87.5992	2145.95
88.1049	2141.98
88.6135	2137.99
89.1251	2134
89.6396	2130
90.1571	2125.99
90.6776	2121.97
91.2011	2117.95
91.7276	2113.92
92.2571	2109.89
92.7897	2105.84
93.3254	2101.79
93.8642	2097.73
94.4061	2093.67
94.9511	2089.6
95.4993	2085.52
96.0506	2081.44
96.6051	2077.35
97.1628	2073.25
97.7237	2069.15
98.2879	2065.04
98.8553	2060.92
99.426	2056.8
100	2052.67
100.577	2048.53
101.158	2044.39
101.742	2040.24
102.329	2036.09
102.92	2031.93
103.514	2027.77
104.112	2023.6
104.713	2019.42
105.317	2015.24
105.925	2011.05
106.537	2006.85
107.152	2002.65
107.771	1998.44
108.393	1994.23
109.018	1990.01
109.648	1985.79
110.281	1981.56
110.917	1977.33
111.558	1973.09
112.202	1968.85
112.85	1964.6
113.501	1960.35
114.156	1956.1
114.815	1951.84
115.478	1947.57
116.145	1943.3
116.815	1939.03
117.49	1934.75
118.168	1930.47
118.85	1926.18
119.536	1921.89
120.226	1917.59
120.921	1913.29
121.619	1908.99
122.321	1904.68
123.027	1900.37
123.737	1896.06
124.451	1891.74
125.17	1887.42
125.893	1883.09
126.619	1878.77
127.35	1874.43
128.086	1870.1
128.825	1865.76
129.569	1861.42
130.317	1857.07
131.069	1852.72
131.826	1848.37
132.587	1844.01
133.352	1839.66
134.122	1835.29
134.896	1830.93
135.675	1826.56
136.458	1822.19
137.246	1817.81
138.038	1813.44
138.835	1809.06
139.637	1804.67
140.443	1800.29
141.254	1795.92
142.069	1791.54
142.889	1787.16
143.714	1782.77
144.544	1778.38
145.378	1773.99
146.218	1769.6
147.062	1765.21
147.911	1760.81
148.765	1756.41
149.624	1752.01
150.487	1747.61
151.356	1743.21
152.23	1738.8
153.109	1734.4
153.993	1729.99
154.882	1725.58
155.776	1721.17
156.675	1716.76
157.58	1712.35
158.489	1707.94
159.404	1703.52
160.325	1699.11
161.25	1694.69
162.181	1690.28
163.117	1685.86
164.059	1681.45
165.006	1677.03
165.959	1672.61
166.917	1668.2
167.88	1663.78
168.85	1659.37
169.824	1654.95
170.805	1650.54
171.791	1646.12
172.783	1641.71
173.78	1637.29
174.783	1632.88
175.792	1628.47
176.807	1624.05
177.828	1619.63
178.855	1615.22
179.887	1610.8
180.926	1606.39
181.97	1601.98
183.021	1597.57
184.077	1593.16
185.14	1588.76
186.209	1584.35
187.284	1579.95
188.365	1575.54
189.452	1571.14
190.546	1566.74
191.646	1562.35
192.752	1557.95
193.865	1553.56
194.984	1549.17
196.11	1544.78
197.242	1540.4
198.381	1536.01
199.526	1531.63
200.678	1527.25
201.837	1522.87
203.002	1518.5
204.174	1514.13
205.353	1509.76
206.538	1505.39
207.73	1501.03
208.93	1496.66
210.136	1492.3
211.349	1487.95
212.569	1483.59
213.796	1479.24
215.03	1474.89
216.272	1470.54
217.52	1466.2
218.776	1461.85
220.039	1457.52
221.309	1453.18
222.587	1448.85
223.872	1444.52
225.165	1440.19
226.464	1435.87
227.772	1431.55
229.087	1427.23
230.409	1422.92
231.739	1418.61
233.077	1414.3
234.423	1410
235.776	1405.7
237.137	1401.4
238.506	1397.11
239.883	1392.82
241.268	1388.53
242.661	1384.25
244.062	1379.96
245.471	1375.69
246.888	1371.41
248.313	1367.14
249.747	1362.88
251.189	1358.61
252.639	1354.35
254.097	1350.1
255.564	1345.84
257.04	1341.6
258.523	1337.35
260.016	1333.11
261.517	1328.88
263.027	1324.65
264.545	1320.42
266.073	1316.2
267.609	1311.99
269.153	1307.77
270.707	1303.57
272.27	1299.37
273.842	1295.17
275.423	1290.98
277.013	1286.79
278.612	1282.61
280.221	1278.44
281.838	1274.27
283.465	1270.11
285.102	1265.95
286.748	1261.8
288.403	1257.65
290.068	1253.51
291.743	1249.38
293.427	1245.25
295.121	1241.13
296.825	1237.01
298.538	1232.9
300.262	1228.8
301.995	1224.7
303.739	1220.6
305.492	1216.52
307.256	1212.44
309.03	1208.36
310.814	1204.29
312.608	1200.23
314.413	1196.17
316.228	1192.11
318.053	1188.07
319.89	1184.03
321.736	1179.99
323.594	1175.96
325.462	1171.93
327.341	1167.92
329.23	1163.9
331.131	1159.9
333.043	1155.9
334.965	1151.9
336.899	1147.91
338.844	1143.93
340.8	1139.95
342.768	1135.98
344.747	1132.02
346.737	1128.06
348.739	1124.11
350.752	1120.16
352.777	1116.21
354.813	1112.27
356.862	1108.34
358.922	1104.41
360.994	1100.49
363.078	1096.57
365.174	1092.67
367.282	1088.77
369.403	1084.87
371.535	1080.99
373.68	1077.11
375.837	1073.24
378.007	1069.37
380.189	1065.52
382.384	1061.67
384.592	1057.83
386.812	1054
389.045	1050.17
391.291	1046.36
393.55	1042.55
395.822	1038.75
398.107	1034.96
400.405	1031.18
402.717	1027.41
405.042	1023.65
407.38	1019.9
409.732	1016.15
412.098	1012.42
414.477	1008.69
416.869	1004.97
419.276	1001.27
421.697	997.569
424.131	993.881
426.58	990.202
429.042	986.533
431.519	982.874
434.01	979.224
436.516	975.584
439.036	971.953
441.57	968.332
444.12	964.721
446.684	961.119
449.262	957.527
451.856	953.944
454.465	950.371
457.088	946.808
459.727	943.254
462.381	939.709
465.05	936.173
467.735	932.647
470.435	929.129
473.151	925.621
475.883	922.121
478.63	918.63
481.393	915.147
484.172	911.673
486.968	908.207
489.779	904.749
492.606	901.299
495.45	897.856
498.31	894.421
501.187	890.993
504.081	887.571
506.991	884.156
509.918	880.748
512.861	877.345
515.822	873.948
518.8	870.556
521.795	867.169
524.807	863.787
527.837	860.472
530.884	857.167
533.949	853.866
537.032	850.57
540.132	847.279
543.25	843.994
546.387	840.714
549.541	837.439
552.713	834.17
555.904	830.907
559.114	827.65
562.341	824.399
565.588	821.155
568.853	817.917
572.137	814.685
575.44	811.461
578.762	808.243
582.103	805.032
585.464	801.829
588.844	798.632
592.243	795.444
595.662	792.262
599.101	789.089
602.56	785.923
606.038	782.765
609.537	779.616
613.056	776.475
616.595	773.342
620.155	770.217
623.735	767.102
627.336	763.995
630.957	760.896
634.6	757.807
638.263	754.727
641.948	751.656
645.654	748.594
649.382	745.542
653.131	742.499
656.901	739.466
660.693	736.443
664.508	733.429
668.344	730.425
672.202	727.431
676.083	724.447
679.986	721.472
683.912	718.509
687.86	715.555
691.831	712.611
695.825	709.678
699.842	706.755
703.882	703.829
707.946	700.912
712.033	698.006
716.143	695.111
720.278	692.225
724.436	689.351
728.618	686.487
732.825	683.634
737.055	680.791
741.31	677.96
745.59	675.139
749.894	672.329
754.223	669.529
758.578	666.741
762.957	663.963
767.361	661.196
771.792	658.44
776.247	655.695
780.728	652.96
785.236	650.236
789.769	647.523
794.328	644.82
798.914	642.128
803.526	639.446
808.165	636.774
812.831	634.113
817.523	631.462
822.243	628.821
826.99	626.19
831.764	623.569
836.566	620.958
841.395	618.355
846.253	615.763
851.138	613.179
856.052	610.604
860.994	608.038
865.964	605.48
870.964	602.931
875.992	600.389
881.049	597.855
886.135	595.328
891.251	592.809
896.396	590.299
901.571	587.796
906.776	585.302
912.011	582.816
917.276	580.338
922.571	577.869
927.897	575.408
933.254	572.955
938.642	570.511
944.061	568.076
949.511	565.649
954.993	563.231
960.506	560.821
966.051	558.421
971.628	556.029
977.237	553.646
982.879	551.271
988.553	548.906
994.26	546.549
1000	544.201
1005.77	541.862
1011.58	539.531
1017.42	537.209
1023.29	534.896
1029.2	532.592
1035.14	530.296
1041.12	528.009
1047.13	525.73
1053.17	523.457
1059.25	521.191
1065.37	518.933
1071.52	516.684
1077.71	514.444
1083.93	512.212
1090.18	509.989
1096.48	507.775
1102.81	505.57
1109.17	503.374
1115.58	501.187
1122.02	499.009
1128.5	496.84
1135.01	494.68
1141.56	492.529
1148.15	490.388
1154.78	488.256
1161.45	486.133
1168.15	484.02
1174.9	481.916
1181.68	479.821
1188.5	477.735
1195.36	475.659
1202.26	473.592
1209.21	471.535
1216.19	469.487
1223.21	467.448
1230.27	465.418
1237.37	463.397
1244.51	461.386
1251.7	459.383
1258.93	457.39
1266.19	455.405
1273.5	453.429
1280.86	451.462
1288.25	449.504
1295.69	447.554
1303.17	445.613
1310.69	443.68
1318.26	441.754
1325.87	439.837
1333.52	437.928
1341.22	436.027
1348.96	434.133
1356.75	432.246
1364.58	430.366
1372.46	428.494
1380.38	426.628
1388.35	424.768
1396.37	422.914
1404.43	421.075
1412.54	419.248
1420.69	417.427
1428.89	415.612
1437.14	413.804
1445.44	412.001
1453.78	410.205
1462.18	408.415
1470.62	406.632
1479.11	404.855
1487.65	403.085
1496.24	401.321
1504.87	399.564
1513.56	397.814
1522.3	396.07
1531.09	394.334
1539.93	392.604
1548.82	390.882
1557.76	389.166
1566.75	387.458
1575.8	385.756
1584.89	384.062
1594.04	382.375
1603.25	380.695
1612.5	379.023
1621.81	377.358
1631.17	375.7
1640.59	374.049
1650.06	372.406
1659.59	370.77
1669.17	369.141
1678.8	367.519
1688.5	365.905
1698.24	364.299
1708.05	362.699
1717.91	361.107
1727.83	359.522
1737.8	357.945
1747.83	356.374
1757.92	354.808
1768.07	353.249
1778.28	351.696
1788.55	350.151
1798.87	348.613
1809.26	347.082
1819.7	345.558
1830.21	344.042
1840.77	342.533
1851.4	341.031
1862.09	339.537
1872.84	338.049
1883.65	336.569
1894.52	335.096
1905.46	333.63
1916.46	332.172
1927.52	330.72
1938.65	329.276
1949.84	327.838
1961.1	326.407
1972.42	324.984
1983.81	323.567
1995.26	322.157
2006.78	320.753
2018.37	319.357
2030.02	317.966
2041.74	316.582
2053.53	315.205
2065.38	313.833
2077.3	312.468
2089.3	311.108
2101.36	309.754
2113.49	308.406
2125.69	307.064
2137.96	305.727
2150.3	304.396
2162.72	303.07
2175.2	301.751
2187.76	300.437
2200.39	299.129
2213.09	297.827
2225.87	296.531
2238.72	295.241
2251.65	293.956
2264.64	292.678
2277.72	291.406
2290.87	290.139
2304.09	288.879
2317.39	287.624
2330.77	286.375
2344.23	285.132
2357.76	283.895
2371.37	282.664
2385.06	281.439
2398.83	280.219
2412.68	279.006
2426.61	277.797
2440.62	276.595
2454.71	275.398
2468.88	274.207
2483.13	273.021
2497.47	271.841
2511.89	270.667
2526.39	269.498
2540.97	268.334
2555.64	267.177
2570.4	266.024
2585.23	264.878
2600.16	263.737
2615.17	262.601
2630.27	261.471
2645.45	260.347
2660.73	259.228
2676.09	258.114
2691.53	257.006
2707.07	255.903
2722.7	254.805
2738.42	253.713
2754.23	252.625
2770.13	251.543
2786.12	250.466
2802.21	249.393
2818.38	248.326
2834.65	247.263
2851.02	246.206
2867.48	245.153
2884.03	244.105
2900.68	243.062
2917.43	242.024
2934.27	240.991
2951.21	239.964
2968.25	238.941
2985.38	237.923
3002.62	236.91
3019.95	235.902
3037.39	234.899
3054.92	233.901
3072.56	232.908
3090.3	231.919
3108.14	230.936
3126.08	229.958
3144.13	228.984
3162.28	228.016
3180.53	227.052
3198.9	226.093
3217.36	225.138
3235.94	224.188
3254.62	223.243
3273.41	222.303
3292.3	221.367
3311.31	220.436
3330.43	219.509
3349.65	218.586
3368.99	217.668
3388.44	216.707
3408	215.73
3427.68	214.757
3447.47	213.79
3467.37	212.826
3487.39	211.868
3507.52	210.913
3527.77	209.96
3548.13	209.013
3568.62	208.069
3589.22	207.13
3609.94	206.196
3630.78	205.266
3651.74	204.34
3672.82	203.419
3694.03	202.503
3715.35	201.591
3736.8	200.684
3758.37	199.781
3780.07	198.883
3801.89	197.99
3823.84	197.102
3845.92	196.219
3868.12	195.34
3890.45	194.466
3912.91	193.597
3935.5	192.733
3958.22	191.874
3981.07	191.019
4004.05	190.17
4027.17	189.325
4050.42	188.486
4073.8	187.651
4097.32	186.822
4120.98	185.997
4144.77	185.177
4168.69	184.363
4192.76	183.553
4216.97	182.748
4241.31	181.949
4265.8	181.154
4290.42	180.364
4315.19	179.579
4340.1	178.799
4365.16	178.024
4390.36	177.254
4415.7	176.488
4441.2	175.728
4466.84	174.972
4492.62	174.221
4518.56	173.475
4544.65	172.733
4570.88	171.996
4597.27	171.263
4623.81	170.535
4650.5	169.812
4677.35	169.093
4704.35	168.378
4731.51	167.667
4758.83	166.961
4786.3	166.258
4813.93	165.56
4841.72	164.866
4869.68	164.175
4897.79	163.488
4926.06	162.805
4954.5	162.125
4983.1	161.449
5011.87	160.776
5040.81	160.106
5069.91	159.439
5099.18	158.775
5128.61	158.113
5158.22	157.454
5188	156.798
5217.95	156.143
5248.07	155.491
5278.37	154.86
5308.84	154.231
5339.49	153.605
5370.32	152.98
5401.32	152.358
5432.5	151.738
5463.87	151.12
5495.41	150.504
5527.13	149.89
5559.04	149.279
5591.14	148.67
5623.41	148.063
5655.88	147.459
5688.53	146.856
5721.37	146.257
5754.4	145.659
5787.62	145.065
5821.03	144.472
5854.64	143.882
5888.44	143.295
5922.43	142.71
5956.62	142.128
5991.01	141.548
6025.6	140.972
6060.38	140.397
6095.37	139.826
6130.56	139.257
6165.95	138.691
6201.55	138.127
6237.35	137.567
6273.36	137.009
6309.57	136.454
6346	135.902
6382.63	135.353
6419.48	134.807
6456.54	134.263
6493.82	133.723
6531.31	133.185
6569.01	132.651
6606.93	132.119
6645.08	131.591
6683.44	131.065
6722.02	130.542
6760.83	130.023
6799.86	129.506
6839.12	128.993
6878.6	128.483
6918.31	127.975
6958.25	127.471
6998.42	126.97
7038.82	126.469
7079.46	125.971
7120.33	125.476
7161.43	124.984
7202.78	124.495
7244.36	124.009
7286.18	123.526
7328.25	123.046
7370.55	122.57
7413.1	122.096
7455.9	121.626
7498.94	121.158
7542.23	120.694
7585.78	120.233
7629.57	119.774
7673.61	119.319
7717.92	118.867
7762.47	118.417
7807.28	117.971
7852.36	117.527
7897.69	117.087
7943.28	116.649
7989.14	116.214
8035.26	115.782
8081.65	115.353
8128.31	114.926
8175.23	114.502
8222.43	114.081
8269.9	113.662
8317.64	113.246
8365.66	112.833
8413.95	112.422
8462.53	112.013
8511.38	111.606
8560.52	111.202
8609.94	110.8
8659.64	110.4
8709.64	110.002
8759.92	109.606
8810.49	109.212
8861.35	108.82
8912.51	108.429
8963.96	108.041
9015.71	107.654
9067.76	107.27
9120.11	106.887
9172.76	106.507
9225.71	106.128
9278.97	105.751
9332.54	105.376
9386.42	105.004
9440.61	104.633
9495.11	104.264
9549.93	103.897
9605.06	103.533
9660.51	103.17
9716.28	102.809
9772.37	102.45
9828.79	102.093
9885.53	101.738
9942.6	101.386
10000	101.035
10057.7	100.686
10115.8	100.339
10174.2	99.9936
10232.9	99.6505
10292	99.3093
10351.4	98.97
10411.2	98.6325
10471.3	98.2969
10531.7	97.9628
10592.5	97.6301
10653.7	97.2993
10715.2	96.9703
10777.1	96.6432
10839.3	96.318
10901.8	95.9946
10964.8	95.6732
11028.1	95.3536
11091.7	95.0359
11155.8	94.7202
11220.2	94.4064
11285	94.0945
11350.1	93.7845
11415.6	93.4765
11481.5	93.1704
11547.8	92.8662
11614.5	92.5639
11681.5	92.2636
11749	91.9652
11816.8	91.6687
11885	91.3742
11953.6	91.0816
12022.6	90.7908
12092.1	90.502
12161.9	90.2151
12232.1	89.9301
12302.7	89.6469
12373.7	89.3656
12445.1	89.0861
12517	88.8084
12589.3	88.5326
12661.9	88.2586
12735	87.9863
12808.6	87.7158
12882.5	87.447
12956.9	87.1799
13031.7	86.9145
13106.9	86.6507
13182.6	86.3885
13258.7	86.1279
13335.2	85.8689
13412.2	85.6113
13489.6	85.3553
13567.5	85.1006
13645.8	84.8474
13724.6	84.5955
13803.8	84.3448
13883.5	84.0955
13963.7	83.8473
14044.3	83.6016
14125.4	83.3581
14206.9	83.1158
14288.9	82.8746
14371.4	82.6346
14454.4	82.3958
14537.8	82.1582
14621.8	81.9217
14706.2	81.6865
14791.1	81.4525
14876.5	81.2197
14962.4	80.9881
15048.7	80.7578
15135.6	80.5287
15223	80.3009
15310.9	80.0743
15399.3	79.8491
15488.2	79.6251
15577.6	79.4023
15667.5	79.1809
15758	78.9608
15848.9	78.742
15940.4	78.5245
16032.5	78.3083
16125	78.0934
16218.1	77.8798
16311.7	77.6676
16405.9	77.4566
16500.6	77.247
16595.9	77.0387
16691.7	76.8317
16788	76.6261
16885	76.4217
16982.4	76.2187
17080.5	76.017
17179.1	75.8166
17278.3	75.6174
17378	75.4196
17478.3	75.2231
17579.2	75.0274
17680.7	74.8329
17782.8	74.6396
17885.5	74.4476
17988.7	74.257
18092.6	74.0675
18197	73.8794
18302.1	73.6926
18407.7	73.507
18514	73.3227
18620.9	73.1396
18728.4	72.9578
18836.5	72.7773
18945.2	72.5981
19054.6	72.42
19164.6	72.2433
19275.2	72.0677
19386.5	71.8934
19498.4	71.7203
19611	71.5484
19724.2	71.3776
19838.1	71.2081
19952.6	71.0397
20067.8	70.8725
20183.7	70.7063
20300.2	70.5413
20417.4	70.3774
20535.3	70.2145
20653.8	70.0527
20773	69.892
20893	69.7322
21013.6	69.5734
21134.9	69.4155
21256.9	69.2586
21379.6	69.1026
21503	68.9476
21627.2	68.7936
21752	68.6405
21877.6	68.4884
22003.9	68.3373
22130.9	68.1872
22258.7	68.038
22387.2	67.8898
22516.5	67.7426
22646.4	67.5963
22777.2	67.4511
22908.7	67.3068
23040.9	67.1635
23173.9	67.0211
23307.7	66.8797
23442.3	66.7393
23577.6	66.5998
23713.7	66.4613
23850.6	66.3237
23988.3	66.1871
24126.8	66.0514
24266.1	65.9166
24406.2	65.7828
24547.1	65.6498
24688.8	65.5177
24831.3	65.3866
24974.7	65.2563
25118.9	65.1269
25263.9	64.9985
25409.7	64.8709
25556.4	64.7443
25704	64.6185
25852.3	64.4937
26001.6	64.3697
26151.7	64.2466
26302.7	64.1245
26454.5	64.0032
26607.3	63.8828
26760.9	63.7633
26915.3	63.6447
27070.7	63.5269
27227	63.41
27384.2	63.294
27542.3	63.1788
27701.3	63.0644
27861.2	62.9509
28022.1	62.8382
28183.8	62.7263
28346.5	62.6152
28510.2	62.5049
28674.8	62.3955
28840.3	62.2868
29006.8	62.1789
29174.3	62.0719
29342.7	61.9656
29512.1	61.8602
29682.5	61.7555
29853.8	61.6517
30026.2	61.5486
30199.5	61.4463
30373.9	61.3447
30549.2	61.244
30725.6	61.144
30903	61.0447
31081.4	60.9462
31260.8	60.8484
31441.3	60.7514
31622.8	60.655
31805.3	60.5594
31989	60.4644
32173.6	60.3702
32359.4	60.2766
32546.2	60.1836
32734.1	60.0913
32923	59.9996
33113.1	59.9085
33304.3	59.8179
33496.5	59.728
33689.9	59.6385
33884.4	59.5496
34080	59.4612
34276.8	59.3733
34474.7	59.2858
34673.7	59.1987
34873.9	59.112
35075.2	59.0237
35277.7	58.9327
35481.3	58.8423
35686.2	58.7525
35892.2	58.6635
36099.4	58.575
36307.8	58.4873
36517.4	58.4002
36728.2	58.3138
36940.3	58.228
37153.5	58.1428
37368	58.0583
37583.7	57.9744
37800.7	57.8912
38018.9	57.8086
38238.4	57.7266
38459.2	57.6452
38681.2	57.5645
38904.5	57.4843
39129.1	57.4048
39355	57.3259
39582.2	57.2476
39810.7	57.1699
40040.5	57.0928
40271.7	57.0162
40504.2	56.9403
40738	56.865
40973.2	56.7902
41209.8	56.716
41447.7	56.6425
41686.9	56.5694
41927.6	56.497
42169.7	56.4251
42413.1	56.3538
42658	56.283
42904.2	56.2128
43151.9	56.1432
43401	56.0741
43651.6	56.0055
43903.6	55.9375
44157	55.8701
44412	55.8032
44668.4	55.7368
44926.2	55.6709
45185.6	55.6056
45446.5	55.5408
45708.8	55.4765
45972.7	55.4128
46238.1	55.3495
46505	55.2868
46773.5	55.2246
47043.5	55.1629
47315.1	55.1017
47588.3	55.041
47863	54.9808
48139.3	54.9211
48417.2	54.8619
48696.8	54.8032
48977.9	54.745
49260.6	54.6872
49545	54.6299
49831	54.5732
50118.7	54.5169
50408.1	54.461
50699.1	54.4056
50991.8	54.3507
51286.1	54.2963
51582.2	54.2423
51880	54.1888
52179.5	54.1358
52480.7	54.0832
52783.7	54.031
53088.4	53.9793
53394.9	53.928
53703.2	53.8772
54013.2	53.8268
54325	53.7769
54638.7	53.7274
54954.1	53.6783
55271.3	53.6297
55590.4	53.5814
55911.4	53.5336
56234.1	53.4863
56558.8	53.4393
56885.3	53.3928
57213.7	53.3466
57544	53.3009
57876.2	53.2556
58210.3	53.2107
58546.4	53.1662
58884.4	53.1221
59224.3	53.0784
59566.2	53.0351
59910.1	52.9922
60256	52.9497
60603.8	52.9075
60953.7	52.8658
61305.6	52.8244
61659.5	52.7834
62015.5	52.7428
62373.5	52.7026
62733.6	52.6627
63095.7	52.6232
63460	52.5841
63826.3	52.5454
64194.8	52.507
64565.4	52.4689
64938.2	52.4313
65313.1	52.394
65690.1	52.357
66069.3	52.3204
66450.8	52.2842
66834.4	52.2482
67220.2	52.2127
67608.3	52.1775
67998.6	52.1426
68391.2	52.1081
68786	52.0738
69183.1	52.04
69582.5	52.0064
69984.2	51.9732
70388.2	51.9404
70794.6	51.9078
71203.3	51.8756
71614.3	51.8437
72027.8	51.8121
72443.6	51.7808
72861.8	51.7498
73282.5	51.7192
73705.5	51.6888
74131	51.6588
74559	51.6291
74989.4	51.5997
75422.3	51.5706
75857.8	51.5417
76295.7	51.5132
76736.1	51.485
77179.2	51.4571
77624.7	51.4294
78072.8	51.4021
78523.6	51.375
78976.9	51.3482
79432.8	51.3217
79891.4	51.2955
80352.6	51.2696
80816.5	51.2439
81283.1	51.2185
81752.3	51.1934
82224.3	51.1686
82699	51.144
83176.4	51.1197
83656.6	51.0957
84139.5	51.0719
84625.3	51.0484
85113.8	51.0252
85605.2	51.0022
86099.4	50.9794
86596.4	50.957
87096.4	50.9347
87599.2	50.9128
88104.9	50.891
88613.5	50.8696
89125.1	50.8483
89639.6	50.8273
90157.1	50.8066
90677.6	50.7861
91201.1	50.7658
91727.6	50.7458
92257.1	50.726
92789.7	50.7064
93325.4	50.6871
93864.2	50.668
94406.1	50.6491
94951.1	50.6304
95499.3	50.612
96050.6	50.5938
96605.1	50.5758
97162.8	50.5581
97723.7	50.5405
98287.9	50.5232
98855.3	50.5061
99426	50.4891
100000	50.4725
100577	50.456
101158	50.4397
101742	50.4236
102329	50.4077
102920	50.3921
103514	50.3766
104112	50.3613
104713	50.3463
105317	50.3314
105925	50.3167
106537	50.3022
107152	50.2879
107771	50.2738
108393	50.2599
109018	50.2462
109648	50.2326
110281	50.2193
110917	50.2061
111558	50.1931
112202	50.1803
112850	50.1677
113501	50.1552
114156	50.1429
114815	50.1308
115478	50.1188
116145	50.1071
116815	50.0955
117490	50.084
118168	50.0728
118850	50.0617
119536	50.0507
120226	50.04
120921	50.0293
121619	50.0189
122321	50.0086
123027	49.9984
123737	49.9884
124451	49.9786
125170	49.9689
125893	49.9594
126619	49.95
127350	49.9408
128086	49.9317
128825	49.9228
129569	49.914
130317	49.9053
131069	49.8968
131826	49.8884
132587	49.8802
133352	49.8721
134122	49.8642
134896	49.8564
135675	49.8487
136458	49.8411
137246	49.8337
138038	49.8264
138835	49.8193
139637	49.8122
140443	49.8053
141254	49.7986
142069	49.7919
142889	49.7854
143714	49.779
144544	49.7727
145378	49.7665
146218	49.7605
147062	49.7546
147911	49.7488
148765	49.7431
149624	49.7375
150487	49.732
151356	49.7267
152230	49.7214
153109	49.7163
153993	49.7113
154882	49.7064
155776	49.7016
156675	49.6969
157580	49.6923
158489	49.6878
159404	49.6834
160325	49.6791
161250	49.6749
162181	49.6708
163117	49.6668
164059	49.6629
165006	49.6592
165959	49.6555
166917	49.6518
167880	49.6483
168850	49.6449
169824	49.6416
170805	49.6384
171791	49.6352
172783	49.6322
173780	49.6292
174783	49.6263
175792	49.6235
176807	49.6208
177828	49.6182
178855	49.6156
179887	49.6132
180926	49.6108
181970	49.6085
183021	49.6063
184077	49.6041
185140	49.602
186209	49.6001
187284	49.5981
188365	49.5963
189452	49.5945
190546	49.5929
191646	49.5912
192752	49.5897
193865	49.5882
194984	49.5868
196110	49.5855
197242	49.5842
198381	49.583
199526	49.5819
200678	49.5808
201837	49.5798
203002	49.5789
204174	49.578
205353	49.5772
206538	49.5765
207730	49.5758
208930	49.5752
210136	49.5746
211349	49.5741
212569	49.5736
213796	49.5733
215030	49.5729
216272	49.5726
217520	49.5724
218776	49.5723
220039	49.5722
221309	49.5721
222587	49.5721
223872	49.5721
225165	49.5722
226464	49.5724
227772	49.5726
229087	49.5728
230409	49.5731
231739	49.5735
233077	49.5739
234423	49.5743
235776	49.5748
237137	49.5753
238506	49.5759
239883	49.5765
241268	49.5772
242661	49.5779
244062	49.5786
245471	49.5794
246888	49.5802
248313	49.5811
249747	49.582
251189	49.583
252639	49.584
254097	49.585
255564	49.5861
257040	49.5872
258523	49.5883
260016	49.5895
261517	49.5907
263027	49.5919
264545	49.5932
266073	49.5945
267609	49.5958
269153	49.5972
270707	49.5986
272270	49.6001
273842	49.6015
275423	49.603
277013	49.6046
278612	49.6061
280221	49.6077
281838	49.6093
283465	49.611
285102	49.6126
286748	49.6143
288403	49.6161
290068	49.6178
291743	49.6196
293427	49.6214
295121	49.6232
296825	49.6251
298538	49.6269
300262	49.6288
301995	49.6308
303739	49.6327
305492	49.6347
307256	49.6367
309030	49.6387
310814	49.6407
312608	49.6427
314413	49.6448
316228	49.6469
318053	49.649
319890	49.6511
321736	49.6533
323594	49.6554
325462	49.6576
327341	49.6598
329230	49.662
331131	49.6642
333043	49.6665
334965	49.6687
336899	49.671
338844	49.6733
340800	49.6756
342768	49.6779
344747	49.6802
346737	49.6825
348739	49.6849
350752	49.6873
352777	49.6896
354813	49.692
356862	49.6944
358922	49.6968
360994	49.6992
363078	49.7017
365174	49.7041
367282	49.7066
369403	49.709
371535	49.7115
373680	49.714
375837	49.7165
378007	49.719
380189	49.7215
382384	49.724
384592	49.7265
386812	49.729
389045	49.7315
391291	49.7341
393550	49.7366
395822	49.7392
398107	49.7417
400405	49.7443
402717	49.7468
405042	49.7494
407380	49.752
409732	49.7546
412098	49.7571
414477	49.7597
416869	49.7623
419276	49.7649
421697	49.7675
424131	49.7701
426580	49.7727
429042	49.7753
431519	49.7779
434010	49.7805
436516	49.7831
439036	49.7857
441570	49.7883
444120	49.7909
446684	49.7935
449262	49.7961
451856	49.7987
454465	49.8013
457088	49.8039
459727	49.8066
462381	49.8092
465050	49.8118
467735	49.8144
470435	49.817
473151	49.8196
475883	49.8222
478630	49.8248
481393	49.8274
484172	49.8299
486968	49.8325
489779	49.8351
492606	49.8377
495450	49.8403
498310	49.8429
501187	49.8454
504081	49.848
506991	49.8506
509918	49.8531
512861	49.8557
515822	49.8582
518800	49.8608
521795	49.8633
524807	49.8659
527837	49.8684
530884	49.8709
533949	49.8735
537032	49.876
540132	49.8785
543250	49.881
546387	49.8835
549541	49.886
552713	49.8885
555904	49.891
559114	49.8934
562341	49.8959
565588	49.8984
568853	49.9008
572137	49.9033
575440	49.9057
578762	49.9082
582103	49.9106
585464	49.913
588844	49.9154
592243	49.9178
595662	49.9202
599101	49.9226
602560	49.925
606038	49.9274
609537	49.9297
613056	49.9321
616595	49.9344
620155	49.9368
623735	49.9391
627336	49.9414
630957	49.9438
634600	49.9461
638263	49.9484
641948	49.9506
645654	49.9529
649382	49.9552
653131	49.9575
656901	49.9597
660693	49.9619
664508	49.9642
668344	49.9664
672202	49.9686
676083	49.9708
679986	49.973
683912	49.9752
687860	49.9774
691831	49.9795
695825	49.9817
699842	49.9838
703882	49.9859
707946	49.9881
712033	49.9902
716143	49.9923
720278	49.9944
724436	49.9964
728618	49.9985
732825	50.0006
737055	50.0026
741310	50.0047
745590	50.0067
749894	50.0087
754223	50.0107
758578	50.0127
762957	50.0147
767361	50.0166
771792	50.0186
776247	50.0205
780728	50.0225
785236	50.0244
789769	50.0263
794328	50.0282
798914	50.0301
803526	50.032
808165	50.0339
812831	50.0357
817523	50.0376
822243	50.0394
826990	50.0412
831764	50.043
836566	50.0448
841395	50.0466
846253	50.0484
851138	50.0502
856052	50.0519
860994	50.0537
865964	50.0554
870964	50.0571
875992	50.0588
881049	50.0605
886135	50.0622
891251	50.0639
896396	50.0655
901571	50.0672
906776	50.0688
912011	50.0704
917276	50.072
922571	50.0736
927897	50.0752
933254	50.0768
938642	50.0784
944061	50.0799
949511	50.0814
954993	50.083
960506	50.0845
966051	50.086
971628	50.0875
977237	50.089
982879	50.0904
988553	50.0919
994260	50.0933
1e+06	50.0948
1.00577e+06	50.0962
1.01158e+06	50.0976
1.01742e+06	50.099
1.02329e+06	50.1004
1.0292e+06	50.1017
1.03514e+06	50.1031
1.04112e+06	50.1045
1.04713e+06	50.1058
1.05317e+06	50.1071
1.05925e+06	50.1084
1.06537e+06	50.1097
1.07152e+06	50.111
1.07771e+06	50.1123
1.08393e+06	50.1136
1.09018e+06	50.1148
1.09648e+06	50.1161
1.10281e+06	50.1173
1.10917e+06	50.1185
1.11558e+06	50.1197
1.12202e+06	50.1209
1.1285e+06	50.1221
1.13501e+06	50.1233
1.14156e+06	50.1244
1.14815e+06	50.1256
1.15478e+06	50.1267
1.16145e+06	50.1278
1.16815e+06	50.129
1.1749e+06	50.1301
1.18168e+06	50.1311
1.1885e+06	50.1322
1.19536e+06	50.1333
1.20226e+06	50.1344
1.20921e+06	50.1354
1.21619e+06	50.1364
1.22321e+06	50.1375
1.23027e+06	50.1385
1.23737e+06	50.1395
1.24451e+06	50.1405
1.2517e+06	50.1414
1.25893e+06	50.1424
1.26619e+06	50.1434
1.2735e+06	50.1443
1.28086e+06	50.1452
1.28825e+06	50.1462
1.29569e+06	50.1471
1.30317e+06	50.148
1.31069e+06	50.1489
1.31826e+06	50.1497
1.32587e+06	50.1506
1.33352e+06	50.1515
1.34122e+06	50.1523
1.34896e+06	50.1531
1.35675e+06	50.154
1.36458e+06	50.1548
1.37246e+06	50.1556
1.38038e+06	50.1564
1.38835e+06	50.1572
1.39637e+06	50.1579
1.40443e+06	50.1587
1.41254e+06	50.1595
1.42069e+06	50.1602
1.42889e+06	50.1609
1.43714e+06	50.1617
1.44544e+06	50.1624
1.45378e+06	50.1631
1.46218e+06	50.1638
1.47062e+06	50.1644
1.47911e+06	50.1651
1.48765e+06	50.1658
1.49624e+06	50.1664
1.50487e+06	50.1671
1.51356e+06	50.1677
1.5223e+06	50.1683
1.53109e+06	50.1689
1.53993e+06	50.1695
1.54882e+06	50.1701
1.55776e+06	50.1707
1.56675e+06	50.1713
1.5758e+06	50.1718
1.58489e+06	50.1724
1.59404e+06	50.1729
1.60325e+06	50.1735
1.6125e+06	50.174
1.62181e+06	50.1745
1.63117e+06	50.175
1.64059e+06	50.1755
1.65006e+06	50.176
1.65959e+06	50.1765
1.66917e+06	50.177
1.6788e+06	50.1774
1.6885e+06	50.1779
1.69824e+06	50.1784
1.70805e+06	50.1788
1.71791e+06	50.1792
1.72783e+06	50.1796
1.7378e+06	50.1801
1.74783e+06	50.1805
1.75792e+06	50.1809
1.76807e+06	50.1812
1.77828e+06	50.1816
1.78855e+06	50.182
1.79887e+06	50.1824
1.80926e+06	50.1827
1.8197e+06	50.1831
1.83021e+06	50.1834
1.84077e+06	50.1837
1.8514e+06	50.1841
1.86209e+06	50.1844
1.87284e+06	50.1847
1.88365e+06	50.185
1.89452e+06	50.1853
1.90546e+06	50.1856
1.91646e+06	50.1858
1.92752e+06	50.1861
1.93865e+06	50.1864
1.94984e+06	50.1866
1.9611e+06	50.1869
1.97242e+06	50.1871
1.98381e+06	50.1874
1.99526e+06	50.1876
2.00678e+06	50.1878
2.01837e+06	50.188
2.03002e+06	50.1882
2.04174e+06	50.1884
2.05353e+06	50.1886
2.06538e+06	50.1888
2.0773e+06	50.189
2.0893e+06	50.1892
2.10136e+06	50.1893
2.11349e+06	50.1895
2.12569e+06	50.1897
2.13796e+06	50.1898
2.1503e+06	50.19
2.16272e+06	50.1901
2.1752e+06	50.1902
2.18776e+06	50.1904
2.20039e+06	50.1905
2.21309e+06	50.1906
2.22587e+06	50.1907
2.23872e+06	50.1908
2.25165e+06	50.1909
2.26464e+06	50.191
2.27772e+06	50.1911
2.29087e+06	50.1912
2.30409e+06	50.1912
2.31739e+06	50.1913
2.33077e+06	50.1914
2.34423e+06	50.1915
2.35776e+06	50.1915
2.37137e+06	50.1916
2.38506e+06	50.1916
2.39883e+06	50.1917
2.41268e+06	50.1917
2.42661e+06	50.1917
2.44062e+06	50.1918
2.45471e+06	50.1918
2.46888e+06	50.1918
2.48313e+06	50.1918
2.49747e+06	50.1918
2.51189e+06	50.1919
2.52639e+06	50.1919
2.54097e+06	50.1919
2.55564e+06	50.1919
2.5704e+06	50.1918
2.58523e+06	50.1918
2.60016e+06	50.1918
2.61517e+06	50.1918
2.63027e+06	50.1918
2.64545e+06	50.1918
2.66073e+06	50.1917
2.67609e+06	50.1917
2.69153e+06	50.1917
2.70707e+06	50.1916
2.7227e+06	50.1916
2.73842e+06	50.1916
2.75423e+06	50.1915
2.77013e+06	50.1915
2.78612e+06	50.1914
2.80221e+06	50.1914
2.81838e+06	50.1913
2.83465e+06	50.1913
2.85102e+06	50.1912
2.86748e+06	50.1911
2.88403e+06	50.1911
2.90068e+06	50.191
2.91743e+06	50.1909
2.93427e+06	50.1909
2.95121e+06	50.1908
2.96825e+06	50.1907
2.98538e+06	50.1907
3.00262e+06	50.1906
3.01995e+06	50.1905
3.03739e+06	50.1904
3.05492e+06	50.1903
3.07256e+06	50.1903
3.0903e+06	50.1902
3.10814e+06	50.1901
3.12608e+06	50.19
3.14413e+06	50.1899
3.16228e+06	50.1898
3.18053e+06	50.1897
3.1989e+06	50.1897
3.21736e+06	50.1896
3.23594e+06	50.1895
3.25462e+06	50.1894
3.27341e+06	50.1893
3.2923e+06	50.1892
3.31131e+06	50.1891
3.33043e+06	50.189
3.34965e+06	50.1889
3.36899e+06	50.1888
3.38844e+06	50.1888
3.408e+06	50.1887
3.42768e+06	50.1886
3.44747e+06	50.1885
3.46737e+06	50.1884
3.48739e+06	50.1883
3.50752e+06	50.1882
3.52777e+06	50.1881
3.54813e+06	50.1881
3.56862e+06	50.188
3.58922e+06	50.1879
3.60994e+06	50.1878
3.63078e+06	50.1877
3.65174e+06	50.1876
3.67282e+06	50.1876
3.69403e+06	50.1875
3.71535e+06	50.1874
3.7368e+06	50.1873
3.75837e+06	50.1872
3.78007e+06	50.1872
3.80189e+06	50.1871
3.82384e+06	50.187
3.84592e+06	50.1869
3.86812e+06	50.1869
3.89045e+06	50.1868
3.91291e+06	50.1867
3.9355e+06	50.1866
3.95822e+06	50.1866
3.98107e+06	50.1865
4.00405e+06	50.1864
4.02717e+06	50.1863
4.05042e+06	50.1863
4.0738e+06	50.1862
4.09732e+06	50.1861
4.12098e+06	50.1861
4.14477e+06	50.186
4.16869e+06	50.1859
4.19276e+06	50.1859
4.21697e+06	50.1858
4.24131e+06	50.1857
4.2658e+06	50.1857
4.29042e+06	50.1856
4.31519e+06	50.1855
4.3401e+06	50.1855
4.36516e+06	50.1854
4.39036e+06	50.1854
4.4157e+06	50.1853
4.4412e+06	50.1852
4.46684e+06	50.1852
4.49262e+06	50.1851
4.51856e+06	50.1851
4.54465e+06	50.185
4.57088e+06	50.1849
4.59727e+06	50.1849
4.62381e+06	50.1848
4.6505e+06	50.1848
4.67735e+06	50.1847
4.70435e+06	50.1847
4.73151e+06	50.1846
4.75883e+06	50.1846
4.7863e+06	50.1845
4.81393e+06	50.1844
4.84172e+06	50.1844
4.86968e+06	50.1843
4.89779e+06	50.1843
4.92606e+06	50.1842
4.9545e+06	50.1842
4.9831e+06	50.1841
5.01187e+06	50.1841
5.04081e+06	50.184
5.06991e+06	50.184
5.09918e+06	50.1839
5.12861e+06	50.1839
5.15822e+06	50.1838
5.188e+06	50.1838
5.21795e+06	50.1837
5.24807e+06	50.1837
5.27837e+06	50.1836
5.30884e+06	50.1836
5.33949e+06	50.1835
5.37032e+06	50.1835
5.40132e+06	50.1835
5.4325e+06	50.1834
5.46387e+06	50.1834
5.49541e+06	50.1833
5.52713e+06	50.1833
5.55904e+06	50.1832
5.59114e+06	50.1832
5.62341e+06	50.1831
5.65588e+06	50.1831
5.68853e+06	50.1831
5.72137e+06	50.183
5.7544e+06	50.183
5.78762e+06	50.1829
5.82103e+06	50.1829
5.85464e+06	50.1829
5.88844e+06	50.1828
5.92243e+06	50.1828
5.95662e+06	50.1827
5.99101e+06	50.1827
6.0256e+06	50.1827
6.06038e+06	50.1826
6.09537e+06	50.1826
6.13056e+06	50.1825
6.16595e+06	50.1825
6.20155e+06	50.1825
6.23735e+06	50.1824
6.27336e+06	50.1824
6.30957e+06	50.1824
6.346e+06	50.1823
6.38263e+06	50.1823
6.41948e+06	50.1823
6.45654e+06	50.1822
6.49382e+06	50.1822
6.53131e+06	50.1822
6.56901e+06	50.1821
6.60693e+06	50.1821
6.64508e+06	50.182
6.68344e+06	50.182
6.72202e+06	50.182
6.76083e+06	50.1819
6.79986e+06	50.1819
6.83912e+06	50.1819
6.8786e+06	50.1819
6.91831e+06	50.1818
6.95825e+06	50.1818
6.99842e+06	50.1818
7.03882e+06	50.1817
7.07946e+06	50.1817
7.12033e+06	50.1817
7.16143e+06	50.1816
7.20278e+06	50.1816
7.24436e+06	50.1816
7.28618e+06	50.1815
7.32825e+06	50.1815
7.37055e+06	50.1815
7.4131e+06	50.1815
7.4559e+06	50.1814
7.49894e+06	50.1814
7.54223e+06	50.1814
7.58578e+06	50.1813
7.62957e+06	50.1813
7.67361e+06	50.1813
7.71792e+06	50.1813
7.76247e+06	50.1812
7.80728e+06	50.1812
7.85236e+06	50.1812
7.89769e+06	50.1812
7.94328e+06	50.1811
7.98914e+06	50.1811
8.03526e+06	50.1811
8.08165e+06	50.181
8.12831e+06	50.181
8.17523e+06	50.181
8.22243e+06	50.181
8.2699e+06	50.1809
8.31764e+06	50.1809
8.36566e+06	50.1809
8.41395e+06	50.1809
8.46253e+06	50.1809
8.51138e+06	50.1808
8.56052e+06	50.1808
8.60994e+06	50.1808
8.65964e+06	50.1808
8.70964e+06	50.1807
8.75992e+06	50.1807
8.81049e+06	50.1807
8.86135e+06	50.1807
8.91251e+06	50.1806
8.96396e+06	50.1806
9.01571e+06	50.1806
9.06776e+06	50.1806
9.12011e+06	50.1806
9.17276e+06	50.1805
9.22571e+06	50.1805
9.27897e+06	50.1805
9.33254e+06	50.1805
9.38642e+06	50.1804
9.44061e+06	50.1804
9.49511e+06	50.1804
9.54993e+06	50.1804
9.60506e+06	50.1804
9.66051e+06	50.1803
9.71628e+06	50.1803
9.77237e+06	50.1803
9.82879e+06	50.1803
9.88553e+06	50.1803
9.9426e+06	50.1802
1e+07	50.1802
