Stopping power dEdx from Ionisation for Cl35[0.0] Z = 17 in G4_Si, process name: ionIoni
E [MeV]	dEdx [MeV/mm]
0.001	32.5978
0.00100577	32.6925
0.00101158	32.7875
0.00101742	32.8828
0.00102329	32.9784
0.0010292	33.0742
0.00103514	33.1703
0.00104112	33.2667
0.00104713	33.3634
0.00105317	33.4603
0.00105925	33.5575
0.00106537	33.655
0.00107152	33.7528
0.00107771	33.8509
0.00108393	33.9492
0.00109018	34.0479
0.00109648	34.1468
0.00110281	34.246
0.00110917	34.3455
0.00111558	34.4452
0.00112202	34.5453
0.0011285	34.6457
0.00113501	34.7463
0.00114156	34.8472
0.00114815	34.9484
0.00115478	35.05
0.00116145	35.1518
0.00116815	35.2539
0.0011749	35.3563
0.00118168	35.4589
0.0011885	35.5619
0.00119536	35.6652
0.00120226	35.7688
0.00120921	35.8727
0.00121619	35.9768
0.00122321	36.0813
0.00123027	36.1861
0.00123737	36.2912
0.00124451	36.3966
0.0012517	36.5023
0.00125893	36.6082
0.00126619	36.7145
0.0012735	36.8211
0.00128086	36.9281
0.00128825	37.0353
0.00129569	37.1428
0.00130317	37.2506
0.00131069	37.3588
0.00131826	37.4673
0.00132587	37.576
0.00133352	37.6851
0.00134122	37.7945
0.00134896	37.9042
0.00135675	38.0143
0.00136458	38.1246
0.00137246	38.2353
0.00138038	38.3463
0.00138835	38.4576
0.00139637	38.5692
0.00140443	38.6812
0.00141254	38.7934
0.00142069	38.906
0.00142889	39.0189
0.00143714	39.1322
0.00144544	39.2458
0.00145378	39.3597
0.00146218	39.4739
0.00147062	39.5884
0.00147911	39.7033
0.00148765	39.8185
0.00149624	39.9341
0.00150487	40.05
0.00151356	40.1662
0.0015223	40.2828
0.00153109	40.3996
0.00153993	40.5169
0.00154882	40.6344
0.00155776	40.7523
0.00156675	40.8706
0.0015758	40.9892
0.00158489	41.1081
0.00159404	41.2274
0.00160325	41.347
0.0016125	41.4669
0.00162181	41.5872
0.00163117	41.7079
0.00164059	41.8289
0.00165006	41.9502
0.00165959	42.0719
0.00166917	42.1939
0.0016788	42.3163
0.0016885	42.4391
0.00169824	42.5622
0.00170805	42.6857
0.00171791	42.8095
0.00172783	42.9336
0.0017378	43.0582
0.00174783	43.1831
0.00175792	43.3083
0.00176807	43.4339
0.00177828	43.5599
0.00178855	43.6862
0.00179887	43.8129
0.00180926	43.94
0.0018197	44.0674
0.00183021	44.1952
0.00184077	44.3234
0.0018514	44.4519
0.00186209	44.5808
0.00187284	44.7101
0.00188365	44.8398
0.00189452	44.9698
0.00190546	45.1002
0.00191646	45.2309
0.00192752	45.3621
0.00193865	45.4936
0.00194984	45.6255
0.0019611	45.7578
0.00197242	45.8905
0.00198381	46.0235
0.00199526	46.157
0.00200678	46.2908
0.00201837	46.425
0.00203002	46.5596
0.00204174	46.6946
0.00205353	46.83
0.00206538	46.9657
0.0020773	47.1019
0.0020893	47.2384
0.00210136	47.3753
0.00211349	47.5127
0.00212569	47.6504
0.00213796	47.7885
0.0021503	47.9271
0.00216272	48.066
0.0021752	48.2053
0.00218776	48.345
0.00220039	48.4851
0.00221309	48.6257
0.00222587	48.7666
0.00223872	48.908
0.00225165	49.0497
0.00226464	49.1919
0.00227772	49.3344
0.00229087	49.4774
0.00230409	49.6208
0.00231739	49.7646
0.00233077	49.9088
0.00234423	50.0535
0.00235776	50.1985
0.00237137	50.344
0.00238506	50.4899
0.00239883	50.6362
0.00241268	50.7829
0.00242661	50.9301
0.00244062	51.0776
0.00245471	51.2256
0.00246888	51.3741
0.00248313	51.5229
0.00249747	51.6722
0.00251189	51.8219
0.00252639	51.9721
0.00254097	52.1227
0.00255564	52.2737
0.0025704	52.4251
0.00258523	52.577
0.00260016	52.7293
0.00261517	52.8821
0.00263027	53.0353
0.00264545	53.189
0.00266073	53.3431
0.00267609	53.4976
0.00269153	53.6526
0.00270707	53.808
0.0027227	53.9639
0.00273842	54.1202
0.00275423	54.277
0.00277013	54.4342
0.00278612	54.5919
0.00280221	54.75
0.00281838	54.9086
0.00283465	55.0676
0.00285102	55.2271
0.00286748	55.3871
0.00288403	55.5475
0.00290068	55.7084
0.00291743	55.8698
0.00293427	56.0316
0.00295121	56.1939
0.00296825	56.3566
0.00298538	56.5198
0.00300262	56.6835
0.00301995	56.8477
0.00303739	57.0123
0.00305492	57.1774
0.00307256	57.343
0.0030903	57.5091
0.00310814	57.6756
0.00312608	57.8426
0.00314413	58.0101
0.00316228	58.1781
0.00318053	58.3466
0.0031989	58.5156
0.00321736	58.685
0.00323594	58.8549
0.00325462	59.0253
0.00327341	59.1963
0.0032923	59.3677
0.00331131	59.5396
0.00333043	59.712
0.00334965	59.8848
0.00336899	60.0582
0.00338844	60.2321
0.003408	60.4065
0.00342768	60.5814
0.00344747	60.7568
0.00346737	60.9327
0.00348739	61.1091
0.00350752	61.286
0.00352777	61.4635
0.00354813	61.6414
0.00356862	61.8199
0.00358922	61.9988
0.00360994	62.1783
0.00363078	62.3583
0.00365174	62.5388
0.00367282	62.7199
0.00369403	62.9014
0.00371535	63.0835
0.0037368	63.2661
0.00375837	63.4492
0.00378007	63.6329
0.00380189	63.8171
0.00382384	64.0018
0.00384592	64.1871
0.00386812	64.3729
0.00389045	64.5592
0.00391291	64.7461
0.0039355	64.9335
0.00395822	65.1214
0.00398107	65.3099
0.00400405	65.4989
0.00402717	65.6885
0.00405042	65.8786
0.0040738	66.0693
0.00409732	66.2605
0.00412098	66.4522
0.00414477	66.6446
0.00416869	66.8374
0.00419276	67.0309
0.00421697	67.2249
0.00424131	67.4194
0.0042658	67.6145
0.00429042	67.8102
0.00431519	68.0064
0.0043401	68.2032
0.00436516	68.4006
0.00439036	68.5985
0.0044157	68.797
0.0044412	68.9961
0.00446684	69.1957
0.00449262	69.396
0.00451856	69.5968
0.00454465	69.7982
0.00457088	70.0001
0.00459727	70.2027
0.00462381	70.4058
0.0046505	70.6095
0.00467735	70.8138
0.00470435	71.0187
0.00473151	71.2242
0.00475883	71.4303
0.0047863	71.6369
0.00481393	71.8442
0.00484172	72.052
0.00486968	72.2605
0.00489779	72.4696
0.00492606	72.6792
0.0049545	72.8895
0.0049831	73.1004
0.00501187	73.3119
0.00504081	73.5239
0.00506991	73.7366
0.00509918	73.95
0.00512861	74.1639
0.00515822	74.3784
0.005188	74.5936
0.00521795	74.8094
0.00524807	75.0258
0.00527837	75.2428
0.00530884	75.4605
0.00533949	75.6788
0.00537032	75.8977
0.00540132	76.1172
0.0054325	76.3374
0.00546387	76.5582
0.00549541	76.7797
0.00552713	77.0017
0.00555904	77.2245
0.00559114	77.4478
0.00562341	77.6719
0.00565588	77.8965
0.00568853	78.1218
0.00572137	78.3478
0.0057544	78.5744
0.00578762	78.8016
0.00582103	79.0296
0.00585464	79.2581
0.00588844	79.4874
0.00592243	79.7172
0.00595662	79.9478
0.00599101	80.179
0.0060256	80.4109
0.00606038	80.6435
0.00609537	80.8767
0.00613056	81.1106
0.00616595	81.3451
0.00620155	81.5804
0.00623735	81.8163
0.00627336	82.0529
0.00630957	82.2902
0.006346	82.5282
0.00638263	82.7668
0.00641948	83.0062
0.00645654	83.2462
0.00649382	83.4869
0.00653131	83.7284
0.00656901	83.9705
0.00660693	84.2133
0.00664508	84.4568
0.00668344	84.701
0.00672202	84.9459
0.00676083	85.1915
0.00679986	85.4379
0.00683912	85.6849
0.0068786	85.9327
0.00691831	86.1811
0.00695825	86.4303
0.00699842	86.6802
0.00703882	86.9309
0.00707946	87.1822
0.00712033	87.4343
0.00716143	87.6871
0.00720278	87.9406
0.00724436	88.1949
0.00728618	88.4498
0.00732825	88.7056
0.00737055	88.962
0.0074131	89.2192
0.0074559	89.4772
0.00749894	89.7359
0.00754223	89.9953
0.00758578	90.2555
0.00762957	90.5164
0.00767361	90.7781
0.00771792	91.0405
0.00776247	91.3037
0.00780728	91.5677
0.00785236	91.8324
0.00789769	92.0978
0.00794328	92.3641
0.00798914	92.6311
0.00803526	92.8989
0.00808165	93.1674
0.00812831	93.4367
0.00817523	93.7068
0.00822243	93.9777
0.0082699	94.2494
0.00831764	94.5218
0.00836566	94.795
0.00841395	95.069
0.00846253	95.3438
0.00851138	95.6194
0.00856052	95.8958
0.00860994	96.173
0.00865964	96.451
0.00870964	96.7298
0.00875992	97.0094
0.00881049	97.2898
0.00886135	97.571
0.00891251	97.853
0.00896396	98.1358
0.00901571	98.4195
0.00906776	98.7039
0.00912011	98.9892
0.00917276	99.2753
0.00922571	99.5622
0.00927897	99.85
0.00933254	100.139
0.00938642	100.428
0.00944061	100.718
0.00949511	101.009
0.00954993	101.301
0.00960506	101.594
0.00966051	101.888
0.00971628	102.182
0.00977237	102.477
0.00982879	102.774
0.00988553	103.071
0.0099426	103.368
0.01	103.667
0.0100577	103.967
0.0101158	104.267
0.0101742	104.569
0.0102329	104.871
0.010292	105.174
0.0103514	105.478
0.0104112	105.782
0.0104713	106.088
0.0105317	106.395
0.0105925	106.702
0.0106537	107.011
0.0107152	107.32
0.0107771	107.63
0.0108393	108.211
0.0109018	108.523
0.0109648	108.836
0.0110281	109.149
0.0110917	109.464
0.0111558	109.779
0.0112202	110.096
0.011285	110.413
0.0113501	110.731
0.0114156	111.051
0.0114815	111.371
0.0115478	111.692
0.0116145	112.014
0.0116815	112.337
0.011749	112.66
0.0118168	112.985
0.011885	113.311
0.0119536	113.637
0.0120226	113.965
0.0120921	114.293
0.0121619	114.623
0.0122321	114.953
0.0123027	115.285
0.0123737	115.617
0.0124451	115.95
0.012517	116.284
0.0125893	116.619
0.0126619	116.956
0.012735	117.293
0.0128086	117.631
0.0128825	117.97
0.0129569	118.31
0.0130317	118.651
0.0131069	118.993
0.0131826	119.336
0.0132587	119.68
0.0133352	120.025
0.0134122	120.371
0.0134896	120.718
0.0135675	121.066
0.0136458	121.415
0.0137246	121.765
0.0138038	122.116
0.0138835	122.468
0.0139637	122.821
0.0140443	123.175
0.0141254	123.53
0.0142069	123.886
0.0142889	124.243
0.0143714	124.601
0.0144544	124.96
0.0145378	125.32
0.0146218	125.681
0.0147062	126.044
0.0147911	126.407
0.0148765	126.771
0.0149624	127.137
0.0150487	127.503
0.0151356	127.871
0.015223	128.239
0.0153109	128.609
0.0153993	128.98
0.0154882	129.351
0.0155776	129.724
0.0156675	130.098
0.015758	130.473
0.0158489	130.849
0.0159404	131.226
0.0160325	131.605
0.016125	131.984
0.0162181	132.364
0.0163117	132.746
0.0164059	133.129
0.0165006	133.512
0.0165959	133.897
0.0166917	134.283
0.016788	134.67
0.016885	135.058
0.0169824	135.448
0.0170805	135.838
0.0171791	136.229
0.0172783	136.622
0.017378	137.016
0.0174783	137.411
0.0175792	137.807
0.0176807	138.204
0.0177828	138.603
0.0178855	139.002
0.0179887	139.403
0.0180926	139.804
0.018197	140.207
0.0183021	140.612
0.0184077	141.017
0.018514	141.423
0.0186209	141.831
0.0187284	142.24
0.0188365	142.65
0.0189452	143.061
0.0190546	143.473
0.0191646	143.887
0.0192752	144.302
0.0193865	144.718
0.0194984	145.135
0.019611	145.553
0.0197242	145.973
0.0198381	146.393
0.0199526	146.815
0.0200678	147.238
0.0201837	147.663
0.0203002	148.088
0.0204174	148.515
0.0205353	148.943
0.0206538	149.373
0.020773	149.803
0.020893	150.235
0.0210136	150.668
0.0211349	151.102
0.0212569	151.538
0.0213796	151.975
0.021503	152.413
0.0216272	152.852
0.021752	153.293
0.0218776	153.734
0.0220039	154.178
0.0221309	154.622
0.0222587	155.068
0.0223872	155.515
0.0225165	155.963
0.0226464	156.412
0.0227772	156.863
0.0229087	157.315
0.0230409	157.769
0.0231739	158.224
0.0233077	158.68
0.0234423	159.137
0.0235776	159.596
0.0237137	160.056
0.0238506	160.517
0.0239883	160.98
0.0241268	161.444
0.0242661	161.909
0.0244062	162.376
0.0245471	162.844
0.0246888	163.313
0.0248313	163.784
0.0249747	164.256
0.0251189	164.729
0.0252639	165.204
0.0254097	165.68
0.0255564	166.158
0.025704	166.637
0.0258523	167.117
0.0260016	167.599
0.0261517	168.082
0.0263027	168.566
0.0264545	169.052
0.0266073	169.54
0.0267609	170.028
0.0269153	170.518
0.0270707	171.01
0.027227	171.503
0.0273842	171.997
0.0275423	172.493
0.0277013	172.99
0.0278612	173.489
0.0280221	173.989
0.0281838	174.49
0.0283465	174.993
0.0285102	175.498
0.0286748	176.003
0.0288403	176.511
0.0290068	177.02
0.0291743	177.53
0.0293427	178.041
0.0295121	178.555
0.0296825	179.069
0.0298538	179.585
0.0300262	180.103
0.0301995	180.622
0.0303739	181.143
0.0305492	181.665
0.0307256	182.189
0.030903	182.714
0.0310814	183.24
0.0312608	183.769
0.0314413	184.298
0.0316228	184.829
0.0318053	185.362
0.031989	185.896
0.0321736	186.432
0.0323594	186.97
0.0325462	187.509
0.0327341	188.049
0.032923	188.591
0.0331131	189.135
0.0333043	189.68
0.0334965	190.227
0.0336899	190.775
0.0338844	191.325
0.03408	191.876
0.0342768	192.429
0.0344747	192.984
0.0346737	193.54
0.0348739	194.098
0.0350752	194.657
0.0352777	195.219
0.0354813	195.781
0.0356862	196.346
0.0358922	196.912
0.0360994	197.479
0.0363078	198.048
0.0365174	198.619
0.0367282	199.192
0.0369403	199.766
0.0371535	200.342
0.037368	200.919
0.0375837	201.498
0.0378007	202.079
0.0380189	202.661
0.0382384	203.246
0.0384592	203.831
0.0386812	204.419
0.0389045	205.008
0.0391291	205.599
0.039355	206.192
0.0395822	206.786
0.0398107	207.382
0.0400405	207.98
0.0402717	208.579
0.0405042	209.18
0.040738	209.783
0.0409732	210.388
0.0412098	210.995
0.0414477	211.603
0.0416869	212.213
0.0419276	212.824
0.0421697	213.438
0.0424131	214.053
0.042658	214.67
0.0429042	215.289
0.0431519	215.909
0.043401	216.532
0.0436516	217.156
0.0439036	217.782
0.044157	218.409
0.044412	219.039
0.0446684	219.67
0.0449262	220.303
0.0451856	220.938
0.0454465	221.575
0.0457088	222.214
0.0459727	222.854
0.0462381	223.497
0.046505	224.141
0.0467735	224.787
0.0470435	225.435
0.0473151	226.085
0.0475883	226.736
0.047863	227.39
0.0481393	228.045
0.0484172	228.703
0.0486968	229.362
0.0489779	230.023
0.0492606	230.686
0.049545	231.351
0.049831	232.018
0.0501187	232.686
0.0504081	233.357
0.0506991	234.03
0.0509918	234.704
0.0512861	235.381
0.0515822	236.059
0.05188	236.74
0.0521795	237.422
0.0524807	238.106
0.0527837	238.793
0.0530884	239.481
0.0533949	240.171
0.0537032	240.864
0.0540132	241.558
0.054325	242.254
0.0546387	242.952
0.0549541	243.653
0.0552713	244.355
0.0555904	245.059
0.0559114	245.766
0.0562341	246.474
0.0565588	247.184
0.0568853	247.897
0.0572137	248.611
0.057544	249.328
0.0578762	250.047
0.0582103	250.767
0.0585464	251.49
0.0588844	252.215
0.0592243	252.942
0.0595662	253.671
0.0599101	254.402
0.060256	255.136
0.0606038	255.871
0.0609537	256.609
0.0613056	257.348
0.0616595	258.09
0.0620155	258.834
0.0623735	259.58
0.0627336	260.328
0.0630957	261.079
0.06346	261.831
0.0638263	262.586
0.0641948	263.343
0.0645654	264.102
0.0649382	264.863
0.0653131	265.626
0.0656901	266.392
0.0660693	267.16
0.0664508	267.93
0.0668344	268.702
0.0672202	269.477
0.0676083	270.253
0.0679986	271.032
0.0683912	271.814
0.068786	272.597
0.0691831	273.383
0.0695825	274.171
0.0699842	274.961
0.0703882	275.754
0.0707946	276.548
0.0712033	277.346
0.0716143	278.145
0.0720278	278.947
0.0724436	279.751
0.0728618	280.557
0.0732825	281.366
0.0737055	282.177
0.074131	282.99
0.074559	283.806
0.0749894	284.624
0.0754223	285.444
0.0758578	286.267
0.0762957	287.092
0.0767361	287.92
0.0771792	288.749
0.0776247	289.582
0.0780728	290.416
0.0785236	291.253
0.0789769	292.093
0.0794328	292.935
0.0798914	293.779
0.0803526	294.626
0.0808165	295.475
0.0812831	296.327
0.0817523	297.181
0.0822243	298.038
0.082699	298.897
0.0831764	299.758
0.0836566	300.622
0.0841395	301.489
0.0846253	302.358
0.0851138	303.229
0.0856052	304.103
0.0860994	304.98
0.0865964	305.859
0.0870964	306.741
0.0875992	307.625
0.0881049	308.511
0.0886135	309.401
0.0891251	310.292
0.0896396	311.187
0.0901571	312.084
0.0906776	312.983
0.0912011	313.885
0.0917276	314.79
0.0922571	315.697
0.0927897	316.607
0.0933254	317.52
0.0938642	318.435
0.0944061	319.353
0.0949511	320.274
0.0954993	321.197
0.0960506	322.123
0.0966051	323.051
0.0971628	323.982
0.0977237	324.916
0.0982879	325.853
0.0988553	326.792
0.099426	327.734
0.1	328.678
0.100577	329.626
0.101158	330.576
0.101742	331.529
0.102329	332.484
0.10292	333.443
0.103514	334.404
0.104112	335.368
0.104713	336.334
0.105317	337.304
0.105925	338.276
0.106537	339.251
0.107152	340.229
0.107771	341.21
0.108393	342.193
0.109018	343.179
0.109648	344.169
0.110281	345.161
0.110917	346.155
0.111558	347.153
0.112202	348.154
0.11285	349.157
0.113501	350.164
0.114156	351.173
0.114815	352.185
0.115478	353.2
0.116145	354.218
0.116815	355.239
0.11749	356.263
0.118168	357.29
0.11885	358.32
0.119536	359.353
0.120226	360.389
0.120921	361.427
0.121619	362.469
0.122321	363.514
0.123027	364.562
0.123737	365.613
0.124451	366.666
0.12517	367.723
0.125893	368.783
0.126619	369.846
0.12735	370.912
0.128086	371.981
0.128825	373.054
0.129569	374.129
0.130317	375.207
0.131069	376.289
0.131826	377.373
0.132587	378.461
0.133352	379.552
0.134122	380.646
0.134896	381.743
0.135675	382.843
0.136458	383.947
0.137246	385.054
0.138038	386.163
0.138835	387.276
0.139637	388.393
0.140443	389.512
0.141254	390.635
0.142069	391.761
0.142889	392.89
0.143714	394.023
0.144544	395.158
0.145378	396.297
0.146218	397.44
0.147062	398.585
0.147911	399.734
0.148765	400.886
0.149624	402.042
0.150487	403.201
0.151356	404.363
0.15223	405.528
0.153109	406.697
0.153993	407.869
0.154882	409.045
0.155776	410.224
0.156675	411.406
0.15758	412.592
0.158489	413.782
0.159404	414.974
0.160325	416.17
0.16125	417.37
0.162181	418.573
0.163117	419.779
0.164059	420.989
0.165006	422.203
0.165959	423.42
0.166917	424.64
0.16788	425.864
0.16885	427.092
0.169824	428.323
0.170805	429.557
0.171791	430.795
0.172783	432.037
0.17378	433.282
0.174783	434.531
0.175792	435.784
0.176807	437.04
0.177828	438.3
0.178855	439.563
0.179887	440.83
0.180926	442.101
0.18197	443.375
0.183021	444.653
0.184077	445.935
0.18514	447.22
0.186209	448.509
0.187284	449.802
0.188365	451.098
0.189452	452.398
0.190546	453.702
0.191646	455.01
0.192752	456.322
0.193865	457.637
0.194984	458.956
0.19611	460.279
0.197242	461.606
0.198381	462.936
0.199526	464.271
0.200678	465.609
0.201837	466.951
0.203002	468.297
0.204174	469.647
0.205353	471
0.206538	472.358
0.20773	473.719
0.20893	475.085
0.210136	476.454
0.211349	477.827
0.212569	479.205
0.213796	480.586
0.21503	481.971
0.216272	483.36
0.21752	484.754
0.218776	486.151
0.220039	487.552
0.221309	488.958
0.222587	490.367
0.223872	491.78
0.225165	493.198
0.226464	494.619
0.227772	496.045
0.229087	497.475
0.230409	498.909
0.231739	500.347
0.233077	501.789
0.234423	503.235
0.235776	504.686
0.237137	506.141
0.238506	507.599
0.239883	509.063
0.241268	510.53
0.242661	512.001
0.244062	513.477
0.245471	514.957
0.246888	516.442
0.248313	517.93
0.249747	519.423
0.251189	520.92
0.252639	522.422
0.254097	523.927
0.255564	525.438
0.25704	526.952
0.258523	528.471
0.260016	529.994
0.261517	531.522
0.263027	533.054
0.264545	534.59
0.266073	536.131
0.267609	537.677
0.269153	539.226
0.270707	540.781
0.27227	542.339
0.273842	543.903
0.275423	545.47
0.277013	547.043
0.278612	548.619
0.280221	550.201
0.281838	551.787
0.283465	553.377
0.285102	554.972
0.286748	556.572
0.288403	558.176
0.290068	559.785
0.291743	561.398
0.293427	563.017
0.295121	564.639
0.296825	566.267
0.298538	567.899
0.300262	569.536
0.301995	571.178
0.303739	572.824
0.305492	574.475
0.307256	576.131
0.30903	577.791
0.310814	579.457
0.312608	581.127
0.314413	582.802
0.316228	584.482
0.318053	586.167
0.31989	587.856
0.321736	589.551
0.323594	591.25
0.325462	592.954
0.327341	594.663
0.32923	596.377
0.331131	598.096
0.333043	599.82
0.334965	601.549
0.336899	603.283
0.338844	605.022
0.3408	606.766
0.342768	608.515
0.344747	610.269
0.346737	612.028
0.348739	613.792
0.350752	615.561
0.352777	617.335
0.354813	619.115
0.356862	620.899
0.358922	622.689
0.360994	624.484
0.363078	626.284
0.365174	628.089
0.367282	629.899
0.369403	631.715
0.371535	633.536
0.37368	635.362
0.375837	637.193
0.378007	639.03
0.380189	640.872
0.382384	642.719
0.384592	644.572
0.386812	646.429
0.389045	648.293
0.391291	650.161
0.39355	652.035
0.395822	653.915
0.398107	655.8
0.400405	657.69
0.402717	659.586
0.405042	661.487
0.40738	663.393
0.409732	665.306
0.412098	667.223
0.414477	669.146
0.416869	671.075
0.419276	673.009
0.421697	674.949
0.424131	676.895
0.42658	678.846
0.429042	680.802
0.431519	682.765
0.43401	684.733
0.436516	686.706
0.439036	688.686
0.44157	690.671
0.44412	692.662
0.446684	694.658
0.449262	696.66
0.451856	698.668
0.454465	700.682
0.457088	702.702
0.459727	704.727
0.462381	706.759
0.46505	708.796
0.467735	710.839
0.470435	712.888
0.473151	714.943
0.475883	717.003
0.47863	719.07
0.481393	721.143
0.484172	723.221
0.486968	725.306
0.489779	727.396
0.492606	729.493
0.49545	731.596
0.49831	733.704
0.501187	735.819
0.504081	737.94
0.506991	740.067
0.509918	742.2
0.512861	744.34
0.515822	746.485
0.5188	748.637
0.521795	750.795
0.524807	752.959
0.527837	755.129
0.530884	757.306
0.533949	759.488
0.537032	761.678
0.540132	763.873
0.54325	766.075
0.546387	768.283
0.549541	770.497
0.552713	772.718
0.555904	774.945
0.559114	777.179
0.562341	779.419
0.565588	781.666
0.568853	783.919
0.572137	786.178
0.57544	788.445
0.578762	790.717
0.582103	792.996
0.585464	795.282
0.588844	797.574
0.592243	799.873
0.595662	802.179
0.599101	804.491
0.60256	806.81
0.606038	809.135
0.609537	811.468
0.613056	813.806
0.616595	816.152
0.620155	818.505
0.623735	820.864
0.627336	823.23
0.630957	825.603
0.6346	827.982
0.638263	830.369
0.641948	832.762
0.645654	835.163
0.649382	837.57
0.653131	839.984
0.656901	842.405
0.660693	844.834
0.664508	847.269
0.668344	849.711
0.672202	852.16
0.676083	854.616
0.679986	857.08
0.683912	859.55
0.68786	862.028
0.691831	864.512
0.695825	867.004
0.699842	869.503
0.703882	872.009
0.707946	874.523
0.712033	877.044
0.716143	879.571
0.720278	882.107
0.724436	884.649
0.728618	887.199
0.732825	889.756
0.737055	892.321
0.74131	894.893
0.74559	897.472
0.749894	900.059
0.754223	902.654
0.758578	905.255
0.762957	907.865
0.767361	910.482
0.771792	913.106
0.776247	915.738
0.780728	918.377
0.785236	921.024
0.789769	923.679
0.794328	926.342
0.798914	929.012
0.803526	931.689
0.808165	934.375
0.812831	937.068
0.817523	939.769
0.822243	942.478
0.82699	945.194
0.831764	947.919
0.836566	950.651
0.841395	953.391
0.846253	956.139
0.851138	958.895
0.856052	961.659
0.860994	964.431
0.865964	967.211
0.870964	969.999
0.875992	972.861
0.881049	976.007
0.886135	979.169
0.891251	982.348
0.896396	985.543
0.901571	988.755
0.906776	991.983
0.912011	995.227
0.917276	998.488
0.922571	1001.77
0.927897	1005.06
0.933254	1008.37
0.938642	1011.7
0.944061	1015.04
0.949511	1018.4
0.954993	1021.78
0.960506	1025.18
0.966051	1028.59
0.971628	1032.02
0.977237	1035.46
0.982879	1038.92
0.988553	1042.4
0.99426	1045.9
1	1049.41
1.00577	1052.94
1.01158	1056.49
1.01742	1060.06
1.02329	1063.64
1.0292	1067.24
1.03514	1070.85
1.04112	1074.49
1.04713	1078.14
1.05317	1081.7
1.05925	1085.2
1.06537	1088.71
1.07152	1092.23
1.07771	1095.77
1.08393	1099.33
1.09018	1102.91
1.09648	1106.5
1.10281	1110.1
1.10917	1113.72
1.11558	1117.36
1.12202	1121.02
1.1285	1124.69
1.13501	1128.37
1.14156	1132.07
1.14815	1135.79
1.15478	1139.53
1.16145	1143.28
1.16815	1147.04
1.1749	1150.82
1.18168	1154.62
1.1885	1158.43
1.19536	1162.26
1.20226	1166.1
1.20921	1169.96
1.21619	1173.84
1.22321	1177.73
1.23027	1181.63
1.23737	1185.55
1.24451	1189.49
1.2517	1193.44
1.25893	1197.41
1.26619	1201.39
1.2735	1205.38
1.28086	1209.39
1.28825	1213.42
1.29569	1217.46
1.30317	1221.51
1.31069	1225.58
1.31826	1229.66
1.32587	1233.76
1.33352	1237.87
1.34122	1242
1.34896	1246.14
1.35675	1250.29
1.36458	1254.45
1.37246	1258.63
1.38038	1262.83
1.38835	1267.03
1.39637	1271.25
1.40443	1275.45
1.41254	1279.65
1.42069	1283.85
1.42889	1288.07
1.43714	1292.3
1.44544	1296.54
1.45378	1300.8
1.46218	1305.07
1.47062	1309.35
1.47911	1313.65
1.48765	1317.95
1.49624	1322.28
1.50487	1326.61
1.51356	1330.96
1.5223	1335.32
1.53109	1339.7
1.53993	1344.09
1.54882	1348.5
1.55776	1352.92
1.56675	1357.35
1.5758	1361.8
1.58489	1366.26
1.59404	1370.74
1.60325	1375.23
1.6125	1379.74
1.62181	1384.27
1.63117	1388.81
1.64059	1393.36
1.65006	1397.93
1.65959	1402.52
1.66917	1407.13
1.6788	1411.75
1.6885	1416.39
1.69824	1421.04
1.70805	1425.71
1.71791	1430.4
1.72783	1435.11
1.7378	1439.84
1.74783	1444.59
1.75792	1449.35
1.76807	1454.13
1.77828	1458.93
1.78855	1463.75
1.79887	1468.59
1.80926	1473.45
1.8197	1478.32
1.83021	1483.22
1.84077	1488.14
1.8514	1493.08
1.86209	1498.04
1.87284	1503.03
1.88365	1508.03
1.89452	1513.06
1.90546	1518.1
1.91646	1523.17
1.92752	1528.27
1.93865	1533.38
1.94984	1538.52
1.9611	1543.68
1.97242	1548.86
1.98381	1554.07
1.99526	1559.31
2.00678	1564.57
2.01837	1569.85
2.03002	1575.16
2.04174	1580.49
2.05353	1585.85
2.06538	1591.24
2.0773	1596.66
2.0893	1602.1
2.10136	1607.57
2.11349	1613.07
2.12569	1618.59
2.13796	1624.15
2.1503	1629.73
2.16272	1635.34
2.1752	1640.98
2.18776	1646.65
2.20039	1652.35
2.21309	1658.08
2.22587	1663.83
2.23872	1669.62
2.25165	1675.44
2.26464	1681.28
2.27772	1687.15
2.29087	1693.06
2.30409	1698.99
2.31739	1704.96
2.33077	1710.95
2.34423	1716.98
2.35776	1723.03
2.37137	1729.12
2.38506	1735.23
2.39883	1741.38
2.41268	1747.56
2.42661	1753.76
2.44062	1760
2.45471	1766.27
2.46888	1772.58
2.48313	1778.91
2.49747	1785.27
2.51189	1791.66
2.52639	1798.09
2.54097	1804.54
2.55564	1811.03
2.5704	1817.54
2.58523	1824.08
2.60016	1830.65
2.61517	1837.26
2.63027	1843.89
2.64545	1850.54
2.66073	1857.23
2.67609	1863.94
2.69153	1870.68
2.70707	1877.45
2.7227	1884.25
2.73842	1891.07
2.75423	1897.92
2.77013	1904.79
2.78612	1911.69
2.80221	1918.61
2.81838	1925.55
2.83465	1932.52
2.85102	1939.52
2.86748	1946.54
2.88403	1953.58
2.90068	1960.64
2.91743	1967.72
2.93427	1974.83
2.95121	1981.95
2.96825	1989.1
2.98538	1996.27
3.00262	2003.46
3.01995	2010.67
3.03739	2017.89
3.05492	2025.14
3.07256	2032.4
3.0903	2039.68
3.10814	2046.98
3.12608	2054.29
3.14413	2061.62
3.16228	2068.96
3.18053	2076.32
3.1989	2083.69
3.21736	2091.08
3.23594	2098.47
3.25462	2105.88
3.27341	2113.31
3.2923	2120.74
3.31131	2128.19
3.33043	2135.64
3.34965	2143.11
3.36899	2150.58
3.38844	2158.06
3.408	2165.55
3.42768	2173.05
3.44747	2180.56
3.46737	2188.07
3.48739	2195.58
3.50752	2203.1
3.52777	2210.63
3.54813	2218.16
3.56862	2225.7
3.58922	2233.24
3.60994	2240.78
3.63078	2248.33
3.65174	2255.88
3.67282	2263.43
3.69403	2270.98
3.71535	2278.53
3.7368	2286.09
3.75837	2293.65
3.78007	2301.21
3.80189	2308.77
3.82384	2316.33
3.84592	2323.89
3.86812	2331.45
3.89045	2339.01
3.91291	2346.57
3.9355	2354.13
3.95822	2361.69
3.98107	2369.25
4.00405	2376.81
4.02717	2384.37
4.05042	2391.92
4.0738	2399.48
4.09732	2407.03
4.12098	2414.58
4.14477	2422.13
4.16869	2429.67
4.19276	2437.22
4.21697	2444.76
4.24131	2452.29
4.2658	2459.83
4.29042	2467.36
4.31519	2474.88
4.3401	2482.41
4.36516	2489.93
4.39036	2497.44
4.4157	2504.95
4.4412	2512.46
4.46684	2519.96
4.49262	2527.46
4.51856	2534.95
4.54465	2542.44
4.57088	2549.92
4.59727	2557.39
4.62381	2564.86
4.6505	2572.33
4.67735	2579.79
4.70435	2587.24
4.73151	2594.69
4.75883	2602.14
4.7863	2609.57
4.81393	2617
4.84172	2624.43
4.86968	2631.84
4.89779	2639.26
4.92606	2646.66
4.9545	2654.06
4.9831	2661.45
5.01187	2668.84
5.04081	2676.22
5.06991	2683.59
5.09918	2690.96
5.12861	2698.32
5.15822	2705.67
5.188	2713.02
5.21795	2720.37
5.24807	2727.7
5.27837	2734.94
5.30884	2742.16
5.33949	2749.38
5.37032	2756.59
5.40132	2763.79
5.4325	2770.99
5.46387	2778.17
5.49541	2785.35
5.52713	2792.52
5.55904	2799.68
5.59114	2806.83
5.62341	2813.97
5.65588	2821.1
5.68853	2828.22
5.72137	2835.33
5.7544	2842.43
5.78762	2849.52
5.82103	2856.6
5.85464	2863.66
5.88844	2870.72
5.92243	2877.76
5.95662	2884.79
5.99101	2891.8
6.0256	2898.81
6.06038	2905.8
6.09537	2912.78
6.13056	2919.74
6.16595	2926.69
6.20155	2933.63
6.23735	2940.55
6.27336	2947.46
6.30957	2954.35
6.346	2961.23
6.38263	2968.09
6.41948	2974.94
6.45654	2981.77
6.49382	2988.59
6.53131	2995.39
6.56901	3002.17
6.60693	3008.94
6.64508	3015.7
6.68344	3022.43
6.72202	3029.15
6.76083	3035.86
6.79986	3042.54
6.83912	3049.22
6.8786	3055.87
6.91831	3062.51
6.95825	3069.13
6.99842	3075.73
7.03882	3082.34
7.07946	3088.94
7.12033	3095.52
7.16143	3102.08
7.20278	3108.63
7.24436	3115.15
7.28618	3121.66
7.32825	3128.16
7.37055	3134.63
7.4131	3141.08
7.4559	3147.52
7.49894	3153.94
7.54223	3160.34
7.58578	3166.72
7.62957	3173.08
7.67361	3179.43
7.71792	3185.75
7.76247	3192.05
7.80728	3198.34
7.85236	3204.61
7.89769	3210.86
7.94328	3217.09
7.98914	3223.3
8.03526	3229.49
8.08165	3235.66
8.12831	3241.82
8.17523	3247.95
8.22243	3254.07
8.2699	3260.17
8.31764	3266.25
8.36566	3272.32
8.41395	3278.36
8.46253	3284.39
8.51138	3290.4
8.56052	3296.39
8.60994	3302.37
8.65964	3308.33
8.70964	3314.27
8.75992	3320.2
8.81049	3326.12
8.86135	3332.01
8.91251	3337.9
8.96396	3343.76
9.01571	3349.61
9.06776	3355.45
9.12011	3361.27
9.17276	3367.07
9.22571	3372.85
9.27897	3378.62
9.33254	3384.37
9.38642	3390.1
9.44061	3395.82
9.49511	3401.52
9.54993	3407.2
9.60506	3412.87
9.66051	3418.51
9.71628	3424.14
9.77237	3429.76
9.82879	3435.35
9.88553	3440.93
9.9426	3446.49
10	3452.03
10.0577	3457.56
10.1158	3463.07
10.1742	3468.56
10.2329	3474.04
10.292	3479.5
10.3514	3484.94
10.4112	3490.36
10.4713	3495.77
10.5317	3501.17
10.5925	3506.56
10.6537	3511.93
10.7152	3517.28
10.7771	3522.62
10.8393	3527.94
10.9018	3533.24
10.9648	3538.52
11.0281	3543.79
11.0917	3549.04
11.1558	3554.27
11.2202	3559.48
11.285	3564.68
11.3501	3569.86
11.4156	3575.01
11.4815	3580.15
11.5478	3585.27
11.6145	3590.37
11.6815	3595.46
11.749	3600.52
11.8168	3605.56
11.885	3610.59
11.9536	3615.59
12.0226	3620.58
12.0921	3625.54
12.1619	3630.49
12.2321	3635.41
12.3027	3640.32
12.3737	3645.21
12.4451	3650.07
12.517	3654.92
12.5893	3659.75
12.6619	3664.56
12.735	3669.34
12.8086	3674.11
12.8825	3678.86
12.9569	3683.59
13.0317	3688.3
13.1069	3692.99
13.1826	3697.67
13.2587	3702.32
13.3352	3706.95
13.4122	3711.57
13.4896	3716.17
13.5675	3720.75
13.6458	3725.31
13.7246	3729.86
13.8038	3734.39
13.8835	3738.9
13.9637	3743.39
14.0443	3747.85
14.1254	3752.28
14.2069	3756.7
14.2889	3761.09
14.3714	3765.47
14.4544	3769.84
14.5378	3774.18
14.6218	3778.51
14.7062	3782.81
14.7911	3787.1
14.8765	3791.37
14.9624	3795.62
15.0487	3799.85
15.1356	3804.06
15.223	3808.25
15.3109	3812.42
15.3993	3816.57
15.4882	3820.69
15.5776	3824.8
15.6675	3828.88
15.758	3832.94
15.8489	3836.98
15.9404	3841
16.0325	3844.99
16.125	3848.96
16.2181	3852.9
16.3117	3856.82
16.4059	3860.72
16.5006	3864.59
16.5959	3868.44
16.6917	3872.26
16.788	3876.06
16.885	3879.83
16.9824	3883.57
17.0805	3887.29
17.1791	3890.98
17.2783	3894.65
17.378	3898.28
17.4783	3901.9
17.5792	3905.49
17.6807	3909.05
17.7828	3912.59
17.8855	3916.09
17.9887	3919.57
18.0926	3923.02
18.197	3926.44
18.3021	3929.83
18.4077	3933.2
18.514	3936.53
18.6209	3939.83
18.7284	3943.1
18.8365	3946.34
18.9452	3949.54
19.0546	3952.72
19.1646	3955.86
19.2752	3958.97
19.3865	3962.05
19.4984	3965.1
19.611	3968.12
19.7242	3971.1
19.8381	3974.04
19.9526	3976.96
20.0678	3979.84
20.1837	3982.69
20.3002	3985.5
20.4174	3988.28
20.5353	3991.03
20.6538	3993.74
20.773	3996.41
20.893	3999.05
21.0136	4001.66
21.1349	4004.23
21.2569	4006.77
21.3796	4009.27
21.503	4011.74
21.6272	4014.17
21.752	4016.56
21.8776	4018.92
22.0039	4021.24
22.1309	4023.52
22.2587	4025.76
22.3872	4027.97
22.5165	4030.14
22.6464	4032.27
22.7772	4034.36
22.9087	4036.42
23.0409	4038.43
23.1739	4040.41
23.3077	4042.35
23.4423	4044.25
23.5776	4046.11
23.7137	4047.92
23.8506	4049.7
23.9883	4051.44
24.1268	4053.14
24.2661	4054.8
24.4062	4056.42
24.5471	4058
24.6888	4059.54
24.8313	4061.03
24.9747	4062.49
25.1189	4063.91
25.2639	4065.28
25.4097	4066.61
25.5564	4067.9
25.704	4069.15
25.8523	4070.36
26.0016	4071.53
26.1517	4072.65
26.3027	4073.73
26.4545	4074.77
26.6073	4075.77
26.7609	4076.72
26.9153	4077.64
27.0707	4078.51
27.227	4079.33
27.3842	4080.12
27.5423	4080.86
27.7013	4081.56
27.8612	4082.22
28.0221	4082.83
28.1838	4083.41
28.3465	4083.94
28.5102	4084.43
28.6748	4084.87
28.8403	4085.27
29.0068	4085.63
29.1743	4085.95
29.3427	4086.22
29.5121	4086.45
29.6825	4086.64
29.8538	4086.78
30.0262	4086.88
30.1995	4086.93
30.3739	4086.95
30.5492	4086.91
30.7256	4086.84
30.903	4086.72
31.0814	4086.55
31.2608	4086.35
31.4413	4086.1
31.6228	4085.8
31.8053	4085.46
31.989	4085.08
32.1736	4084.66
32.3594	4084.19
32.5462	4083.68
32.7341	4083.13
32.923	4082.53
33.1131	4081.9
33.3043	4081.22
33.4965	4080.5
33.6899	4079.74
33.8844	4078.94
34.08	4078.1
34.2768	4077.22
34.4747	4076.3
34.6737	4075.34
34.8739	4074.34
35.0752	4073.31
35.2777	4072.25
35.4813	4071.15
35.6862	4070.01
35.8922	4068.83
36.0994	4067.62
36.3078	4066.37
36.5174	4065.08
36.7282	4063.75
36.9403	4062.38
37.1535	4060.97
37.368	4059.53
37.5837	4058.04
37.8007	4056.51
38.0189	4054.95
38.2384	4053.35
38.4592	4051.7
38.6812	4050.02
38.9045	4048.29
39.1291	4046.53
39.355	4044.73
39.5822	4042.88
39.8107	4041
40.0405	4039.07
40.2717	4037.1
40.5042	4035.1
40.738	4033.05
40.9732	4030.96
41.2098	4028.83
41.4477	4026.67
41.6869	4024.46
41.9276	4022.21
42.1697	4019.91
42.4131	4017.58
42.658	4015.21
42.9042	4012.8
43.1519	4010.35
43.401	4007.86
43.6516	4005.32
43.9036	4002.75
44.157	4000.14
44.412	3997.49
44.6684	3994.8
44.9262	3992.07
45.1856	3989.3
45.4465	3986.49
45.7088	3983.65
45.9727	3980.77
46.2381	3977.85
46.505	3974.89
46.7735	3971.9
47.0435	3968.87
47.3151	3965.8
47.5883	3962.7
47.863	3959.56
48.1393	3956.39
48.4172	3953.18
48.6968	3949.94
48.9779	3946.67
49.2606	3943.36
49.545	3940.03
49.831	3936.66
50.1187	3933.26
50.4081	3929.83
50.6991	3926.38
50.9918	3922.89
51.2861	3919.38
51.5822	3915.84
51.88	3912.27
52.1795	3908.69
52.4807	3905.07
52.7837	3901.38
53.0884	3897.65
53.3949	3893.91
53.7032	3890.14
54.0132	3886.35
54.325	3882.53
54.6387	3878.69
54.9541	3874.83
55.2713	3870.94
55.5904	3867.04
55.9114	3863.1
56.2341	3859.15
56.5588	3855.17
56.8853	3851.16
57.2137	3847.14
57.544	3843.09
57.8762	3839.01
58.2103	3834.91
58.5464	3830.79
58.8844	3826.65
59.2243	3822.48
59.5662	3818.28
59.9101	3814.07
60.256	3809.83
60.6038	3805.56
60.9537	3801.27
61.3056	3796.96
61.6595	3792.62
62.0155	3788.26
62.3735	3783.88
62.7336	3779.47
63.0957	3775.04
63.46	3770.59
63.8263	3766.11
64.1948	3761.6
64.5654	3757.08
64.9382	3752.53
65.3131	3747.96
65.6901	3743.36
66.0693	3738.74
66.4508	3734.1
66.8344	3729.43
67.2202	3724.74
67.6083	3720.03
67.9986	3715.29
68.3912	3710.54
68.786	3705.75
69.1831	3700.95
69.5825	3696.12
69.9842	3691.28
70.3882	3686.41
70.7946	3681.51
71.2033	3676.6
71.6143	3671.66
72.0278	3666.7
72.4436	3661.72
72.8618	3656.72
73.2825	3651.7
73.7055	3646.65
74.131	3641.59
74.559	3636.5
74.9894	3631.39
75.4223	3626.26
75.8578	3621.11
76.2957	3615.94
76.7361	3610.74
77.1792	3605.53
77.6247	3600.3
78.0728	3595.04
78.5236	3589.77
78.9769	3584.48
79.4328	3579.16
79.8914	3573.83
80.3526	3568.48
80.8165	3563.11
81.2831	3557.72
81.7523	3552.31
82.2243	3546.89
82.699	3541.44
83.1764	3535.98
83.6566	3530.5
84.1395	3525
84.6253	3519.49
85.1138	3513.96
85.6052	3508.41
86.0994	3502.85
86.5964	3497.27
87.0964	3491.68
87.5992	3486.07
88.1049	3480.44
88.6135	3474.8
89.1251	3469.15
89.6396	3463.48
90.1571	3457.8
90.6776	3452.1
91.2011	3446.39
91.7276	3440.67
92.2571	3434.93
92.7897	3429.17
93.3254	3423.41
93.8642	3417.62
94.4061	3411.83
94.9511	3406.02
95.4993	3400.2
96.0506	3394.36
96.6051	3388.51
97.1628	3382.65
97.7237	3376.78
98.2879	3370.89
98.8553	3364.98
99.426	3359.07
100	3353.14
100.577	3347.2
101.158	3341.25
101.742	3335.29
102.329	3329.31
102.92	3323.32
103.514	3317.32
104.112	3311.3
104.713	3305.28
105.317	3299.24
105.925	3293.19
106.537	3287.12
107.152	3281.05
107.771	3274.96
108.393	3268.86
109.018	3262.75
109.648	3256.63
110.281	3250.5
110.917	3244.36
111.558	3238.2
112.202	3232.04
112.85	3225.87
113.501	3219.68
114.156	3213.48
114.815	3207.28
115.478	3201.06
116.145	3194.84
116.815	3188.6
117.49	3182.35
118.168	3176.1
118.85	3169.83
119.536	3163.56
120.226	3157.27
120.921	3150.98
121.619	3144.67
122.321	3138.36
123.027	3132.04
123.737	3125.7
124.451	3119.36
125.17	3113.01
125.893	3106.66
126.619	3100.29
127.35	3093.91
128.086	3087.53
128.825	3081.14
129.569	3074.74
130.317	3068.33
131.069	3061.91
131.826	3055.48
132.587	3049.05
133.352	3042.61
134.122	3036.16
134.896	3029.7
135.675	3023.23
136.458	3016.76
137.246	3010.28
138.038	3003.79
138.835	2997.29
139.637	2990.79
140.443	2984.29
141.254	2977.79
142.069	2971.28
142.889	2964.76
143.714	2958.24
144.544	2951.71
145.378	2945.18
146.218	2938.64
147.062	2932.09
147.911	2925.54
148.765	2918.98
149.624	2912.41
150.487	2905.84
151.356	2899.26
152.23	2892.68
153.109	2886.1
153.993	2879.5
154.882	2872.91
155.776	2866.31
156.675	2859.7
157.58	2853.09
158.489	2846.47
159.404	2839.85
160.325	2833.23
161.25	2826.6
162.181	2819.97
163.117	2813.34
164.059	2806.7
165.006	2800.06
165.959	2793.41
166.917	2786.76
167.88	2780.11
168.85	2773.46
169.824	2766.8
170.805	2760.14
171.791	2753.48
172.783	2746.81
173.78	2740.14
174.783	2733.47
175.792	2726.8
176.807	2720.12
177.828	2713.43
178.855	2706.75
179.887	2700.06
180.926	2693.37
181.97	2686.68
183.021	2679.99
184.077	2673.3
185.14	2666.61
186.209	2659.91
187.284	2653.22
188.365	2646.52
189.452	2639.82
190.546	2633.12
191.646	2626.43
192.752	2619.73
193.865	2613.03
194.984	2606.33
196.11	2599.63
197.242	2592.93
198.381	2586.22
199.526	2579.52
200.678	2572.82
201.837	2566.12
203.002	2559.42
204.174	2552.72
205.353	2546.02
206.538	2539.32
207.73	2532.62
208.93	2525.92
210.136	2519.21
211.349	2512.51
212.569	2505.81
213.796	2499.11
215.03	2492.41
216.272	2485.71
217.52	2479.01
218.776	2472.32
220.039	2465.62
221.309	2458.92
222.587	2452.23
223.872	2445.54
225.165	2438.85
226.464	2432.16
227.772	2425.47
229.087	2418.79
230.409	2412.11
231.739	2405.43
233.077	2398.75
234.423	2392.07
235.776	2385.4
237.137	2378.73
238.506	2372.07
239.883	2365.4
241.268	2358.74
242.661	2352.09
244.062	2345.43
245.471	2338.78
246.888	2332.14
248.313	2325.49
249.747	2318.85
251.189	2312.22
252.639	2305.58
254.097	2298.96
255.564	2292.33
257.04	2285.71
258.523	2279.1
260.016	2272.49
261.517	2265.88
263.027	2259.28
264.545	2252.68
266.073	2246.09
267.609	2239.5
269.153	2232.91
270.707	2226.33
272.27	2219.76
273.842	2213.19
275.423	2206.63
277.013	2200.06
278.612	2193.51
280.221	2186.96
281.838	2180.41
283.465	2173.87
285.102	2167.33
286.748	2160.8
288.403	2154.28
290.068	2147.76
291.743	2141.24
293.427	2134.73
295.121	2128.23
296.825	2121.73
298.538	2115.24
300.262	2108.75
301.995	2102.27
303.739	2095.8
305.492	2089.33
307.256	2082.87
309.03	2076.42
310.814	2069.97
312.608	2063.53
314.413	2057.1
316.228	2050.67
318.053	2044.25
319.89	2037.84
321.736	2031.43
323.594	2025.03
325.462	2018.64
327.341	2012.25
329.23	2005.88
331.131	1999.51
333.043	1993.14
334.965	1986.79
336.899	1980.44
338.844	1974.09
340.8	1967.76
342.768	1961.43
344.747	1955.11
346.737	1948.79
348.739	1942.49
350.752	1936.18
352.777	1929.88
354.813	1923.58
356.862	1917.29
358.922	1911.01
360.994	1904.73
363.078	1898.47
365.174	1892.21
367.282	1885.96
369.403	1879.71
371.535	1873.48
373.68	1867.25
375.837	1861.04
378.007	1854.83
380.189	1848.63
382.384	1842.44
384.592	1836.26
386.812	1830.1
389.045	1823.94
391.291	1817.79
393.55	1811.65
395.822	1805.52
398.107	1799.41
400.405	1793.3
402.717	1787.21
405.042	1781.12
407.38	1775.05
409.732	1768.99
412.098	1762.94
414.477	1756.9
416.869	1750.88
419.276	1744.86
421.697	1738.86
424.131	1732.87
426.58	1726.9
429.042	1720.93
431.519	1714.98
434.01	1709.04
436.516	1703.11
439.036	1697.19
441.57	1691.29
444.12	1685.4
446.684	1679.52
449.262	1673.66
451.856	1667.8
454.465	1661.96
457.088	1656.13
459.727	1650.32
462.381	1644.51
465.05	1638.72
467.735	1632.94
470.435	1627.17
473.151	1621.42
475.883	1615.67
478.63	1609.94
481.393	1604.22
484.172	1598.51
486.968	1592.8
489.779	1587.11
492.606	1581.44
495.45	1575.77
498.31	1570.11
501.187	1564.46
504.081	1558.81
506.991	1553.18
509.918	1547.56
512.861	1541.94
515.822	1536.33
518.8	1530.73
521.795	1525.13
524.807	1519.54
527.837	1514.06
530.884	1508.58
533.949	1503.11
537.032	1497.65
540.132	1492.2
543.25	1486.75
546.387	1481.31
549.541	1475.88
552.713	1470.45
555.904	1465.04
559.114	1459.63
562.341	1454.23
565.588	1448.84
568.853	1443.46
572.137	1438.09
575.44	1432.72
578.762	1427.37
582.103	1422.03
585.464	1416.7
588.844	1411.38
592.243	1406.07
595.662	1400.77
599.101	1395.48
602.56	1390.2
606.038	1384.93
609.537	1379.68
613.056	1374.44
616.595	1369.21
620.155	1363.99
623.735	1358.78
627.336	1353.59
630.957	1348.41
634.6	1343.24
638.263	1338.09
641.948	1332.95
645.654	1327.82
649.382	1322.71
653.131	1317.61
656.901	1312.53
660.693	1307.46
664.508	1302.4
668.344	1297.36
672.202	1292.33
676.083	1287.32
679.986	1282.32
683.912	1277.34
687.86	1272.37
691.831	1267.42
695.825	1262.48
699.842	1257.56
703.882	1252.63
707.946	1247.71
712.033	1242.81
716.143	1237.93
720.278	1233.06
724.436	1228.21
728.618	1223.37
732.825	1218.55
737.055	1213.74
741.31	1208.95
745.59	1204.18
749.894	1199.42
754.223	1194.68
758.578	1189.95
762.957	1185.25
767.361	1180.55
771.792	1175.88
776.247	1171.22
780.728	1166.57
785.236	1161.94
789.769	1157.33
794.328	1152.74
798.914	1148.16
803.526	1143.59
808.165	1139.04
812.831	1134.51
817.523	1129.99
822.243	1125.49
826.99	1121
831.764	1116.53
836.566	1112.08
841.395	1107.63
846.253	1103.21
851.138	1098.79
856.052	1094.39
860.994	1090
865.964	1085.63
870.964	1081.27
875.992	1076.92
881.049	1072.58
886.135	1068.26
891.251	1063.94
896.396	1059.64
901.571	1055.36
906.776	1051.08
912.011	1046.82
917.276	1042.57
922.571	1038.34
927.897	1034.11
933.254	1029.9
938.642	1025.71
944.061	1021.53
949.511	1017.36
954.993	1013.2
960.506	1009.06
966.051	1004.93
971.628	1000.82
977.237	996.721
982.879	992.634
988.553	988.562
994.26	984.503
1000	980.458
1005.77	976.427
1011.58	972.41
1017.42	968.406
1023.29	964.416
1029.2	960.44
1035.14	956.477
1041.12	952.527
1047.13	948.591
1053.17	944.664
1059.25	940.747
1065.37	936.843
1071.52	932.953
1077.71	929.076
1083.93	925.213
1090.18	921.364
1096.48	917.528
1102.81	913.707
1109.17	909.9
1115.58	906.107
1122.02	902.329
1128.5	898.564
1135.01	894.815
1141.56	891.08
1148.15	887.36
1154.78	883.654
1161.45	879.963
1168.15	876.287
1174.9	872.626
1181.68	868.979
1188.5	865.348
1195.36	861.731
1202.26	858.129
1209.21	854.542
1216.19	850.97
1223.21	847.413
1230.27	843.87
1237.37	840.342
1244.51	836.829
1251.7	833.33
1258.93	829.846
1266.19	826.376
1273.5	822.92
1280.86	819.479
1288.25	816.051
1295.69	812.638
1303.17	809.238
1310.69	805.851
1318.26	802.478
1325.87	799.117
1333.52	795.77
1341.22	792.435
1348.96	789.112
1356.75	785.801
1364.58	782.502
1372.46	779.214
1380.38	775.938
1388.35	772.672
1396.37	769.416
1404.43	766.183
1412.54	762.972
1420.69	759.771
1428.89	756.58
1437.14	753.399
1445.44	750.228
1453.78	747.068
1462.18	743.919
1470.62	740.781
1479.11	737.653
1487.65	734.536
1496.24	731.431
1504.87	728.337
1513.56	725.254
1522.3	722.182
1531.09	719.122
1539.93	716.074
1548.82	713.037
1557.76	710.012
1566.75	706.999
1575.8	703.998
1584.89	701.009
1594.04	698.032
1603.25	695.067
1612.5	692.114
1621.81	689.173
1631.17	686.245
1640.59	683.328
1650.06	680.424
1659.59	677.532
1669.17	674.652
1678.8	671.785
1688.5	668.93
1698.24	666.087
1708.05	663.256
1717.91	660.437
1727.83	657.631
1737.8	654.836
1747.83	652.054
1757.92	649.278
1768.07	646.513
1778.28	643.76
1788.55	641.019
1798.87	638.291
1809.26	635.574
1819.7	632.869
1830.21	630.176
1840.77	627.496
1851.4	624.827
1862.09	622.171
1872.84	619.527
1883.65	616.895
1894.52	614.274
1905.46	611.667
1916.46	609.071
1927.52	606.487
1938.65	603.914
1949.84	601.354
1961.1	598.806
1972.42	596.269
1983.81	593.743
1995.26	591.23
2006.78	588.727
2018.37	586.236
2030.02	583.755
2041.74	581.286
2053.53	578.828
2065.38	576.379
2077.3	573.942
2089.3	571.514
2101.36	569.097
2113.49	566.689
2125.69	564.29
2137.96	561.902
2150.3	559.523
2162.72	557.155
2175.2	554.796
2187.76	552.447
2200.39	550.109
2213.09	547.781
2225.87	545.462
2238.72	543.154
2251.65	540.857
2264.64	538.569
2277.72	536.291
2290.87	534.024
2304.09	531.767
2317.39	529.52
2330.77	527.283
2344.23	525.057
2357.76	522.84
2371.37	520.633
2385.06	518.437
2398.83	516.25
2412.68	514.073
2426.61	511.906
2440.62	509.748
2454.71	507.6
2468.88	505.462
2483.13	503.333
2497.47	501.214
2511.89	499.104
2526.39	497.004
2540.97	494.913
2555.64	492.832
2570.4	490.76
2585.23	488.699
2600.16	486.646
2615.17	484.603
2630.27	482.57
2645.45	480.546
2660.73	478.532
2676.09	476.527
2691.53	474.531
2707.07	472.545
2722.7	470.568
2738.42	468.6
2754.23	466.64
2770.13	464.69
2786.12	462.749
2802.21	460.816
2818.38	458.892
2834.65	456.976
2851.02	455.069
2867.48	453.171
2884.03	451.282
2900.68	449.401
2917.43	447.529
2934.27	445.665
2951.21	443.811
2968.25	441.965
2985.38	440.128
3002.62	438.3
3019.95	436.48
3037.39	434.669
3054.92	432.867
3072.56	431.073
3090.3	429.288
3108.14	427.512
3126.08	425.744
3144.13	423.984
3162.28	422.233
3180.53	420.49
3198.9	418.755
3217.36	417.029
3235.94	415.311
3254.62	413.6
3273.41	411.898
3292.3	410.204
3311.31	408.518
3330.43	406.839
3349.65	405.168
3368.99	403.505
3388.44	401.849
3408	400.2
3427.68	398.558
3447.47	396.924
3467.37	395.296
3487.39	393.675
3507.52	392.059
3527.77	390.447
3548.13	388.842
3568.62	387.243
3589.22	385.651
3609.94	384.066
3630.78	382.487
3651.74	380.915
3672.82	379.35
3694.03	377.792
3715.35	376.242
3736.8	374.698
3758.37	373.161
3780.07	371.632
3801.89	370.11
3823.84	368.596
3845.92	367.089
3868.12	365.589
3890.45	364.098
3912.91	362.613
3935.5	361.136
3958.22	359.667
3981.07	358.206
4004.05	356.753
4027.17	355.307
4050.42	353.869
4073.8	352.439
4097.32	351.017
4120.98	349.603
4144.77	348.196
4168.69	346.798
4192.76	345.407
4216.97	344.025
4241.31	342.65
4265.8	341.283
4290.42	339.925
4315.19	338.574
4340.1	337.231
4365.16	335.896
4390.36	334.568
4415.7	333.249
4441.2	331.937
4466.84	330.633
4492.62	329.336
4518.56	328.047
4544.65	326.766
4570.88	325.492
4597.27	324.225
4623.81	322.966
4650.5	321.714
4677.35	320.469
4704.35	319.231
4731.51	317.999
4758.83	316.775
4786.3	315.556
4813.93	314.345
4841.72	313.139
4869.68	311.94
4897.79	310.747
4926.06	309.559
4954.5	308.377
4983.1	307.201
5011.87	305.992
5040.81	304.73
5069.91	303.474
5099.18	302.223
5128.61	300.978
5158.22	299.737
5188	298.501
5217.95	297.269
5248.07	296.041
5278.37	294.85
5308.84	293.665
5339.49	292.484
5370.32	291.307
5401.32	290.134
5432.5	288.966
5463.87	287.801
5495.41	286.64
5527.13	285.484
5559.04	284.332
5591.14	283.185
5623.41	282.041
5655.88	280.903
5688.53	279.768
5721.37	278.639
5754.4	277.514
5787.62	276.393
5821.03	275.277
5854.64	274.166
5888.44	273.06
5922.43	271.959
5956.62	270.862
5991.01	269.771
6025.6	268.685
6060.38	267.603
6095.37	266.527
6130.56	265.455
6165.95	264.389
6201.55	263.329
6237.35	262.273
6273.36	261.223
6309.57	260.178
6346	259.138
6382.63	258.104
6419.48	257.075
6456.54	256.051
6493.82	255.034
6531.31	254.021
6569.01	253.015
6606.93	252.013
6645.08	251.018
6683.44	250.028
6722.02	249.043
6760.83	248.065
6799.86	247.092
6839.12	246.124
6878.6	245.163
6918.31	244.207
6958.25	243.257
6998.42	242.312
7038.82	241.368
7079.46	240.43
7120.33	239.497
7161.43	238.57
7202.78	237.648
7244.36	236.733
7286.18	235.823
7328.25	234.918
7370.55	234.02
7413.1	233.127
7455.9	232.24
7498.94	231.359
7542.23	230.483
7585.78	229.613
7629.57	228.749
7673.61	227.89
7717.92	227.036
7762.47	226.189
7807.28	225.346
7852.36	224.51
7897.69	223.678
7943.28	222.852
7989.14	222.031
8035.26	221.216
8081.65	220.405
8128.31	219.6
8175.23	218.8
8222.43	218.005
8269.9	217.214
8317.64	216.429
8365.66	215.647
8413.95	214.871
8462.53	214.099
8511.38	213.331
8560.52	212.568
8609.94	211.809
8659.64	211.053
8709.64	210.302
8759.92	209.554
8810.49	208.81
8861.35	208.069
8912.51	207.331
8963.96	206.598
9015.71	205.868
9067.76	205.141
9120.11	204.419
9172.76	203.7
9225.71	202.984
9278.97	202.273
9332.54	201.565
9386.42	200.861
9440.61	200.16
9495.11	199.464
9549.93	198.771
9605.06	198.082
9660.51	197.397
9716.28	196.715
9772.37	196.037
9828.79	195.363
9885.53	194.693
9942.6	194.026
10000	193.363
10057.7	192.704
10115.8	192.048
10174.2	191.396
10232.9	190.748
10292	190.103
10351.4	189.462
10411.2	188.824
10471.3	188.19
10531.7	187.559
10592.5	186.93
10653.7	186.305
10715.2	185.684
10777.1	185.065
10839.3	184.451
10901.8	183.84
10964.8	183.232
11028.1	182.629
11091.7	182.028
11155.8	181.432
11220.2	180.839
11285	180.249
11350.1	179.663
11415.6	179.081
11481.5	178.503
11547.8	177.928
11614.5	177.356
11681.5	176.789
11749	176.225
11816.8	175.664
11885	175.107
11953.6	174.554
12022.6	174.005
12092.1	173.459
12161.9	172.916
12232.1	172.377
12302.7	171.842
12373.7	171.31
12445.1	170.782
12517	170.257
12589.3	169.735
12661.9	169.217
12735	168.702
12808.6	168.191
12882.5	167.683
12956.9	167.177
13031.7	166.676
13106.9	166.177
13182.6	165.681
13258.7	165.189
13335.2	164.699
13412.2	164.212
13489.6	163.728
13567.5	163.247
13645.8	162.768
13724.6	162.292
13803.8	161.818
13883.5	161.347
13963.7	160.878
14044.3	160.414
14125.4	159.953
14206.9	159.496
14288.9	159.04
14371.4	158.587
14454.4	158.136
14537.8	157.687
14621.8	157.24
14706.2	156.796
14791.1	156.354
14876.5	155.914
14962.4	155.477
15048.7	155.042
15135.6	154.61
15223	154.18
15310.9	153.752
15399.3	153.327
15488.2	152.905
15577.6	152.484
15667.5	152.066
15758	151.651
15848.9	151.238
15940.4	150.828
16032.5	150.42
16125	150.015
16218.1	149.612
16311.7	149.211
16405.9	148.813
16500.6	148.418
16595.9	148.025
16691.7	147.634
16788	147.246
16885	146.861
16982.4	146.478
17080.5	146.097
17179.1	145.719
17278.3	145.343
17378	144.97
17478.3	144.599
17579.2	144.23
17680.7	143.862
17782.8	143.498
17885.5	143.135
17988.7	142.775
18092.6	142.418
18197	142.062
18302.1	141.71
18407.7	141.359
18514	141.011
18620.9	140.665
18728.4	140.322
18836.5	139.981
18945.2	139.643
19054.6	139.306
19164.6	138.972
19275.2	138.641
19386.5	138.311
19498.4	137.984
19611	137.659
19724.2	137.337
19838.1	137.017
19952.6	136.698
20067.8	136.382
20183.7	136.068
20300.2	135.757
20417.4	135.447
20535.3	135.139
20653.8	134.834
20773	134.53
20893	134.228
21013.6	133.928
21134.9	133.63
21256.9	133.334
21379.6	133.039
21503	132.747
21627.2	132.456
21752	132.167
21877.6	131.88
22003.9	131.594
22130.9	131.311
22258.7	131.03
22387.2	130.75
22516.5	130.472
22646.4	130.196
22777.2	129.922
22908.7	129.65
23040.9	129.38
23173.9	129.111
23307.7	128.845
23442.3	128.58
23577.6	128.317
23713.7	128.056
23850.6	127.796
23988.3	127.538
24126.8	127.283
24266.1	127.029
24406.2	126.776
24547.1	126.526
24688.8	126.277
24831.3	126.029
24974.7	125.784
25118.9	125.54
25263.9	125.298
25409.7	125.057
25556.4	124.819
25704	124.582
25852.3	124.346
26001.6	124.113
26151.7	123.881
26302.7	123.65
26454.5	123.422
26607.3	123.195
26760.9	122.97
26915.3	122.746
27070.7	122.524
27227	122.304
27384.2	122.085
27542.3	121.868
27701.3	121.652
27861.2	121.438
28022.1	121.225
28183.8	121.014
28346.5	120.805
28510.2	120.597
28674.8	120.39
28840.3	120.185
29006.8	119.982
29174.3	119.78
29342.7	119.579
29512.1	119.38
29682.5	119.183
29853.8	118.987
30026.2	118.792
30199.5	118.599
30373.9	118.407
30549.2	118.217
30725.6	118.028
30903	117.84
31081.4	117.654
31260.8	117.469
31441.3	117.286
31622.8	117.104
31805.3	116.923
31989	116.743
32173.6	116.565
32359.4	116.388
32546.2	116.212
32734.1	116.037
32923	115.864
33113.1	115.691
33304.3	115.52
33496.5	115.349
33689.9	115.18
33884.4	115.011
34080	114.844
34276.8	114.677
34474.7	114.511
34673.7	114.346
34873.9	114.182
35075.2	114.016
35277.7	113.847
35481.3	113.679
35686.2	113.512
35892.2	113.347
36099.4	113.183
36307.8	113.02
36517.4	112.859
36728.2	112.699
36940.3	112.54
37153.5	112.382
37368	112.225
37583.7	112.07
37800.7	111.916
38018.9	111.763
38238.4	111.611
38459.2	111.461
38681.2	111.311
38904.5	111.163
39129.1	111.016
39355	110.871
39582.2	110.726
39810.7	110.582
40040.5	110.44
40271.7	110.299
40504.2	110.159
40738	110.02
40973.2	109.882
41209.8	109.746
41447.7	109.61
41686.9	109.476
41927.6	109.342
42169.7	109.21
42413.1	109.079
42658	108.949
42904.2	108.82
43151.9	108.692
43401	108.565
43651.6	108.439
43903.6	108.314
44157	108.19
44412	108.068
44668.4	107.946
44926.2	107.825
45185.6	107.706
45446.5	107.587
45708.8	107.47
45972.7	107.353
46238.1	107.237
46505	107.123
46773.5	107.009
47043.5	106.897
47315.1	106.785
47588.3	106.674
47863	106.564
48139.3	106.456
48417.2	106.348
48696.8	106.241
48977.9	106.135
49260.6	106.03
49545	105.926
49831	105.823
50118.7	105.721
50408.1	105.619
50699.1	105.519
50991.8	105.419
51286.1	105.321
51582.2	105.223
51880	105.126
52179.5	105.03
52480.7	104.935
52783.7	104.841
53088.4	104.748
53394.9	104.655
53703.2	104.564
54013.2	104.473
54325	104.383
54638.7	104.294
54954.1	104.206
55271.3	104.118
55590.4	104.032
55911.4	103.946
56234.1	103.861
56558.8	103.777
56885.3	103.693
57213.7	103.611
57544	103.529
57876.2	103.448
58210.3	103.368
58546.4	103.289
58884.4	103.21
59224.3	103.132
59566.2	103.055
59910.1	102.979
60256	102.903
60603.8	102.829
60953.7	102.755
61305.6	102.681
61659.5	102.609
62015.5	102.537
62373.5	102.466
62733.6	102.395
63095.7	102.326
63460	102.257
63826.3	102.189
64194.8	102.121
64565.4	102.054
64938.2	101.988
65313.1	101.923
65690.1	101.858
66069.3	101.794
66450.8	101.731
66834.4	101.668
67220.2	101.606
67608.3	101.545
67998.6	101.484
68391.2	101.424
68786	101.365
69183.1	101.306
69582.5	101.248
69984.2	101.19
70388.2	101.134
70794.6	101.077
71203.3	101.022
71614.3	100.967
72027.8	100.913
72443.6	100.859
72861.8	100.806
73282.5	100.754
73705.5	100.702
74131	100.651
74559	100.6
74989.4	100.55
75422.3	100.5
75857.8	100.452
76295.7	100.403
76736.1	100.356
77179.2	100.308
77624.7	100.262
78072.8	100.216
78523.6	100.17
78976.9	100.126
79432.8	100.081
79891.4	100.038
80352.6	99.9943
80816.5	99.9516
81283.1	99.9095
81752.3	99.8679
82224.3	99.8268
82699	99.7862
83176.4	99.7462
83656.6	99.7067
84139.5	99.6677
84625.3	99.6293
85113.8	99.5913
85605.2	99.5539
86099.4	99.5169
86596.4	99.4805
87096.4	99.4445
87599.2	99.4091
88104.9	99.3741
88613.5	99.3396
89125.1	99.3056
89639.6	99.2721
90157.1	99.239
90677.6	99.2064
91201.1	99.1743
91727.6	99.1427
92257.1	99.1115
92789.7	99.0808
93325.4	99.0505
93864.2	99.0207
94406.1	98.9913
94951.1	98.9624
95499.3	98.9339
96050.6	98.9058
96605.1	98.8782
97162.8	98.851
97723.7	98.8243
98287.9	98.7979
98855.3	98.772
99426	98.7465
100000	98.7214
100577	98.6968
101158	98.6725
101742	98.6487
102329	98.6252
102920	98.6022
103514	98.5796
104112	98.5573
104713	98.5354
105317	98.514
105925	98.4929
106537	98.4722
107152	98.4518
107771	98.4319
108393	98.4123
109018	98.3931
109648	98.3743
110281	98.3558
110917	98.3377
111558	98.3199
112202	98.3025
112850	98.2855
113501	98.2688
114156	98.2524
114815	98.2364
115478	98.2207
116145	98.2054
116815	98.1904
117490	98.1758
118168	98.1614
118850	98.1474
119536	98.1338
120226	98.1204
120921	98.1074
121619	98.0947
122321	98.0823
123027	98.0702
123737	98.0584
124451	98.0469
125170	98.0358
125893	98.0249
126619	98.0143
127350	98.004
128086	97.9941
128825	97.9844
129569	97.975
130317	97.9659
131069	97.957
131826	97.9485
132587	97.9402
133352	97.9322
134122	97.9245
134896	97.9171
135675	97.9099
136458	97.903
137246	97.8963
138038	97.89
138835	97.8838
139637	97.878
140443	97.8724
141254	97.867
142069	97.8619
142889	97.857
143714	97.8524
144544	97.8481
145378	97.8439
146218	97.84
147062	97.8364
147911	97.833
148765	97.8298
149624	97.8268
150487	97.8241
151356	97.8216
152230	97.8193
153109	97.8173
153993	97.8154
154882	97.8138
155776	97.8124
156675	97.8112
157580	97.8103
158489	97.8095
159404	97.8089
160325	97.8086
161250	97.8084
162181	97.8085
163117	97.8087
164059	97.8092
165006	97.8098
165959	97.8107
166917	97.8117
167880	97.8129
168850	97.8143
169824	97.8159
170805	97.8177
171791	97.8197
172783	97.8218
173780	97.8241
174783	97.8266
175792	97.8293
176807	97.8321
177828	97.8351
178855	97.8383
179887	97.8417
180926	97.8452
181970	97.8488
183021	97.8527
184077	97.8567
185140	97.8608
186209	97.8652
187284	97.8696
188365	97.8743
189452	97.879
190546	97.884
191646	97.889
192752	97.8943
193865	97.8996
194984	97.9051
196110	97.9108
197242	97.9166
198381	97.9225
199526	97.9286
200678	97.9348
201837	97.9411
203002	97.9476
204174	97.9542
205353	97.9609
206538	97.9678
207730	97.9748
208930	97.9819
210136	97.9891
211349	97.9964
212569	98.0039
213796	98.0115
215030	98.0192
216272	98.0271
217520	98.035
218776	98.0431
220039	98.0512
221309	98.0595
222587	98.0679
223872	98.0764
225165	98.085
226464	98.0937
227772	98.1025
229087	98.1114
230409	98.1204
231739	98.1295
233077	98.1387
234423	98.148
235776	98.1574
237137	98.1669
238506	98.1765
239883	98.1862
241268	98.196
242661	98.2058
244062	98.2158
245471	98.2258
246888	98.2359
248313	98.2461
249747	98.2564
251189	98.2668
252639	98.2772
254097	98.2878
255564	98.2984
257040	98.309
258523	98.3198
260016	98.3306
261517	98.3416
263027	98.3525
264545	98.3636
266073	98.3747
267609	98.3859
269153	98.3972
270707	98.4085
272270	98.4199
273842	98.4314
275423	98.4429
277013	98.4545
278612	98.4661
280221	98.4778
281838	98.4896
283465	98.5014
285102	98.5133
286748	98.5253
288403	98.5373
290068	98.5493
291743	98.5614
293427	98.5736
295121	98.5858
296825	98.5981
298538	98.6104
300262	98.6227
301995	98.6352
303739	98.6476
305492	98.6601
307256	98.6727
309030	98.6853
310814	98.6979
312608	98.7106
314413	98.7233
316228	98.7361
318053	98.7489
319890	98.7617
321736	98.7746
323594	98.7875
325462	98.8005
327341	98.8135
329230	98.8265
331131	98.8396
333043	98.8527
334965	98.8658
336899	98.879
338844	98.8922
340800	98.9054
342768	98.9187
344747	98.9319
346737	98.9453
348739	98.9586
350752	98.972
352777	98.9854
354813	98.9988
356862	99.0122
358922	99.0257
360994	99.0392
363078	99.0527
365174	99.0662
367282	99.0798
369403	99.0933
371535	99.1069
373680	99.1205
375837	99.1342
378007	99.1478
380189	99.1615
382384	99.1752
384592	99.1889
386812	99.2026
389045	99.2163
391291	99.23
393550	99.2438
395822	99.2576
398107	99.2713
400405	99.2851
402717	99.2989
405042	99.3127
407380	99.3266
409732	99.3404
412098	99.3542
414477	99.3681
416869	99.3819
419276	99.3958
421697	99.4097
424131	99.4235
426580	99.4374
429042	99.4513
431519	99.4652
434010	99.4791
436516	99.4929
439036	99.5068
441570	99.5207
444120	99.5346
446684	99.5485
449262	99.5624
451856	99.5763
454465	99.5902
457088	99.6041
459727	99.618
462381	99.6319
465050	99.6458
467735	99.6597
470435	99.6736
473151	99.6875
475883	99.7013
478630	99.7152
481393	99.7291
484172	99.7429
486968	99.7568
489779	99.7706
492606	99.7845
495450	99.7983
498310	99.8121
501187	99.826
504081	99.8398
506991	99.8536
509918	99.8674
512861	99.8812
515822	99.8949
518800	99.9087
521795	99.9224
524807	99.9362
527837	99.9499
530884	99.9636
533949	99.9773
537032	99.991
540132	100.005
543250	100.018
546387	100.032
549541	100.046
552713	100.059
555904	100.073
559114	100.087
562341	100.1
565588	100.114
568853	100.127
572137	100.141
575440	100.154
578762	100.168
582103	100.181
585464	100.195
588844	100.208
592243	100.222
595662	100.235
599101	100.248
602560	100.262
606038	100.275
609537	100.288
613056	100.302
616595	100.315
620155	100.328
623735	100.342
627336	100.355
630957	100.368
634600	100.381
638263	100.394
641948	100.407
645654	100.421
649382	100.434
653131	100.447
656901	100.46
660693	100.473
664508	100.486
668344	100.499
672202	100.512
676083	100.525
679986	100.538
683912	100.551
687860	100.563
691831	100.576
695825	100.589
699842	100.602
703882	100.615
707946	100.627
712033	100.64
716143	100.653
720278	100.665
724436	100.678
728618	100.691
732825	100.703
737055	100.716
741310	100.728
745590	100.741
749894	100.753
754223	100.766
758578	100.778
762957	100.791
767361	100.803
771792	100.815
776247	100.828
780728	100.84
785236	100.852
789769	100.864
794328	100.877
798914	100.889
803526	100.901
808165	100.913
812831	100.925
817523	100.937
822243	100.949
826990	100.961
831764	100.973
836566	100.985
841395	100.997
846253	101.009
851138	101.02
856052	101.032
860994	101.044
865964	101.056
870964	101.068
875992	101.079
881049	101.091
886135	101.102
891251	101.114
896396	101.126
901571	101.137
906776	101.149
912011	101.16
917276	101.171
922571	101.183
927897	101.194
933254	101.206
938642	101.217
944061	101.228
949511	101.239
954993	101.251
960506	101.262
966051	101.273
971628	101.284
977237	101.295
982879	101.306
988553	101.317
994260	101.328
1e+06	101.339
1.00577e+06	101.35
1.01158e+06	101.361
1.01742e+06	101.372
1.02329e+06	101.382
1.0292e+06	101.393
1.03514e+06	101.404
1.04112e+06	101.415
1.04713e+06	101.425
1.05317e+06	101.436
1.05925e+06	101.446
1.06537e+06	101.457
1.07152e+06	101.468
1.07771e+06	101.478
1.08393e+06	101.489
1.09018e+06	101.499
1.09648e+06	101.509
1.10281e+06	101.52
1.10917e+06	101.53
1.11558e+06	101.54
1.12202e+06	101.551
1.1285e+06	101.561
1.13501e+06	101.571
1.14156e+06	101.581
1.14815e+06	101.591
1.15478e+06	101.601
1.16145e+06	101.611
1.16815e+06	101.621
1.1749e+06	101.631
1.18168e+06	101.641
1.1885e+06	101.651
1.19536e+06	101.661
1.20226e+06	101.671
1.20921e+06	101.681
1.21619e+06	101.691
1.22321e+06	101.7
1.23027e+06	101.71
1.23737e+06	101.72
1.24451e+06	101.729
1.2517e+06	101.739
1.25893e+06	101.749
1.26619e+06	101.758
1.2735e+06	101.768
1.28086e+06	101.777
1.28825e+06	101.787
1.29569e+06	101.796
1.30317e+06	101.805
1.31069e+06	101.815
1.31826e+06	101.824
1.32587e+06	101.833
1.33352e+06	101.842
1.34122e+06	101.852
1.34896e+06	101.861
1.35675e+06	101.87
1.36458e+06	101.879
1.37246e+06	101.888
1.38038e+06	101.897
1.38835e+06	101.906
1.39637e+06	101.915
1.40443e+06	101.924
1.41254e+06	101.933
1.42069e+06	101.942
1.42889e+06	101.95
1.43714e+06	101.959
1.44544e+06	101.968
1.45378e+06	101.977
1.46218e+06	101.985
1.47062e+06	101.994
1.47911e+06	102.003
1.48765e+06	102.011
1.49624e+06	102.02
1.50487e+06	102.028
1.51356e+06	102.037
1.5223e+06	102.045
1.53109e+06	102.053
1.53993e+06	102.062
1.54882e+06	102.07
1.55776e+06	102.078
1.56675e+06	102.087
1.5758e+06	102.095
1.58489e+06	102.103
1.59404e+06	102.111
1.60325e+06	102.119
1.6125e+06	102.128
1.62181e+06	102.136
1.63117e+06	102.144
1.64059e+06	102.152
1.65006e+06	102.16
1.65959e+06	102.167
1.66917e+06	102.175
1.6788e+06	102.183
1.6885e+06	102.191
1.69824e+06	102.199
1.70805e+06	102.207
1.71791e+06	102.214
1.72783e+06	102.222
1.7378e+06	102.23
1.74783e+06	102.237
1.75792e+06	102.245
1.76807e+06	102.252
1.77828e+06	102.26
1.78855e+06	102.267
1.79887e+06	102.275
1.80926e+06	102.282
1.8197e+06	102.289
1.83021e+06	102.297
1.84077e+06	102.304
1.8514e+06	102.311
1.86209e+06	102.319
1.87284e+06	102.326
1.88365e+06	102.333
1.89452e+06	102.34
1.90546e+06	102.347
1.91646e+06	102.354
1.92752e+06	102.361
1.93865e+06	102.368
1.94984e+06	102.375
1.9611e+06	102.382
1.97242e+06	102.389
1.98381e+06	102.396
1.99526e+06	102.403
2.00678e+06	102.41
2.01837e+06	102.417
2.03002e+06	102.423
2.04174e+06	102.43
2.05353e+06	102.437
2.06538e+06	102.443
2.0773e+06	102.45
2.0893e+06	102.457
2.10136e+06	102.463
2.11349e+06	102.47
2.12569e+06	102.476
2.13796e+06	102.483
2.1503e+06	102.489
2.16272e+06	102.495
2.1752e+06	102.502
2.18776e+06	102.508
2.20039e+06	102.514
2.21309e+06	102.521
2.22587e+06	102.527
2.23872e+06	102.533
2.25165e+06	102.539
2.26464e+06	102.546
2.27772e+06	102.552
2.29087e+06	102.558
2.30409e+06	102.564
2.31739e+06	102.57
2.33077e+06	102.576
2.34423e+06	102.582
2.35776e+06	102.588
2.37137e+06	102.594
2.38506e+06	102.599
2.39883e+06	102.605
2.41268e+06	102.611
2.42661e+06	102.617
2.44062e+06	102.623
2.45471e+06	102.628
2.46888e+06	102.634
2.48313e+06	102.64
2.49747e+06	102.645
2.51189e+06	102.651
2.52639e+06	102.656
2.54097e+06	102.662
2.55564e+06	102.667
2.5704e+06	102.673
2.58523e+06	102.678
2.60016e+06	102.684
2.61517e+06	102.689
2.63027e+06	102.694
2.64545e+06	102.7
2.66073e+06	102.705
2.67609e+06	102.71
2.69153e+06	102.715
2.70707e+06	102.721
2.7227e+06	102.726
2.73842e+06	102.731
2.75423e+06	102.736
2.77013e+06	102.741
2.78612e+06	102.746
2.80221e+06	102.751
2.81838e+06	102.756
2.83465e+06	102.761
2.85102e+06	102.766
2.86748e+06	102.771
2.88403e+06	102.776
2.90068e+06	102.781
2.91743e+06	102.786
2.93427e+06	102.79
2.95121e+06	102.795
2.96825e+06	102.8
2.98538e+06	102.805
3.00262e+06	102.809
3.01995e+06	102.814
3.03739e+06	102.819
3.05492e+06	102.823
3.07256e+06	102.828
3.0903e+06	102.832
3.10814e+06	102.837
3.12608e+06	102.841
3.14413e+06	102.846
3.16228e+06	102.85
3.18053e+06	102.855
3.1989e+06	102.859
3.21736e+06	102.863
3.23594e+06	102.868
3.25462e+06	102.872
3.27341e+06	102.876
3.2923e+06	102.881
3.31131e+06	102.885
3.33043e+06	102.889
3.34965e+06	102.893
3.36899e+06	102.897
3.38844e+06	102.901
3.408e+06	102.906
3.42768e+06	102.91
3.44747e+06	102.914
3.46737e+06	102.918
3.48739e+06	102.922
3.50752e+06	102.926
3.52777e+06	102.929
3.54813e+06	102.933
3.56862e+06	102.937
3.58922e+06	102.941
3.60994e+06	102.945
3.63078e+06	102.949
3.65174e+06	102.953
3.67282e+06	102.956
3.69403e+06	102.96
3.71535e+06	102.964
3.7368e+06	102.967
3.75837e+06	102.971
3.78007e+06	102.975
3.80189e+06	102.978
3.82384e+06	102.982
3.84592e+06	102.985
3.86812e+06	102.989
3.89045e+06	102.992
3.91291e+06	102.996
3.9355e+06	102.999
3.95822e+06	103.003
3.98107e+06	103.006
4.00405e+06	103.01
4.02717e+06	103.013
4.05042e+06	103.016
4.0738e+06	103.02
4.09732e+06	103.023
4.12098e+06	103.026
4.14477e+06	103.029
4.16869e+06	103.033
4.19276e+06	103.036
4.21697e+06	103.039
4.24131e+06	103.042
4.2658e+06	103.045
4.29042e+06	103.048
4.31519e+06	103.052
4.3401e+06	103.055
4.36516e+06	103.058
4.39036e+06	103.061
4.4157e+06	103.064
4.4412e+06	103.067
4.46684e+06	103.07
4.49262e+06	103.072
4.51856e+06	103.075
4.54465e+06	103.078
4.57088e+06	103.081
4.59727e+06	103.084
4.62381e+06	103.087
4.6505e+06	103.09
4.67735e+06	103.092
4.70435e+06	103.095
4.73151e+06	103.098
4.75883e+06	103.101
4.7863e+06	103.103
4.81393e+06	103.106
4.84172e+06	103.109
4.86968e+06	103.111
4.89779e+06	103.114
4.92606e+06	103.116
4.9545e+06	103.119
4.9831e+06	103.121
5.01187e+06	103.124
5.04081e+06	103.126
5.06991e+06	103.129
5.09918e+06	103.131
5.12861e+06	103.134
5.15822e+06	103.136
5.188e+06	103.139
5.21795e+06	103.141
5.24807e+06	103.143
5.27837e+06	103.146
5.30884e+06	103.148
5.33949e+06	103.15
5.37032e+06	103.153
5.40132e+06	103.155
5.4325e+06	103.157
5.46387e+06	103.159
5.49541e+06	103.162
5.52713e+06	103.164
5.55904e+06	103.166
5.59114e+06	103.168
5.62341e+06	103.17
5.65588e+06	103.172
5.68853e+06	103.174
5.72137e+06	103.176
5.7544e+06	103.178
5.78762e+06	103.18
5.82103e+06	103.182
5.85464e+06	103.184
5.88844e+06	103.186
5.92243e+06	103.188
5.95662e+06	103.19
5.99101e+06	103.192
6.0256e+06	103.194
6.06038e+06	103.196
6.09537e+06	103.198
6.13056e+06	103.2
6.16595e+06	103.202
6.20155e+06	103.203
6.23735e+06	103.205
6.27336e+06	103.207
6.30957e+06	103.209
6.346e+06	103.211
6.38263e+06	103.212
6.41948e+06	103.214
6.45654e+06	103.216
6.49382e+06	103.217
6.53131e+06	103.219
6.56901e+06	103.221
6.60693e+06	103.222
6.64508e+06	103.224
6.68344e+06	103.226
6.72202e+06	103.227
6.76083e+06	103.229
6.79986e+06	103.23
6.83912e+06	103.232
6.8786e+06	103.233
6.91831e+06	103.235
6.95825e+06	103.236
6.99842e+06	103.238
7.03882e+06	103.239
7.07946e+06	103.241
7.12033e+06	103.242
7.16143e+06	103.244
7.20278e+06	103.245
7.24436e+06	103.246
7.28618e+06	103.248
7.32825e+06	103.249
7.37055e+06	103.25
7.4131e+06	103.252
7.4559e+06	103.253
7.49894e+06	103.254
7.54223e+06	103.256
7.58578e+06	103.257
7.62957e+06	103.258
7.67361e+06	103.259
7.71792e+06	103.261
7.76247e+06	103.262
7.80728e+06	103.263
7.85236e+06	103.264
7.89769e+06	103.265
7.94328e+06	103.266
7.98914e+06	103.268
8.03526e+06	103.269
8.08165e+06	103.27
8.12831e+06	103.271
8.17523e+06	103.272
8.22243e+06	103.273
8.2699e+06	103.274
8.31764e+06	103.275
8.36566e+06	103.276
8.41395e+06	103.277
8.46253e+06	103.278
8.51138e+06	103.279
8.56052e+06	103.28
8.60994e+06	103.281
8.65964e+06	103.282
8.70964e+06	103.283
8.75992e+06	103.284
8.81049e+06	103.285
8.86135e+06	103.286
8.91251e+06	103.287
8.96396e+06	103.288
9.01571e+06	103.289
9.06776e+06	103.289
9.12011e+06	103.29
9.17276e+06	103.291
9.22571e+06	103.292
9.27897e+06	103.293
9.33254e+06	103.294
9.38642e+06	103.294
9.44061e+06	103.295
9.49511e+06	103.296
9.54993e+06	103.297
9.60506e+06	103.297
9.66051e+06	103.298
9.71628e+06	103.299
9.77237e+06	103.3
9.82879e+06	103.3
9.88553e+06	103.301
9.9426e+06	103.302
1e+07	103.302
