Stopping power dEdx from Ionisation for Cr52[0.0] Z = 24 in Water, process name: ionIoni
E [MeV]	dEdx [MeV/mm]
0.001	23.5284
0.00100577	23.5967
0.00101158	23.6651
0.00101742	23.7337
0.00102329	23.8025
0.0010292	23.8715
0.00103514	23.9407
0.00104112	24.0101
0.00104713	24.0797
0.00105317	24.1496
0.00105925	24.2196
0.00106537	24.2898
0.00107152	24.3602
0.00107771	24.4308
0.00108393	24.5016
0.00109018	24.5727
0.00109648	24.6439
0.00110281	24.7153
0.00110917	24.787
0.00111558	24.8588
0.00112202	24.9309
0.0011285	25.0031
0.00113501	25.0756
0.00114156	25.1483
0.00114815	25.2212
0.00115478	25.2943
0.00116145	25.3676
0.00116815	25.4411
0.0011749	25.5149
0.00118168	25.5888
0.0011885	25.663
0.00119536	25.7373
0.00120226	25.8119
0.00120921	25.8867
0.00121619	25.9617
0.00122321	26.037
0.00123027	26.1124
0.00123737	26.1881
0.00124451	26.264
0.0012517	26.3401
0.00125893	26.4164
0.00126619	26.493
0.0012735	26.5697
0.00128086	26.6467
0.00128825	26.7239
0.00129569	26.8014
0.00130317	26.879
0.00131069	26.9569
0.00131826	27.035
0.00132587	27.1133
0.00133352	27.1919
0.00134122	27.2707
0.00134896	27.3497
0.00135675	27.4289
0.00136458	27.5084
0.00137246	27.5881
0.00138038	27.668
0.00138835	27.7481
0.00139637	27.8285
0.00140443	27.9091
0.00141254	27.99
0.00142069	28.0711
0.00142889	28.1524
0.00143714	28.2339
0.00144544	28.3157
0.00145378	28.3977
0.00146218	28.48
0.00147062	28.5625
0.00147911	28.6452
0.00148765	28.7282
0.00149624	28.8114
0.00150487	28.8949
0.00151356	28.9785
0.0015223	29.0625
0.00153109	29.1466
0.00153993	29.2311
0.00154882	29.3157
0.00155776	29.4006
0.00156675	29.4858
0.0015758	29.5712
0.00158489	29.6568
0.00159404	29.7427
0.00160325	29.8288
0.0016125	29.9152
0.00162181	30.0018
0.00163117	30.0887
0.00164059	30.1758
0.00165006	30.2632
0.00165959	30.3509
0.00166917	30.4387
0.0016788	30.5269
0.0016885	30.6153
0.00169824	30.7039
0.00170805	30.7928
0.00171791	30.882
0.00172783	30.9714
0.0017378	31.0611
0.00174783	31.151
0.00175792	31.2412
0.00176807	31.3317
0.00177828	31.4224
0.00178855	31.5134
0.00179887	31.6046
0.00180926	31.6961
0.0018197	31.7879
0.00183021	31.8799
0.00184077	31.9722
0.0018514	32.0647
0.00186209	32.1576
0.00187284	32.2507
0.00188365	32.344
0.00189452	32.4376
0.00190546	32.5315
0.00191646	32.6257
0.00192752	32.7202
0.00193865	32.8149
0.00194984	32.9099
0.0019611	33.0051
0.00197242	33.1007
0.00198381	33.1965
0.00199526	33.2926
0.00200678	33.3889
0.00201837	33.4856
0.00203002	33.5825
0.00204174	33.6797
0.00205353	33.7772
0.00206538	33.8749
0.0020773	33.973
0.0020893	34.0713
0.00210136	34.1699
0.00211349	34.2688
0.00212569	34.368
0.00213796	34.4675
0.0021503	34.5672
0.00216272	34.6673
0.0021752	34.7676
0.00218776	34.8682
0.00220039	34.9691
0.00221309	35.0703
0.00222587	35.1718
0.00223872	35.2736
0.00225165	35.3756
0.00226464	35.478
0.00227772	35.5807
0.00229087	35.6836
0.00230409	35.7869
0.00231739	35.8905
0.00233077	35.9943
0.00234423	36.0985
0.00235776	36.2029
0.00237137	36.3077
0.00238506	36.4127
0.00239883	36.5181
0.00241268	36.6237
0.00242661	36.7297
0.00244062	36.836
0.00245471	36.9426
0.00246888	37.0495
0.00248313	37.1566
0.00249747	37.2642
0.00251189	37.372
0.00252639	37.4801
0.00254097	37.5885
0.00255564	37.6973
0.0025704	37.8063
0.00258523	37.9157
0.00260016	38.0254
0.00261517	38.1354
0.00263027	38.2457
0.00264545	38.3564
0.00266073	38.4673
0.00267609	38.5786
0.00269153	38.6902
0.00270707	38.8021
0.0027227	38.9144
0.00273842	39.027
0.00275423	39.1399
0.00277013	39.2531
0.00278612	39.3666
0.00280221	39.4805
0.00281838	39.5947
0.00283465	39.7092
0.00285102	39.8241
0.00286748	39.9393
0.00288403	40.0548
0.00290068	40.1707
0.00291743	40.2868
0.00293427	40.4034
0.00295121	40.5202
0.00296825	40.6374
0.00298538	40.755
0.00300262	40.8728
0.00301995	40.9911
0.00303739	41.1096
0.00305492	41.2285
0.00307256	41.3477
0.0030903	41.4673
0.00310814	41.5873
0.00312608	41.7075
0.00314413	41.8282
0.00316228	41.9491
0.00318053	42.0704
0.0031989	42.1921
0.00321736	42.3141
0.00323594	42.4365
0.00325462	42.5592
0.00327341	42.6823
0.0032923	42.8057
0.00331131	42.9295
0.00333043	43.0536
0.00334965	43.1781
0.00336899	43.303
0.00338844	43.4282
0.003408	43.5538
0.00342768	43.6797
0.00344747	43.8061
0.00346737	43.9327
0.00348739	44.0598
0.00350752	44.1872
0.00352777	44.3149
0.00354813	44.4431
0.00356862	44.5716
0.00358922	44.7004
0.00360994	44.8297
0.00363078	44.9593
0.00365174	45.0893
0.00367282	45.2197
0.00369403	45.3504
0.00371535	45.4815
0.0037368	45.613
0.00375837	45.7449
0.00378007	45.8772
0.00380189	46.0098
0.00382384	46.1428
0.00384592	46.2762
0.00386812	46.41
0.00389045	46.5442
0.00391291	46.6788
0.0039355	46.8137
0.00395822	46.949
0.00398107	47.0848
0.00400405	47.2209
0.00402717	47.3574
0.00405042	47.4943
0.0040738	47.6316
0.00409732	47.7693
0.00412098	47.9074
0.00414477	48.0459
0.00416869	48.1848
0.00419276	48.3241
0.00421697	48.4638
0.00424131	48.6039
0.0042658	48.7444
0.00429042	48.8853
0.00431519	49.0266
0.0043401	49.1683
0.00436516	49.3104
0.00439036	49.4529
0.0044157	49.5959
0.0044412	49.7393
0.00446684	49.883
0.00449262	50.0272
0.00451856	50.1718
0.00454465	50.3168
0.00457088	50.4623
0.00459727	50.6081
0.00462381	50.7544
0.0046505	50.9011
0.00467735	51.0482
0.00470435	51.1958
0.00473151	51.3437
0.00475883	51.4921
0.0047863	51.6409
0.00481393	51.7902
0.00484172	51.9399
0.00486968	52.09
0.00489779	52.2405
0.00492606	52.3915
0.0049545	52.5429
0.0049831	52.6948
0.00501187	52.8471
0.00504081	52.9998
0.00506991	53.153
0.00509918	53.3066
0.00512861	53.4606
0.00515822	53.6151
0.005188	53.7701
0.00521795	53.9255
0.00524807	54.0813
0.00527837	54.2376
0.00530884	54.3943
0.00533949	54.5515
0.00537032	53.5905
0.00540132	53.7452
0.0054325	53.9004
0.00546387	54.056
0.00549541	54.2121
0.00552713	54.3686
0.00555904	54.5255
0.00559114	54.683
0.00562341	54.8408
0.00565588	54.9992
0.00568853	55.158
0.00572137	55.3172
0.0057544	55.4769
0.00578762	55.6371
0.00582103	55.7978
0.00585464	55.9589
0.00588844	56.1204
0.00592243	56.2825
0.00595662	56.445
0.00599101	56.608
0.0060256	56.7714
0.00606038	56.9353
0.00609537	57.0997
0.00613056	57.2646
0.00616595	57.4299
0.00620155	57.5958
0.00623735	57.7621
0.00627336	57.9289
0.00630957	58.0961
0.006346	58.2639
0.00638263	58.4321
0.00641948	58.6008
0.00645654	58.7701
0.00649382	58.9398
0.00653131	59.11
0.00656901	59.2806
0.00660693	59.4518
0.00664508	59.6235
0.00668344	59.7957
0.00672202	59.9683
0.00676083	60.1415
0.00679986	60.3152
0.00683912	60.4893
0.0068786	60.664
0.00691831	60.8392
0.00695825	61.0149
0.00699842	61.1911
0.00703882	61.3678
0.00707946	61.545
0.00712033	61.7227
0.00716143	61.901
0.00720278	62.0797
0.00724436	62.259
0.00728618	62.4388
0.00732825	62.6191
0.00737055	62.8
0.0074131	62.9813
0.0074559	63.1632
0.00749894	63.3456
0.00754223	63.5286
0.00758578	63.712
0.00762957	63.896
0.00767361	64.0806
0.00771792	64.2656
0.00776247	64.4512
0.00780728	64.6374
0.00785236	64.8241
0.00789769	65.0113
0.00794328	65.199
0.00798914	65.3873
0.00803526	65.5762
0.00808165	65.7656
0.00812831	65.9555
0.00817523	66.146
0.00822243	66.3371
0.0082699	66.5287
0.00831764	66.7208
0.00836566	66.9135
0.00841395	67.1068
0.00846253	67.3006
0.00851138	67.495
0.00856052	67.6899
0.00860994	67.8854
0.00865964	68.0815
0.00870964	68.2782
0.00875992	68.4754
0.00881049	68.6732
0.00886135	68.8715
0.00891251	69.0705
0.00896396	69.27
0.00901571	69.4701
0.00906776	69.6707
0.00912011	69.872
0.00917276	70.0738
0.00922571	70.2762
0.00927897	70.4792
0.00933254	70.6828
0.00938642	70.887
0.00944061	71.0917
0.00949511	71.2971
0.00954993	71.503
0.00960506	71.7096
0.00966051	71.9167
0.00971628	72.1245
0.00977237	72.3328
0.00982879	72.5418
0.00988553	72.7513
0.0099426	72.9615
0.01	73.1723
0.0100577	73.3837
0.0101158	73.5956
0.0101742	73.8083
0.0102329	74.0215
0.010292	74.2353
0.0103514	74.4498
0.0104112	74.6649
0.0104713	74.8806
0.0105317	75.0969
0.0105925	75.3138
0.0106537	75.5314
0.0107152	75.7496
0.0107771	75.9685
0.0108393	76.188
0.0109018	76.4081
0.0109648	76.6288
0.0110281	76.8502
0.0110917	77.0722
0.0111558	77.2949
0.0112202	77.5182
0.011285	77.7422
0.0113501	77.9668
0.0114156	78.1921
0.0114815	78.418
0.0115478	78.6446
0.0116145	78.8718
0.0116815	79.0997
0.011749	79.3282
0.0118168	79.5574
0.011885	79.7873
0.0119536	80.0179
0.0120226	80.2491
0.0120921	80.4809
0.0121619	80.7135
0.0122321	80.9467
0.0123027	81.1806
0.0123737	81.4152
0.0124451	81.6504
0.012517	81.8864
0.0125893	82.123
0.0126619	82.3603
0.012735	82.5983
0.0128086	82.837
0.0128825	83.0763
0.0129569	83.3164
0.0130317	83.5571
0.0131069	83.7986
0.0131826	84.0408
0.0132587	84.2836
0.0133352	84.5272
0.0134122	84.7715
0.0134896	85.0164
0.0135675	85.2621
0.0136458	85.5085
0.0137246	85.7556
0.0138038	86.0034
0.0138835	86.252
0.0139637	86.5013
0.0140443	86.7512
0.0141254	87.002
0.0142069	87.2534
0.0142889	87.5056
0.0143714	87.7585
0.0144544	88.0121
0.0145378	88.2665
0.0146218	88.5216
0.0147062	88.7774
0.0147911	89.034
0.0148765	89.2913
0.0149624	89.5494
0.0150487	89.8082
0.0151356	90.0678
0.015223	90.3281
0.0153109	90.5892
0.0153993	90.851
0.0154882	91.1136
0.0155776	91.377
0.0156675	91.6411
0.015758	91.906
0.0158489	92.1716
0.0159404	92.438
0.0160325	92.7052
0.016125	92.9732
0.0162181	93.2419
0.0163117	93.5115
0.0164059	93.7818
0.0165006	94.0529
0.0165959	94.3247
0.0166917	94.5974
0.016788	94.8708
0.016885	95.1451
0.0169824	95.4201
0.0170805	95.696
0.0171791	95.9726
0.0172783	96.25
0.017378	96.5283
0.0174783	96.8073
0.0175792	97.0872
0.0176807	97.3679
0.0177828	97.6494
0.0178855	97.9317
0.0179887	98.2148
0.0180926	98.4987
0.018197	98.7835
0.0183021	99.0691
0.0184077	99.3555
0.018514	99.6427
0.0186209	99.9308
0.0187284	100.22
0.0188365	100.509
0.0189452	100.8
0.0190546	101.092
0.0191646	101.384
0.0192752	101.677
0.0193865	101.971
0.0194984	102.266
0.019611	102.561
0.0197242	102.858
0.0198381	103.155
0.0199526	103.454
0.0200678	103.753
0.0201837	104.053
0.0203002	104.354
0.0204174	104.655
0.0205353	104.958
0.0206538	105.262
0.020773	105.566
0.020893	105.871
0.0210136	106.177
0.0211349	106.484
0.0212569	106.792
0.0213796	107.101
0.021503	107.411
0.0216272	107.721
0.021752	108.033
0.0218776	108.345
0.0220039	108.659
0.0221309	108.973
0.0222587	109.288
0.0223872	109.604
0.0225165	109.921
0.0226464	110.239
0.0227772	110.558
0.0229087	110.878
0.0230409	111.198
0.0231739	111.52
0.0233077	111.842
0.0234423	112.166
0.0235776	112.49
0.0237137	112.816
0.0238506	113.142
0.0239883	113.469
0.0241268	113.797
0.0242661	114.126
0.0244062	114.457
0.0245471	114.788
0.0246888	115.12
0.0248313	115.453
0.0249747	115.787
0.0251189	116.121
0.0252639	116.457
0.0254097	116.794
0.0255564	117.132
0.025704	117.471
0.0258523	117.811
0.0260016	118.151
0.0261517	118.493
0.0263027	118.836
0.0264545	119.18
0.0266073	119.525
0.0267609	119.87
0.0269153	120.217
0.0270707	120.565
0.027227	120.914
0.0273842	121.263
0.0275423	121.614
0.0277013	121.966
0.0278612	122.319
0.0280221	122.673
0.0281838	123.028
0.0283465	123.384
0.0285102	123.741
0.0286748	124.099
0.0288403	124.458
0.0290068	124.818
0.0291743	125.179
0.0293427	125.541
0.0295121	125.904
0.0296825	126.269
0.0298538	126.634
0.0300262	127
0.0301995	127.368
0.0303739	127.736
0.0305492	128.106
0.0307256	128.477
0.030903	128.849
0.0310814	129.221
0.0312608	129.595
0.0314413	129.97
0.0316228	130.346
0.0318053	130.724
0.031989	131.102
0.0321736	131.481
0.0323594	131.862
0.0325462	132.243
0.0327341	132.626
0.032923	133.01
0.0331131	133.395
0.0333043	133.781
0.0334965	134.168
0.0336899	134.556
0.0338844	134.946
0.03408	135.336
0.0342768	135.728
0.0344747	136.121
0.0346737	136.515
0.0348739	136.91
0.0350752	137.306
0.0352777	137.704
0.0354813	138.102
0.0356862	138.502
0.0358922	138.903
0.0360994	139.305
0.0363078	139.708
0.0365174	140.113
0.0367282	140.518
0.0369403	140.925
0.0371535	141.333
0.037368	141.742
0.0375837	142.152
0.0378007	142.564
0.0380189	142.977
0.0382384	143.39
0.0384592	143.806
0.0386812	144.222
0.0389045	144.639
0.0391291	145.058
0.039355	145.478
0.0395822	145.899
0.0398107	146.322
0.0400405	146.745
0.0402717	147.17
0.0405042	147.596
0.040738	148.024
0.0409732	148.452
0.0412098	148.882
0.0414477	149.313
0.0416869	149.745
0.0419276	150.179
0.0421697	150.614
0.0424131	151.05
0.042658	151.487
0.0429042	151.926
0.0431519	152.366
0.043401	152.807
0.0436516	153.25
0.0439036	153.693
0.044157	154.138
0.044412	154.585
0.0446684	155.032
0.0449262	155.481
0.0451856	155.932
0.0454465	156.383
0.0457088	156.836
0.0459727	157.29
0.0462381	157.746
0.046505	158.203
0.0467735	158.661
0.0470435	159.121
0.0473151	159.581
0.0475883	160.044
0.047863	160.507
0.0481393	160.972
0.0484172	161.438
0.0486968	161.906
0.0489779	162.375
0.0492606	162.845
0.049545	163.317
0.049831	163.79
0.0501187	164.264
0.0504081	164.74
0.0506991	165.217
0.0509918	165.696
0.0512861	166.176
0.0515822	166.657
0.05188	167.14
0.0521795	167.624
0.0524807	168.11
0.0527837	168.597
0.0530884	169.086
0.0533949	169.575
0.0537032	170.067
0.0540132	170.559
0.054325	171.054
0.0546387	171.549
0.0549541	172.046
0.0552713	172.545
0.0555904	173.045
0.0559114	173.546
0.0562341	174.049
0.0565588	174.553
0.0568853	175.059
0.0572137	175.566
0.057544	176.075
0.0578762	176.585
0.0582103	177.097
0.0585464	177.61
0.0588844	178.125
0.0592243	178.641
0.0595662	179.159
0.0599101	179.678
0.060256	180.199
0.0606038	180.721
0.0609537	181.245
0.0613056	181.77
0.0616595	182.297
0.0620155	182.825
0.0623735	183.355
0.0627336	183.886
0.0630957	184.419
0.06346	184.954
0.0638263	185.49
0.0641948	186.028
0.0645654	186.567
0.0649382	187.108
0.0653131	187.65
0.0656901	188.194
0.0660693	188.74
0.0664508	189.287
0.0668344	189.835
0.0672202	190.386
0.0676083	190.938
0.0679986	191.491
0.0683912	192.046
0.068786	192.603
0.0691831	193.161
0.0695825	193.722
0.0699842	194.283
0.0703882	194.846
0.0707946	195.411
0.0712033	195.978
0.0716143	196.546
0.0720278	197.116
0.0724436	197.688
0.0728618	198.261
0.0732825	198.836
0.0737055	199.412
0.074131	199.991
0.074559	200.57
0.0749894	201.152
0.0754223	201.735
0.0758578	202.32
0.0762957	202.907
0.0767361	203.496
0.0771792	204.086
0.0776247	204.678
0.0780728	205.271
0.0785236	205.867
0.0789769	206.464
0.0794328	207.063
0.0798914	207.663
0.0803526	208.265
0.0808165	208.869
0.0812831	209.475
0.0817523	210.083
0.0822243	210.692
0.082699	211.303
0.0831764	211.916
0.0836566	212.531
0.0841395	213.148
0.0846253	213.766
0.0851138	214.386
0.0856052	215.008
0.0860994	215.632
0.0865964	216.257
0.0870964	216.885
0.0875992	217.514
0.0881049	218.145
0.0886135	218.778
0.0891251	219.413
0.0896396	220.049
0.0901571	220.688
0.0906776	221.328
0.0912011	221.971
0.0917276	222.615
0.0922571	223.261
0.0927897	223.908
0.0933254	224.558
0.0938642	225.21
0.0944061	225.863
0.0949511	226.519
0.0954993	227.176
0.0960506	227.836
0.0966051	228.497
0.0971628	229.16
0.0977237	229.825
0.0982879	230.492
0.0988553	231.161
0.099426	231.832
0.1	232.505
0.100577	233.18
0.101158	233.857
0.101742	234.535
0.102329	235.216
0.10292	235.899
0.103514	236.584
0.104112	237.271
0.104713	237.959
0.105317	238.65
0.105925	239.343
0.106537	240.038
0.107152	240.735
0.107771	241.434
0.108393	242.135
0.109018	242.838
0.109648	243.543
0.110281	244.25
0.110917	244.959
0.111558	245.67
0.112202	246.384
0.11285	247.099
0.113501	247.817
0.114156	248.536
0.114815	249.258
0.115478	249.982
0.116145	250.708
0.116815	251.436
0.11749	252.166
0.118168	252.898
0.11885	253.633
0.119536	254.37
0.120226	255.108
0.120921	255.849
0.121619	256.593
0.122321	257.338
0.123027	258.085
0.123737	258.835
0.124451	259.587
0.12517	260.341
0.125893	261.097
0.126619	261.856
0.12735	262.616
0.128086	263.379
0.128825	264.145
0.129569	264.912
0.130317	265.682
0.131069	266.454
0.131826	267.228
0.132587	268.004
0.133352	268.783
0.134122	269.564
0.134896	270.347
0.135675	271.133
0.136458	271.921
0.137246	272.711
0.138038	273.503
0.138835	274.298
0.139637	275.095
0.140443	275.895
0.141254	276.697
0.142069	277.501
0.142889	278.307
0.143714	279.116
0.144544	279.927
0.145378	280.741
0.146218	281.557
0.147062	282.376
0.147911	283.196
0.148765	284.02
0.149624	284.845
0.150487	285.673
0.151356	286.504
0.15223	287.337
0.153109	288.172
0.153993	289.01
0.154882	289.85
0.155776	290.693
0.156675	291.538
0.15758	292.386
0.158489	293.236
0.159404	294.089
0.160325	294.944
0.16125	295.801
0.162181	296.662
0.163117	297.524
0.164059	298.389
0.165006	299.257
0.165959	300.128
0.166917	301
0.16788	301.876
0.16885	302.754
0.169824	303.634
0.170805	304.518
0.171791	305.403
0.172783	306.292
0.17378	307.183
0.174783	308.076
0.175792	308.972
0.176807	309.871
0.177828	310.773
0.178855	311.677
0.179887	312.584
0.180926	313.493
0.18197	314.405
0.183021	315.32
0.184077	316.237
0.18514	317.157
0.186209	318.08
0.187284	319.006
0.188365	319.934
0.189452	320.865
0.190546	321.799
0.191646	322.735
0.192752	323.675
0.193865	324.617
0.194984	325.561
0.19611	326.509
0.197242	327.459
0.198381	328.412
0.199526	329.368
0.200678	330.327
0.201837	331.288
0.203002	332.253
0.204174	333.22
0.205353	334.19
0.206538	335.163
0.20773	336.139
0.20893	337.117
0.210136	338.099
0.211349	339.083
0.212569	340.07
0.213796	341.061
0.21503	342.054
0.216272	343.05
0.21752	344.049
0.218776	345.051
0.220039	346.055
0.221309	347.063
0.222587	348.074
0.223872	349.088
0.225165	350.104
0.226464	351.124
0.227772	352.147
0.229087	353.172
0.230409	354.201
0.231739	355.233
0.233077	356.268
0.234423	357.305
0.235776	358.346
0.237137	359.39
0.238506	360.437
0.239883	361.487
0.241268	362.54
0.242661	363.597
0.244062	364.656
0.245471	365.719
0.246888	366.784
0.248313	367.853
0.249747	368.925
0.251189	370
0.252639	371.078
0.254097	372.16
0.255564	373.244
0.25704	374.332
0.258523	375.423
0.260016	376.517
0.261517	377.615
0.263027	378.716
0.264545	379.819
0.266073	380.927
0.267609	382.037
0.269153	383.151
0.270707	384.268
0.27227	385.388
0.273842	386.512
0.275423	387.638
0.277013	388.769
0.278612	389.902
0.280221	391.039
0.281838	392.179
0.283465	393.323
0.285102	394.47
0.286748	395.62
0.288403	396.774
0.290068	397.931
0.291743	399.092
0.293427	400.256
0.295121	401.423
0.296825	402.594
0.298538	403.768
0.300262	404.946
0.301995	406.127
0.303739	407.312
0.305492	408.5
0.307256	409.692
0.30903	410.887
0.310814	412.086
0.312608	413.289
0.314413	414.494
0.316228	415.704
0.318053	416.917
0.31989	418.134
0.321736	419.354
0.323594	420.578
0.325462	421.805
0.327341	423.036
0.32923	424.271
0.331131	425.509
0.333043	426.751
0.334965	427.997
0.336899	429.246
0.338844	430.499
0.3408	431.756
0.342768	433.016
0.344747	434.28
0.346737	435.548
0.348739	436.82
0.350752	438.095
0.352777	439.374
0.354813	440.657
0.356862	441.944
0.358922	443.234
0.360994	444.529
0.363078	445.827
0.365174	447.129
0.367282	448.435
0.369403	449.745
0.371535	451.058
0.37368	452.376
0.375837	453.697
0.378007	455.022
0.380189	456.352
0.382384	457.685
0.384592	459.022
0.386812	460.363
0.389045	461.708
0.391291	463.057
0.39355	464.41
0.395822	465.767
0.398107	467.128
0.400405	468.493
0.402717	469.862
0.405042	471.235
0.40738	472.612
0.409732	473.994
0.412098	475.379
0.414477	476.768
0.416869	478.162
0.419276	479.56
0.421697	480.962
0.424131	482.368
0.42658	483.778
0.429042	485.192
0.431519	486.611
0.43401	488.034
0.436516	489.46
0.439036	490.892
0.44157	492.327
0.44412	493.767
0.446684	495.211
0.449262	496.659
0.451856	498.112
0.454465	499.568
0.457088	501.03
0.459727	502.495
0.462381	503.965
0.46505	505.439
0.467735	506.918
0.470435	508.401
0.473151	509.888
0.475883	511.38
0.47863	512.876
0.481393	514.377
0.484172	515.882
0.486968	517.391
0.489779	518.905
0.492606	520.424
0.49545	521.947
0.49831	523.475
0.501187	525.007
0.504081	526.543
0.506991	528.085
0.509918	529.63
0.512861	531.181
0.515822	532.736
0.5188	534.295
0.521795	535.86
0.524807	537.429
0.527837	539.002
0.530884	540.58
0.533949	542.163
0.537032	543.751
0.540132	545.343
0.54325	546.94
0.546387	548.542
0.549541	550.149
0.552713	551.76
0.555904	553.376
0.559114	554.997
0.562341	556.623
0.565588	558.254
0.568853	559.889
0.572137	561.529
0.57544	563.175
0.578762	564.825
0.582103	566.48
0.585464	568.14
0.588844	569.805
0.592243	571.474
0.595662	573.149
0.599101	574.829
0.60256	576.514
0.606038	578.204
0.609537	579.899
0.613056	581.598
0.616595	583.303
0.620155	585.013
0.623735	586.729
0.627336	588.449
0.630957	590.174
0.6346	591.905
0.638263	593.64
0.641948	595.381
0.645654	597.127
0.649382	598.878
0.653131	600.635
0.656901	602.396
0.660693	604.163
0.664508	605.936
0.668344	607.713
0.672202	609.496
0.676083	611.284
0.679986	613.077
0.683912	614.876
0.68786	616.68
0.691831	618.49
0.695825	620.305
0.699842	622.125
0.703882	623.951
0.707946	625.782
0.712033	627.619
0.716143	629.461
0.720278	631.309
0.724436	633.162
0.728618	635.021
0.732825	636.885
0.737055	638.755
0.74131	640.63
0.74559	642.511
0.749894	644.398
0.754223	646.29
0.758578	648.188
0.762957	650.092
0.767361	652.001
0.771792	653.916
0.776247	655.837
0.780728	657.763
0.785236	659.696
0.789769	661.634
0.794328	663.577
0.798914	665.527
0.803526	667.483
0.808165	669.444
0.812831	671.411
0.817523	673.384
0.822243	675.363
0.82699	677.348
0.831764	679.339
0.836566	681.335
0.841395	683.338
0.846253	685.347
0.851138	687.362
0.856052	689.383
0.860994	691.409
0.865964	693.442
0.870964	695.481
0.875992	697.526
0.881049	699.578
0.886135	701.635
0.891251	703.699
0.896396	705.768
0.901571	707.844
0.906776	709.926
0.912011	712.015
0.917276	714.11
0.922571	716.21
0.927897	718.318
0.933254	720.431
0.938642	722.551
0.944061	724.677
0.949511	726.81
0.954993	728.949
0.960506	731.095
0.966051	733.246
0.971628	735.405
0.977237	737.57
0.982879	739.741
0.988553	741.919
0.99426	744.103
1	746.294
1.00577	748.492
1.01158	750.696
1.01742	752.906
1.02329	755.124
1.0292	757.348
1.03514	759.579
1.04112	761.816
1.04713	764.06
1.05317	766.311
1.05925	768.569
1.06537	770.833
1.07152	773.104
1.07771	775.382
1.08393	777.667
1.09018	779.959
1.09648	782.258
1.10281	784.564
1.10917	786.876
1.11558	789.196
1.12202	791.522
1.1285	793.856
1.13501	796.196
1.14156	798.544
1.14815	800.898
1.15478	803.26
1.16145	805.629
1.16815	808.005
1.1749	810.388
1.18168	812.778
1.1885	815.176
1.19536	817.58
1.20226	819.992
1.20921	822.411
1.21619	824.838
1.22321	827.272
1.23027	829.713
1.23737	832.161
1.24451	834.617
1.2517	837.081
1.25893	839.551
1.26619	842.03
1.2735	844.515
1.28086	847.009
1.28825	849.509
1.29569	852.017
1.30317	854.587
1.31069	857.232
1.31826	859.891
1.32587	862.565
1.33352	865.252
1.34122	867.954
1.34896	870.67
1.35675	873.4
1.36458	876.145
1.37246	878.904
1.38038	881.678
1.38835	884.466
1.39637	887.269
1.40443	890.087
1.41254	892.919
1.42069	895.766
1.42889	898.628
1.43714	901.505
1.44544	904.398
1.45378	907.305
1.46218	910.227
1.47062	913.164
1.47911	916.117
1.48765	919.085
1.49624	922.068
1.50487	925.067
1.51356	928.081
1.5223	931.111
1.53109	934.157
1.53993	937.218
1.54882	940.294
1.55776	943.387
1.56675	946.414
1.5758	949.433
1.58489	952.468
1.59404	955.519
1.60325	958.585
1.6125	961.666
1.62181	964.763
1.63117	967.875
1.64059	971.004
1.65006	974.147
1.65959	977.307
1.66917	980.482
1.6788	983.673
1.6885	986.88
1.69824	990.103
1.70805	993.342
1.71791	996.596
1.72783	999.867
1.7378	1003.15
1.74783	1006.46
1.75792	1009.78
1.76807	1013.11
1.77828	1016.46
1.78855	1019.83
1.79887	1023.22
1.80926	1026.62
1.8197	1030.04
1.83021	1033.47
1.84077	1036.92
1.8514	1040.39
1.86209	1043.87
1.87284	1047.37
1.88365	1050.89
1.89452	1054.42
1.90546	1057.97
1.91646	1061.54
1.92752	1065.12
1.93865	1068.72
1.94984	1072.34
1.9611	1075.98
1.97242	1079.63
1.98381	1083.3
1.99526	1086.98
2.00678	1090.68
2.01837	1094.4
2.03002	1098.14
2.04174	1101.9
2.05353	1105.67
2.06538	1109.45
2.0773	1113.26
2.0893	1117.06
2.10136	1120.87
2.11349	1124.7
2.12569	1128.55
2.13796	1132.41
2.1503	1136.29
2.16272	1140.19
2.1752	1144.1
2.18776	1148.04
2.20039	1151.99
2.21309	1155.96
2.22587	1159.95
2.23872	1163.95
2.25165	1167.98
2.26464	1172.02
2.27772	1176.08
2.29087	1180.16
2.30409	1184.25
2.31739	1188.37
2.33077	1192.5
2.34423	1196.66
2.35776	1200.83
2.37137	1205.02
2.38506	1209.23
2.39883	1213.46
2.41268	1217.71
2.42661	1221.98
2.44062	1226.27
2.45471	1230.57
2.46888	1234.9
2.48313	1239.25
2.49747	1243.62
2.51189	1248
2.52639	1252.41
2.54097	1256.84
2.55564	1261.29
2.5704	1265.76
2.58523	1270.25
2.60016	1274.77
2.61517	1279.3
2.63027	1283.85
2.64545	1288.43
2.66073	1293.02
2.67609	1297.64
2.69153	1302.28
2.70707	1306.94
2.7227	1311.62
2.73842	1316.33
2.75423	1321.05
2.77013	1325.8
2.78612	1330.57
2.80221	1335.36
2.81838	1340.17
2.83465	1345.01
2.85102	1349.86
2.86748	1354.74
2.88403	1359.64
2.90068	1364.57
2.91743	1369.51
2.93427	1374.48
2.95121	1379.47
2.96825	1384.48
2.98538	1389.51
3.00262	1394.57
3.01995	1399.65
3.03739	1404.75
3.05492	1409.87
3.07256	1415.02
3.0903	1420.19
3.10814	1425.38
3.12608	1430.59
3.14413	1435.83
3.16228	1441.09
3.18053	1446.37
3.1989	1451.67
3.21736	1457
3.23594	1462.35
3.25462	1467.72
3.27341	1473.12
3.2923	1478.54
3.31131	1483.98
3.33043	1489.44
3.34965	1494.93
3.36899	1500.44
3.38844	1505.98
3.408	1511.53
3.42768	1517.11
3.44747	1522.72
3.46737	1528.34
3.48739	1533.99
3.50752	1539.67
3.52777	1545.36
3.54813	1551.08
3.56862	1556.83
3.58922	1562.59
3.60994	1568.38
3.63078	1574.2
3.65174	1580.03
3.67282	1585.89
3.69403	1591.77
3.71535	1597.68
3.7368	1603.61
3.75837	1609.56
3.78007	1615.54
3.80189	1621.54
3.82384	1627.56
3.84592	1633.61
3.86812	1639.68
3.89045	1645.77
3.91291	1651.89
3.9355	1658.02
3.95822	1664.19
3.98107	1670.37
4.00405	1676.58
4.02717	1682.81
4.05042	1689.07
4.0738	1695.34
4.09732	1701.64
4.12098	1707.97
4.14477	1714.31
4.16869	1720.68
4.19276	1727.08
4.21697	1733.49
4.24131	1739.93
4.2658	1746.39
4.29042	1752.87
4.31519	1759.37
4.3401	1765.9
4.36516	1772.45
4.39036	1779.02
4.4157	1785.62
4.4412	1792.24
4.46684	1798.88
4.49262	1805.54
4.51856	1812.22
4.54465	1818.92
4.57088	1825.65
4.59727	1832.4
4.62381	1839.17
4.6505	1845.96
4.67735	1852.78
4.70435	1859.61
4.73151	1866.47
4.75883	1873.35
4.7863	1880.25
4.81393	1887.17
4.84172	1894.11
4.86968	1901.07
4.89779	1908.06
4.92606	1915.06
4.9545	1922.09
4.9831	1929.13
5.01187	1936.2
5.04081	1943.29
5.06991	1950.39
5.09918	1957.52
5.12861	1964.67
5.15822	1971.84
5.188	1979.02
5.21795	1986.23
5.24807	1993.46
5.27837	2000.71
5.30884	2007.98
5.33949	2015.27
5.37032	2022.58
5.40132	2029.91
5.4325	2037.25
5.46387	2044.62
5.49541	2052
5.52713	2059.41
5.55904	2066.83
5.59114	2074.27
5.62341	2081.73
5.65588	2089.2
5.68853	2096.7
5.72137	2104.21
5.7544	2111.74
5.78762	2119.29
5.82103	2126.86
5.85464	2134.44
5.88844	2142.05
5.92243	2149.66
5.95662	2157.3
5.99101	2164.95
6.0256	2172.62
6.06038	2180.31
6.09537	2188.02
6.13056	2195.74
6.16595	2203.47
6.20155	2211.23
6.23735	2218.99
6.27336	2226.78
6.30957	2234.58
6.346	2242.4
6.38263	2250.23
6.41948	2258.07
6.45654	2265.94
6.49382	2273.81
6.53131	2281.71
6.56901	2289.61
6.60693	2297.53
6.64508	2305.47
6.68344	2313.42
6.72202	2321.38
6.76083	2329.36
6.79986	2337.35
6.83912	2345.36
6.8786	2353.37
6.91831	2361.41
6.95825	2369.45
6.99842	2377.51
7.03882	2385.58
7.07946	2393.66
7.12033	2401.75
7.16143	2409.86
7.20278	2417.97
7.24436	2426.1
7.28618	2434.24
7.32825	2442.39
7.37055	2450.56
7.4131	2458.73
7.4559	2466.91
7.49894	2475.11
7.54223	2483.31
7.58578	2491.53
7.62957	2499.75
7.67361	2507.99
7.71792	2516.23
7.76247	2524.48
7.80728	2532.73
7.85236	2540.94
7.89769	2549.15
7.94328	2557.37
7.98914	2565.6
8.03526	2573.84
8.08165	2582.08
8.12831	2590.33
8.17523	2598.59
8.22243	2606.85
8.2699	2615.11
8.31764	2623.38
8.36566	2631.66
8.41395	2639.94
8.46253	2648.22
8.51138	2656.51
8.56052	2664.79
8.60994	2673.08
8.65964	2681.37
8.70964	2689.67
8.75992	2697.96
8.81049	2706.26
8.86135	2714.55
8.91251	2722.85
8.96396	2731.14
9.01571	2739.43
9.06776	2747.72
9.12011	2756.01
9.17276	2764.29
9.22571	2772.57
9.27897	2780.85
9.33254	2789.13
9.38642	2797.39
9.44061	2805.66
9.49511	2813.91
9.54993	2822.17
9.60506	2830.41
9.66051	2838.65
9.71628	2846.87
9.77237	2855.09
9.82879	2863.3
9.88553	2871.5
9.9426	2879.7
10	2887.87
10.0577	2896.04
10.1158	2904.2
10.1742	2912.34
10.2329	2920.47
10.292	2928.59
10.3514	2936.69
10.4112	2944.78
10.4713	2952.88
10.5317	2960.96
10.5925	2969.02
10.6537	2977.06
10.7152	2985.09
10.7771	2993.1
10.8393	3001.1
10.9018	3009.07
10.9648	3017.03
11.0281	3024.96
11.0917	3032.88
11.1558	3040.77
11.2202	3048.65
11.285	3056.5
11.3501	3064.33
11.4156	3072.14
11.4815	3079.93
11.5478	3087.69
11.6145	3095.43
11.6815	3103.15
11.749	3110.84
11.8168	3118.51
11.885	3126.16
11.9536	3133.77
12.0226	3141.37
12.0921	3148.94
12.1619	3156.48
12.2321	3163.99
12.3027	3171.48
12.3737	3178.94
12.4451	3186.37
12.517	3193.78
12.5893	3201.16
12.6619	3208.51
12.735	3215.83
12.8086	3223.12
12.8825	3230.38
12.9569	3237.61
13.0317	3244.81
13.1069	3251.99
13.1826	3259.13
13.2587	3266.24
13.3352	3273.33
13.4122	3280.38
13.4896	3287.39
13.5675	3294.38
13.6458	3301.33
13.7246	3308.25
13.8038	3315.14
13.8835	3321.99
13.9637	3328.81
14.0443	3335.59
14.1254	3342.34
14.2069	3349.05
14.2889	3355.73
14.3714	3362.37
14.4544	3368.98
14.5378	3375.55
14.6218	3382.08
14.7062	3388.58
14.7911	3395.04
14.8765	3401.46
14.9624	3407.85
15.0487	3414.19
15.1356	3420.5
15.223	3426.78
15.3109	3433.01
15.3993	3439.21
15.4882	3445.37
15.5776	3451.49
15.6675	3457.58
15.758	3463.64
15.8489	3469.66
15.9404	3475.65
16.0325	3481.59
16.125	3487.49
16.2181	3493.35
16.3117	3499.18
16.4059	3504.96
16.5006	3510.7
16.5959	3516.4
16.6917	3522.06
16.788	3527.67
16.885	3533.25
16.9824	3538.78
17.0805	3544.27
17.1791	3549.72
17.2783	3555.13
17.378	3560.49
17.4783	3565.81
17.5792	3571.09
17.6807	3576.32
17.7828	3581.51
17.8855	3586.66
17.9887	3591.77
18.0926	3596.83
18.197	3601.85
18.3021	3606.82
18.4077	3611.75
18.514	3616.64
18.6209	3621.49
18.7284	3626.29
18.8365	3631.05
18.9452	3635.77
19.0546	3640.45
19.1646	3645.08
19.2752	3649.68
19.3865	3654.23
19.4984	3658.74
19.611	3663.21
19.7242	3667.64
19.8381	3672.03
19.9526	3676.38
20.0678	3680.7
20.1837	3684.97
20.3002	3689.21
20.4174	3693.41
20.5353	3697.58
20.6538	3701.71
20.773	3705.8
20.893	3709.82
21.0136	3713.8
21.1349	3717.74
21.2569	3721.65
21.3796	3725.53
21.503	3729.37
21.6272	3733.17
21.752	3736.94
21.8776	3740.67
22.0039	3744.36
22.1309	3748.02
22.2587	3751.65
22.3872	3755.23
22.5165	3758.78
22.6464	3762.3
22.7772	3765.77
22.9087	3769.21
23.0409	3772.61
23.1739	3775.98
23.3077	3779.3
23.4423	3782.59
23.5776	3785.84
23.7137	3789.05
23.8506	3792.23
23.9883	3795.37
24.1268	3798.47
24.2661	3801.53
24.4062	3804.55
24.5471	3807.54
24.6888	3810.49
24.8313	3813.4
24.9747	3816.27
25.1189	3819.11
25.2639	3821.91
25.4097	3824.67
25.5564	3827.39
25.704	3830.08
25.8523	3832.74
26.0016	3835.35
26.1517	3837.95
26.3027	3840.51
26.4545	3843.03
26.6073	3845.51
26.7609	3847.96
26.9153	3850.38
27.0707	3852.75
27.227	3855.1
27.3842	3857.4
27.5423	3859.67
27.7013	3861.9
27.8612	3864.1
28.0221	3866.26
28.1838	3868.38
28.3465	3870.46
28.5102	3872.51
28.6748	3874.53
28.8403	3876.51
29.0068	3878.45
29.1743	3880.35
29.3427	3882.22
29.5121	3884.06
29.6825	3885.85
29.8538	3887.62
30.0262	3889.34
30.1995	3891.04
30.3739	3892.7
30.5492	3894.32
30.7256	3895.91
30.903	3897.47
31.0814	3898.99
31.2608	3900.49
31.4413	3901.95
31.6228	3903.37
31.8053	3904.77
31.989	3906.13
32.1736	3907.46
32.3594	3908.76
32.5462	3910.02
32.7341	3911.25
32.923	3912.45
33.1131	3913.62
33.3043	3914.75
33.4965	3915.85
33.6899	3916.92
33.8844	3917.95
34.08	3918.95
34.2768	3919.92
34.4747	3920.86
34.6737	3921.76
34.8739	3922.63
35.0752	3923.47
35.2777	3924.28
35.4813	3925.05
35.6862	3925.8
35.8922	3926.51
36.0994	3927.19
36.3078	3927.84
36.5174	3928.46
36.7282	3929.05
36.9403	3929.61
37.1535	3930.14
37.368	3930.63
37.5837	3931.1
37.8007	3931.54
38.0189	3931.94
38.2384	3932.32
38.4592	3932.66
38.6812	3932.97
38.9045	3933.25
39.1291	3933.5
39.355	3933.72
39.5822	3933.91
39.8107	3934.07
40.0405	3934.2
40.2717	3934.3
40.5042	3934.36
40.738	3934.4
40.9732	3934.41
41.2098	3934.39
41.4477	3934.33
41.6869	3934.25
41.9276	3934.14
42.1697	3934
42.4131	3933.83
42.658	3933.63
42.9042	3933.4
43.1519	3933.15
43.401	3932.86
43.6516	3932.54
43.9036	3932.2
44.157	3931.82
44.412	3931.42
44.6684	3930.98
44.9262	3930.52
45.1856	3930.03
45.4465	3929.51
45.7088	3928.96
45.9727	3928.38
46.2381	3927.77
46.505	3927.13
46.7735	3926.47
47.0435	3925.78
47.3151	3925.06
47.5883	3924.31
47.863	3923.54
48.1393	3922.73
48.4172	3921.9
48.6968	3921.04
48.9779	3920.16
49.2606	3919.25
49.545	3918.31
49.831	3917.34
50.1187	3916.35
50.4081	3915.34
50.6991	3914.29
50.9918	3913.22
51.2861	3912.13
51.5822	3911.01
51.88	3909.87
52.1795	3908.7
52.4807	3907.51
52.7837	3906.3
53.0884	3905.06
53.3949	3903.8
53.7032	3902.51
54.0132	3901.2
54.325	3899.86
54.6387	3898.5
54.9541	3897.12
55.2713	3895.7
55.5904	3894.27
55.9114	3892.8
56.2341	3891.31
56.5588	3889.8
56.8853	3888.26
57.2137	3886.69
57.544	3885.1
57.8762	3883.48
58.2103	3881.84
58.5464	3880.17
58.8844	3878.47
59.2243	3876.75
59.5662	3875
59.9101	3873.22
60.256	3871.42
60.6038	3869.59
60.9537	3867.73
61.3056	3865.85
61.6595	3863.94
62.0155	3862
62.3735	3860.04
62.7336	3858.05
63.0957	3856.03
63.46	3853.99
63.8263	3851.92
64.1948	3849.83
64.5654	3847.7
64.9382	3845.55
65.3131	3843.38
65.6901	3841.18
66.0693	3838.95
66.4508	3836.69
66.8344	3834.41
67.2202	3832.11
67.6083	3829.77
67.9986	3827.41
68.3912	3825.03
68.786	3822.62
69.1831	3820.18
69.5825	3817.72
69.9842	3815.24
70.3882	3812.72
70.7946	3810.19
71.2033	3807.63
71.6143	3805.04
72.0278	3802.44
72.4436	3799.8
72.8618	3797.15
73.2825	3794.47
73.7055	3791.77
74.131	3789.04
74.559	3786.3
74.9894	3783.53
75.4223	3780.74
75.8578	3777.93
76.2957	3775.09
76.7361	3772.24
77.1792	3769.37
77.6247	3766.48
78.0728	3763.56
78.5236	3760.61
78.9769	3757.65
79.4328	3754.66
79.8914	3751.65
80.3526	3748.63
80.8165	3745.59
81.2831	3742.52
81.7523	3739.44
82.2243	3736.34
82.699	3733.22
83.1764	3730.08
83.6566	3726.93
84.1395	3723.75
84.6253	3720.55
85.1138	3717.34
85.6052	3714.1
86.0994	3710.85
86.5964	3707.57
87.0964	3704.28
87.5992	3700.97
88.1049	3697.64
88.6135	3694.29
89.1251	3690.92
89.6396	3687.53
90.1571	3684.12
90.6776	3680.69
91.2011	3677.24
91.7276	3673.77
92.2571	3670.28
92.7897	3666.78
93.3254	3663.25
93.8642	3659.7
94.4061	3656.14
94.9511	3652.55
95.4993	3648.94
96.0506	3645.32
96.6051	3641.67
97.1628	3638.01
97.7237	3634.32
98.2879	3630.62
98.8553	3626.9
99.426	3623.15
100	3619.39
100.577	3615.61
101.158	3611.81
101.742	3607.98
102.329	3604.14
102.92	3600.28
103.514	3596.4
104.112	3592.5
104.713	3588.58
105.317	3584.63
105.925	3580.67
106.537	3576.69
107.152	3572.69
107.771	3568.67
108.393	3564.63
109.018	3560.57
109.648	3556.49
110.281	3552.39
110.917	3548.27
111.558	3544.14
112.202	3539.98
112.85	3535.81
113.501	3531.61
114.156	3527.4
114.815	3523.17
115.478	3518.92
116.145	3514.66
116.815	3510.37
117.49	3506.07
118.168	3501.74
118.85	3497.4
119.536	3493.04
120.226	3488.67
120.921	3484.27
121.619	3479.86
122.321	3475.43
123.027	3470.98
123.737	3466.51
124.451	3462.03
125.17	3457.53
125.893	3453.01
126.619	3448.48
127.35	3443.93
128.086	3439.36
128.825	3434.77
129.569	3430.17
130.317	3425.55
131.069	3420.92
131.826	3416.27
132.587	3411.6
133.352	3406.92
134.122	3402.22
134.896	3397.51
135.675	3392.78
136.458	3388.03
137.246	3383.27
138.038	3378.5
138.835	3373.7
139.637	3368.9
140.443	3364.07
141.254	3359.24
142.069	3354.38
142.889	3349.51
143.714	3344.63
144.544	3339.73
145.378	3334.82
146.218	3329.89
147.062	3324.95
147.911	3319.99
148.765	3315.02
149.624	3310.04
150.487	3305.04
151.356	3300.02
152.23	3294.99
153.109	3289.95
153.993	3284.89
154.882	3279.82
155.776	3274.74
156.675	3269.64
157.58	3264.52
158.489	3259.39
159.404	3254.25
160.325	3249.09
161.25	3243.92
162.181	3238.74
163.117	3233.54
164.059	3228.33
165.006	3223.11
165.959	3217.88
166.917	3212.63
167.88	3207.37
168.85	3202.09
169.824	3196.8
170.805	3191.51
171.791	3186.19
172.783	3180.87
173.78	3175.53
174.783	3170.18
175.792	3164.82
176.807	3159.45
177.828	3154.06
178.855	3148.67
179.887	3143.26
180.926	3137.83
181.97	3132.4
183.021	3126.95
184.077	3121.5
185.14	3116.03
186.209	3110.55
187.284	3105.05
188.365	3099.55
189.452	3094.03
190.546	3088.5
191.646	3082.97
192.752	3077.41
193.865	3071.85
194.984	3066.28
196.11	3060.69
197.242	3055.1
198.381	3049.49
199.526	3043.87
200.678	3038.23
201.837	3032.59
203.002	3026.94
204.174	3021.27
205.353	3015.59
206.538	3009.9
207.73	3004.2
208.93	2998.51
210.136	2992.8
211.349	2987.09
212.569	2981.36
213.796	2975.63
215.03	2969.88
216.272	2964.12
217.52	2958.35
218.776	2952.57
220.039	2946.78
221.309	2940.98
222.587	2935.17
223.872	2929.35
225.165	2923.52
226.464	2917.69
227.772	2911.84
229.087	2905.98
230.409	2900.12
231.739	2894.24
233.077	2888.36
234.423	2882.47
235.776	2876.57
237.137	2870.66
238.506	2864.74
239.883	2858.82
241.268	2852.88
242.661	2846.94
244.062	2841
245.471	2835.04
246.888	2829.08
248.313	2823.11
249.747	2817.13
251.189	2811.15
252.639	2805.16
254.097	2799.17
255.564	2793.16
257.04	2787.15
258.523	2781.14
260.016	2775.12
261.517	2769.08
263.027	2763.04
264.545	2757
266.073	2750.95
267.609	2744.89
269.153	2738.83
270.707	2732.76
272.27	2726.69
273.842	2720.61
275.423	2714.53
277.013	2708.44
278.612	2702.35
280.221	2696.25
281.838	2690.15
283.465	2684.05
285.102	2677.94
286.748	2671.82
288.403	2665.71
290.068	2659.58
291.743	2653.46
293.427	2647.33
295.121	2641.2
296.825	2635.06
298.538	2628.92
300.262	2622.78
301.995	2616.63
303.739	2610.48
305.492	2604.32
307.256	2598.16
309.03	2592
310.814	2585.83
312.608	2579.66
314.413	2573.49
316.228	2567.31
318.053	2561.13
319.89	2554.94
321.736	2548.75
323.594	2542.56
325.462	2536.37
327.341	2530.17
329.23	2523.97
331.131	2517.77
333.043	2511.57
334.965	2505.36
336.899	2499.15
338.844	2492.94
340.8	2486.73
342.768	2480.51
344.747	2474.3
346.737	2468.08
348.739	2461.86
350.752	2455.64
352.777	2449.41
354.813	2443.19
356.862	2436.96
358.922	2430.73
360.994	2424.5
363.078	2418.27
365.174	2412.04
367.282	2405.81
369.403	2399.57
371.535	2393.34
373.68	2387.1
375.837	2380.86
378.007	2374.62
380.189	2368.38
382.384	2362.14
384.592	2355.9
386.812	2349.66
389.045	2343.42
391.291	2337.18
393.55	2330.94
395.822	2324.7
398.107	2318.45
400.405	2312.21
402.717	2305.97
405.042	2299.73
407.38	2293.49
409.732	2287.25
412.098	2281.01
414.477	2274.77
416.869	2268.53
419.276	2262.29
421.697	2256.05
424.131	2249.81
426.58	2243.57
429.042	2237.33
431.519	2231.09
434.01	2224.86
436.516	2218.63
439.036	2212.4
441.57	2206.17
444.12	2199.94
446.684	2193.71
449.262	2187.49
451.856	2181.27
454.465	2175.05
457.088	2168.84
459.727	2162.63
462.381	2156.42
465.05	2150.22
467.735	2144.01
470.435	2137.82
473.151	2131.62
475.883	2125.43
478.63	2119.25
481.393	2113.06
484.172	2106.88
486.968	2100.71
489.779	2094.54
492.606	2088.37
495.45	2082.2
498.31	2076.04
501.187	2069.88
504.081	2063.73
506.991	2057.58
509.918	2051.43
512.861	2045.28
515.822	2039.14
518.8	2033
521.795	2026.85
524.807	2020.71
527.837	2014.56
530.884	2008.42
533.949	2002.28
537.032	1996.15
540.132	1990.02
543.25	1983.89
546.387	1977.77
549.541	1971.65
552.713	1965.53
555.904	1959.43
559.114	1953.32
562.341	1947.22
565.588	1941.13
568.853	1935.04
572.137	1928.96
575.44	1922.89
578.762	1916.82
582.103	1910.76
585.464	1904.71
588.844	1898.66
592.243	1892.62
595.662	1886.59
599.101	1880.57
602.56	1874.55
606.038	1868.54
609.537	1862.54
613.056	1856.55
616.595	1850.57
620.155	1844.6
623.735	1838.63
627.336	1832.68
630.957	1826.73
634.6	1820.79
638.263	1814.86
641.948	1808.94
645.654	1803.04
649.382	1797.14
653.131	1791.25
656.901	1785.37
660.693	1779.5
664.508	1773.63
668.344	1767.78
672.202	1761.94
676.083	1756.11
679.986	1750.29
683.912	1744.47
687.86	1738.67
691.831	1732.87
695.825	1727.09
699.842	1721.31
703.882	1715.55
707.946	1709.79
712.033	1704.04
716.143	1698.29
720.278	1692.56
724.436	1686.83
728.618	1681.12
732.825	1675.4
737.055	1669.7
741.31	1664
745.59	1658.31
749.894	1652.62
754.223	1646.94
758.578	1641.27
762.957	1635.6
767.361	1629.93
771.792	1624.26
776.247	1618.6
780.728	1612.97
785.236	1607.43
789.769	1601.89
794.328	1596.36
798.914	1590.83
803.526	1585.31
808.165	1579.79
812.831	1574.27
817.523	1568.76
822.243	1563.25
826.99	1557.75
831.764	1552.25
836.566	1546.76
841.395	1541.27
846.253	1535.79
851.138	1530.32
856.052	1524.85
860.994	1519.39
865.964	1513.94
870.964	1508.49
875.992	1503.06
881.049	1497.63
886.135	1492.21
891.251	1486.8
896.396	1481.39
901.571	1476
906.776	1470.62
912.011	1465.24
917.276	1459.88
922.571	1454.52
927.897	1449.18
933.254	1443.84
938.642	1438.52
944.061	1433.21
949.511	1427.91
954.993	1422.62
960.506	1417.34
966.051	1412.08
971.628	1406.82
977.237	1401.58
982.879	1396.35
988.553	1391.14
994.26	1385.93
1000	1380.74
1005.77	1375.56
1011.58	1370.4
1017.42	1365.25
1023.29	1360.11
1029.2	1354.98
1035.14	1349.87
1041.12	1344.77
1047.13	1339.66
1053.17	1334.56
1059.25	1329.48
1065.37	1324.41
1071.52	1319.36
1077.71	1314.32
1083.93	1309.29
1090.18	1304.28
1096.48	1299.28
1102.81	1294.3
1109.17	1289.34
1115.58	1284.39
1122.02	1279.45
1128.5	1274.53
1135.01	1269.62
1141.56	1264.73
1148.15	1259.85
1154.78	1254.99
1161.45	1250.15
1168.15	1245.32
1174.9	1240.5
1181.68	1235.7
1188.5	1230.91
1195.36	1226.14
1202.26	1221.39
1209.21	1216.65
1216.19	1211.92
1223.21	1207.21
1230.27	1202.51
1237.37	1197.82
1244.51	1193.15
1251.7	1188.49
1258.93	1183.85
1266.19	1179.22
1273.5	1174.6
1280.86	1169.99
1288.25	1165.39
1295.69	1160.81
1303.17	1156.24
1310.69	1151.67
1318.26	1147.12
1325.87	1142.58
1333.52	1138.05
1341.22	1133.53
1348.96	1129.02
1356.75	1124.53
1364.58	1120.05
1372.46	1115.57
1380.38	1111.12
1388.35	1106.67
1396.37	1102.24
1404.43	1097.82
1412.54	1093.41
1420.69	1089.01
1428.89	1084.63
1437.14	1080.26
1445.44	1075.91
1453.78	1071.56
1462.18	1067.23
1470.62	1062.92
1479.11	1058.61
1487.65	1054.32
1496.24	1050.05
1504.87	1045.79
1513.56	1041.54
1522.3	1037.3
1531.09	1033.08
1539.93	1028.87
1548.82	1024.67
1557.76	1020.49
1566.75	1016.31
1575.8	1012.14
1584.89	1007.99
1594.04	1003.85
1603.25	999.723
1612.5	995.61
1621.81	991.512
1631.17	987.427
1640.59	983.356
1650.06	979.3
1659.59	975.258
1669.17	971.23
1678.8	967.217
1688.5	963.219
1698.24	959.236
1708.05	955.267
1717.91	951.314
1727.83	947.375
1737.8	943.452
1747.83	939.544
1757.92	935.651
1768.07	931.773
1778.28	927.91
1788.55	924.063
1798.87	920.231
1809.26	916.414
1819.7	912.612
1830.21	908.825
1840.77	905.054
1851.4	901.297
1862.09	897.555
1872.84	893.828
1883.65	890.116
1894.52	886.418
1905.46	882.735
1916.46	879.066
1927.52	875.411
1938.65	871.77
1949.84	868.142
1961.1	864.528
1972.42	860.926
1983.81	857.338
1995.26	853.762
2006.78	850.198
2018.37	846.646
2030.02	843.106
2041.74	839.576
2053.53	836.057
2065.38	832.549
2077.3	829.05
2089.3	825.584
2101.36	822.132
2113.49	818.69
2125.69	815.258
2137.96	811.836
2150.3	808.424
2162.72	805.023
2175.2	801.632
2187.76	798.251
2200.39	794.882
2213.09	791.523
2225.87	788.176
2238.72	784.839
2251.65	781.514
2264.64	778.201
2277.72	774.899
2290.87	771.609
2304.09	768.331
2317.39	765.065
2330.77	761.811
2344.23	758.569
2357.76	755.339
2371.37	752.122
2385.06	748.918
2398.83	745.726
2412.68	742.546
2426.61	739.379
2440.62	736.225
2454.71	733.084
2468.88	729.955
2483.13	726.839
2497.47	723.737
2511.89	720.647
2526.39	717.569
2540.97	714.505
2555.64	711.454
2570.4	708.415
2585.23	705.389
2600.16	702.376
2615.17	699.369
2630.27	696.374
2645.45	693.392
2660.73	690.423
2676.09	687.467
2691.53	684.524
2707.07	681.594
2722.7	678.677
2738.42	675.772
2754.23	672.881
2770.13	670.003
2786.12	667.138
2802.21	664.286
2818.38	661.447
2834.65	658.62
2851.02	655.807
2867.48	653.006
2884.03	650.218
2900.68	647.443
2917.43	644.681
2934.27	641.931
2951.21	639.193
2968.25	636.467
2985.38	633.754
3002.62	631.052
3019.95	628.362
3037.39	625.684
3054.92	623.017
3072.56	620.362
3090.3	617.717
3108.14	615.083
3126.08	612.459
3144.13	609.845
3162.28	607.242
3180.53	604.649
3198.9	602.066
3217.36	599.494
3235.94	596.933
3254.62	594.382
3273.41	591.842
3292.3	589.313
3311.31	586.794
3330.43	584.286
3349.65	581.79
3368.99	579.304
3388.44	576.829
3408	574.365
3427.68	571.912
3447.47	569.469
3467.37	567.038
3487.39	564.617
3507.52	562.207
3527.77	559.808
3548.13	557.42
3568.62	555.042
3589.22	552.675
3609.94	550.318
3630.78	547.972
3651.74	545.636
3672.82	543.31
3694.03	540.995
3715.35	538.69
3736.8	536.395
3758.37	534.11
3780.07	531.836
3801.89	529.573
3823.84	527.319
3845.92	525.077
3868.12	522.844
3890.45	520.622
3912.91	518.41
3935.5	516.209
3958.22	514.017
3981.07	511.836
4004.05	509.665
4027.17	507.504
4050.42	505.354
4073.8	503.212
4097.32	501.081
4120.98	498.959
4144.77	496.847
4168.69	494.745
4192.76	492.651
4216.97	490.567
4241.31	488.493
4265.8	486.427
4290.42	484.372
4315.19	482.326
4340.1	480.289
4365.16	478.262
4390.36	476.244
4415.7	474.237
4441.2	472.238
4466.84	470.249
4492.62	468.27
4518.56	466.3
4544.65	464.339
4570.88	462.388
4597.27	460.447
4623.81	458.514
4650.5	456.591
4677.35	454.677
4704.35	452.772
4731.51	450.876
4758.83	448.989
4786.3	447.112
4813.93	445.242
4841.72	443.382
4869.68	441.531
4897.79	439.688
4926.06	437.853
4954.5	436.028
4983.1	434.21
5011.87	432.4
5040.81	430.47
5069.91	428.543
5099.18	426.625
5128.61	424.716
5158.22	422.816
5188	420.924
5217.95	419.038
5248.07	417.159
5278.37	415.289
5308.84	413.427
5339.49	411.573
5370.32	409.728
5401.32	407.892
5432.5	406.065
5463.87	404.246
5495.41	402.436
5527.13	400.635
5559.04	398.844
5591.14	397.061
5623.41	395.288
5655.88	393.523
5688.53	391.768
5721.37	390.023
5754.4	388.286
5787.62	386.56
5821.03	384.842
5854.64	383.134
5888.44	381.436
5922.43	379.748
5956.62	378.069
5991.01	376.399
6025.6	374.739
6060.38	373.089
6095.37	371.449
6130.56	369.819
6165.95	368.198
6201.55	366.587
6237.35	364.985
6273.36	363.394
6309.57	361.812
6346	360.24
6382.63	358.677
6419.48	357.124
6456.54	355.581
6493.82	354.048
6531.31	352.523
6569.01	351.009
6606.93	349.504
6645.08	348.008
6683.44	346.521
6722.02	345.044
6760.83	343.576
6799.86	342.117
6839.12	340.666
6878.6	339.225
6918.31	337.792
6958.25	336.368
6998.42	334.953
7038.82	333.545
7079.46	332.146
7120.33	330.755
7161.43	329.372
7202.78	327.996
7244.36	326.628
7286.18	325.267
7328.25	323.913
7370.55	322.566
7413.1	321.225
7455.9	319.891
7498.94	318.563
7542.23	317.241
7585.78	315.924
7629.57	314.613
7673.61	313.306
7717.92	312.004
7762.47	310.707
7807.28	309.421
7852.36	308.17
7897.69	306.923
7943.28	305.681
7989.14	304.442
8035.26	303.208
8081.65	301.978
8128.31	300.751
8175.23	299.53
8222.43	298.312
8269.9	297.099
8317.64	295.891
8365.66	294.687
8413.95	293.488
8462.53	292.293
8511.38	291.103
8560.52	289.918
8609.94	288.738
8659.64	287.563
8709.64	286.392
8759.92	285.227
8810.49	284.067
8861.35	282.911
8912.51	281.761
8963.96	280.617
9015.71	279.477
9067.76	278.343
9120.11	277.214
9172.76	276.091
9225.71	274.973
9278.97	273.861
9332.54	272.754
9386.42	271.653
9440.61	270.557
9495.11	269.468
9549.93	268.383
9605.06	267.305
9660.51	266.233
9716.28	265.166
9772.37	264.105
9828.79	263.05
9885.53	262.001
9942.6	260.958
10000	259.921
10057.7	258.89
10115.8	257.865
10174.2	256.846
10232.9	255.833
10292	254.826
10351.4	253.825
10411.2	252.829
10471.3	251.834
10531.7	250.845
10592.5	249.862
10653.7	248.886
10715.2	247.915
10777.1	246.951
10839.3	245.992
10901.8	245.04
10964.8	244.094
11028.1	243.154
11091.7	242.22
11155.8	241.292
11220.2	240.37
11285	239.453
11350.1	238.543
11415.6	237.639
11481.5	236.741
11547.8	235.849
11614.5	234.962
11681.5	234.081
11749	233.206
11816.8	232.337
11885	231.473
11953.6	230.614
12022.6	229.761
12092.1	228.914
12161.9	228.072
12232.1	227.235
12302.7	226.403
12373.7	225.576
12445.1	224.754
12517	223.937
12589.3	223.125
12661.9	222.317
12735	221.513
12808.6	220.714
12882.5	219.919
12956.9	219.128
13031.7	218.34
13106.9	217.556
13182.6	216.776
13258.7	216
13335.2	215.228
13412.2	214.459
13489.6	213.694
13567.5	212.933
13645.8	212.176
13724.6	211.423
13803.8	210.673
13883.5	209.928
13963.7	209.187
14044.3	208.449
14125.4	207.716
14206.9	206.986
14288.9	206.26
14371.4	205.539
14454.4	204.821
14537.8	204.107
14621.8	203.397
14706.2	202.691
14791.1	201.989
14876.5	201.291
14962.4	200.597
15048.7	199.907
15135.6	199.22
15223	198.537
15310.9	197.858
15399.3	197.183
15488.2	196.512
15577.6	195.844
15667.5	195.179
15758	194.517
15848.9	193.859
15940.4	193.204
16032.5	192.554
16125	191.906
16218.1	191.263
16311.7	190.624
16405.9	189.988
16500.6	189.356
16595.9	188.728
16691.7	188.104
16788	187.483
16885	186.867
16982.4	186.254
17080.5	185.645
17179.1	185.04
17278.3	184.439
17378	183.841
17478.3	183.248
17579.2	182.658
17680.7	182.072
17782.8	181.49
17885.5	180.912
17988.7	180.337
18092.6	179.767
18197	179.2
18302.1	178.637
18407.7	178.077
18514	177.521
18620.9	176.969
18728.4	176.421
18836.5	175.875
18945.2	175.334
19054.6	174.796
19164.6	174.261
19275.2	173.73
19386.5	173.202
19498.4	172.678
19611	172.156
19724.2	171.638
19838.1	171.123
19952.6	170.61
20067.8	170.101
20183.7	169.595
20300.2	169.091
20417.4	168.59
20535.3	168.091
20653.8	167.595
20773	167.101
20893	166.614
21013.6	166.13
21134.9	165.648
21256.9	165.168
21379.6	164.69
21503	164.215
21627.2	163.743
21752	163.272
21877.6	162.805
22003.9	162.339
22130.9	161.876
22258.7	161.416
22387.2	160.958
22516.5	160.502
22646.4	160.049
22777.2	159.599
22908.7	159.151
23040.9	158.705
23173.9	158.262
23307.7	157.822
23442.3	157.384
23577.6	156.949
23713.7	156.517
23850.6	156.087
23988.3	155.66
24126.8	155.235
24266.1	154.813
24406.2	154.393
24547.1	153.977
24688.8	153.562
24831.3	153.151
24974.7	152.742
25118.9	152.335
25263.9	151.932
25409.7	151.53
25556.4	151.132
25704	150.736
25852.3	150.342
26001.6	149.951
26151.7	149.562
26302.7	149.175
26454.5	148.79
26607.3	148.408
26760.9	148.029
26915.3	147.652
27070.7	147.277
27227	146.906
27384.2	146.536
27542.3	146.169
27701.3	145.805
27861.2	145.443
28022.1	145.084
28183.8	144.727
28346.5	144.373
28510.2	144.021
28674.8	143.672
28840.3	143.325
29006.8	142.98
29174.3	142.638
29342.7	142.298
29512.1	141.961
29682.5	141.626
29853.8	141.293
30026.2	140.962
30199.5	140.634
30373.9	140.308
30549.2	139.983
30725.6	139.662
30903	139.342
31081.4	139.024
31260.8	138.708
31441.3	138.394
31622.8	138.082
31805.3	137.772
31989	137.464
32173.6	137.158
32359.4	136.854
32546.2	136.551
32734.1	136.251
32923	135.953
33113.1	135.657
33304.3	135.362
33496.5	135.07
33689.9	134.779
33884.4	134.491
34080	134.204
34276.8	133.92
34474.7	133.637
34673.7	133.356
34873.9	133.078
35075.2	132.801
35277.7	132.526
35481.3	132.252
35686.2	131.981
35892.2	131.711
36099.4	131.443
36307.8	131.177
36517.4	130.913
36728.2	130.651
36940.3	130.39
37153.5	130.131
37368	129.873
37583.7	129.618
37800.7	129.364
38018.9	129.112
38238.4	128.862
38459.2	128.613
38681.2	128.367
38904.5	128.122
39129.1	127.878
39355	127.637
39582.2	127.397
39810.7	127.159
40040.5	126.923
40271.7	126.689
40504.2	126.456
40738	126.225
40973.2	125.995
41209.8	125.768
41447.7	125.542
41686.9	125.318
41927.6	125.095
42169.7	124.874
42413.1	124.655
42658	124.437
42904.2	124.221
43151.9	124.006
43401	123.794
43651.6	123.582
43903.6	123.373
44157	123.165
44412	122.958
44668.4	122.753
44926.2	122.55
45185.6	122.348
45446.5	122.148
45708.8	121.949
45972.7	121.752
46238.1	121.556
46505	121.361
46773.5	121.168
47043.5	120.976
47315.1	120.786
47588.3	120.596
47863	120.408
48139.3	120.222
48417.2	120.036
48696.8	119.851
48977.9	119.668
49260.6	119.486
49545	119.305
49831	119.124
50118.7	118.945
50408.1	118.766
50699.1	118.588
50991.8	118.411
51286.1	118.235
51582.2	118.059
51880	117.884
52179.5	117.707
52480.7	117.53
52783.7	117.353
53088.4	117.179
53394.9	117.005
53703.2	116.833
54013.2	116.662
54325	116.492
54638.7	116.324
54954.1	116.157
55271.3	115.991
55590.4	115.826
55911.4	115.663
56234.1	115.501
56558.8	115.34
56885.3	115.18
57213.7	115.022
57544	114.864
57876.2	114.708
58210.3	114.553
58546.4	114.399
58884.4	114.247
59224.3	114.095
59566.2	113.945
59910.1	113.796
60256	113.648
60603.8	113.501
60953.7	113.356
61305.6	113.211
61659.5	113.068
62015.5	112.925
62373.5	112.784
62733.6	112.644
63095.7	112.505
63460	112.367
63826.3	112.23
64194.8	112.095
64565.4	111.96
64938.2	111.826
65313.1	111.694
65690.1	111.562
66069.3	111.432
66450.8	111.303
66834.4	111.174
67220.2	111.047
67608.3	110.921
67998.6	110.795
68391.2	110.671
68786	110.548
69183.1	110.426
69582.5	110.304
69984.2	110.184
70388.2	110.065
70794.6	109.947
71203.3	109.829
71614.3	109.713
72027.8	109.597
72443.6	109.483
72861.8	109.37
73282.5	109.257
73705.5	109.145
74131	109.035
74559	108.925
74989.4	108.816
75422.3	108.708
75857.8	108.601
76295.7	108.495
76736.1	108.39
77179.2	108.286
77624.7	108.182
78072.8	108.08
78523.6	107.978
78976.9	107.877
79432.8	107.777
79891.4	107.678
80352.6	107.58
80816.5	107.483
81283.1	107.386
81752.3	107.291
82224.3	107.196
82699	107.102
83176.4	107.009
83656.6	106.917
84139.5	106.825
84625.3	106.734
85113.8	106.645
85605.2	106.556
86099.4	106.467
86596.4	106.38
87096.4	106.293
87599.2	106.207
88104.9	106.122
88613.5	106.038
89125.1	105.954
89639.6	105.871
90157.1	105.789
90677.6	105.708
91201.1	105.627
91727.6	105.548
92257.1	105.468
92789.7	105.39
93325.4	105.312
93864.2	105.236
94406.1	105.159
94951.1	105.084
95499.3	105.009
96050.6	104.935
96605.1	104.862
97162.8	104.789
97723.7	104.717
98287.9	104.646
98855.3	104.576
99426	104.506
100000	104.436
100577	104.368
101158	104.3
101742	104.233
102329	104.166
102920	104.1
103514	104.035
104112	103.97
104713	103.907
105317	103.843
105925	103.781
106537	103.718
107152	103.657
107771	103.596
108393	103.536
109018	103.476
109648	103.417
110281	103.359
110917	103.301
111558	103.244
112202	103.187
112850	103.131
113501	103.076
114156	103.021
114815	102.967
115478	102.913
116145	102.86
116815	102.807
117490	102.755
118168	102.704
118850	102.653
119536	102.603
120226	102.553
120921	102.504
121619	102.455
122321	102.407
123027	102.359
123737	102.312
124451	102.265
125170	102.219
125893	102.173
126619	102.128
127350	102.084
128086	102.04
128825	101.996
129569	101.953
130317	101.91
131069	101.868
131826	101.827
132587	101.785
133352	101.745
134122	101.705
134896	101.665
135675	101.626
136458	101.587
137246	101.548
138038	101.51
138835	101.473
139637	101.436
140443	101.4
141254	101.363
142069	101.328
142889	101.293
143714	101.258
144544	101.223
145378	101.189
146218	101.156
147062	101.123
147911	101.09
148765	101.058
149624	101.026
150487	100.995
151356	100.964
152230	100.933
153109	100.903
153993	100.873
154882	100.843
155776	100.814
156675	100.786
157580	100.757
158489	100.729
159404	100.702
160325	100.675
161250	100.648
162181	100.621
163117	100.595
164059	100.569
165006	100.544
165959	100.519
166917	100.494
167880	100.47
168850	100.446
169824	100.422
170805	100.399
171791	100.376
172783	100.354
173780	100.331
174783	100.309
175792	100.288
176807	100.266
177828	100.245
178855	100.225
179887	100.204
180926	100.184
181970	100.165
183021	100.145
184077	100.126
185140	100.107
186209	100.089
187284	100.071
188365	100.053
189452	100.035
190546	100.018
191646	100.001
192752	99.9838
193865	99.9673
194984	99.9511
196110	99.9351
197242	99.9194
198381	99.904
199526	99.8889
200678	99.874
201837	99.8594
203002	99.8451
204174	99.831
205353	99.8172
206538	99.8036
207730	99.7903
208930	99.7772
210136	99.7643
211349	99.7518
212569	99.7394
213796	99.7273
215030	99.7154
216272	99.7038
217520	99.6924
218776	99.6813
220039	99.6703
221309	99.6596
222587	99.6491
223872	99.6389
225165	99.6288
226464	99.619
227772	99.6094
229087	99.6
230409	99.5908
231739	99.5818
233077	99.573
234423	99.5645
235776	99.5561
237137	99.5479
238506	99.54
239883	99.5322
241268	99.5246
242661	99.5173
244062	99.5101
245471	99.5031
246888	99.4963
248313	99.4896
249747	99.4832
251189	99.4769
252639	99.4708
254097	99.4649
255564	99.4592
257040	99.4536
258523	99.4483
260016	99.443
261517	99.438
263027	99.4331
264545	99.4284
266073	99.4238
267609	99.4194
269153	99.4152
270707	99.4111
272270	99.4072
273842	99.4034
275423	99.3998
277013	99.3963
278612	99.393
280221	99.3898
281838	99.3868
283465	99.3839
285102	99.3812
286748	99.3786
288403	99.3761
290068	99.3738
291743	99.3716
293427	99.3695
295121	99.3676
296825	99.3658
298538	99.3641
300262	99.3626
301995	99.3611
303739	99.3599
305492	99.3587
307256	99.3576
309030	99.3567
310814	99.3559
312608	99.3552
314413	99.3546
316228	99.3542
318053	99.3538
319890	99.3536
321736	99.3534
323594	99.3534
325462	99.3535
327341	99.3537
329230	99.354
331131	99.3544
333043	99.3549
334965	99.3554
336899	99.3561
338844	99.3569
340800	99.3578
342768	99.3588
344747	99.3599
346737	99.361
348739	99.3623
350752	99.3636
352777	99.3651
354813	99.3666
356862	99.3682
358922	99.3699
360994	99.3716
363078	99.3735
365174	99.3754
367282	99.3774
369403	99.3795
371535	99.3817
373680	99.384
375837	99.3863
378007	99.3887
380189	99.3911
382384	99.3937
384592	99.3963
386812	99.399
389045	99.4017
391291	99.4045
393550	99.4074
395822	99.4103
398107	99.4133
400405	99.4164
402717	99.4195
405042	99.4227
407380	99.426
409732	99.4293
412098	99.4327
414477	99.4361
416869	99.4396
419276	99.4431
421697	99.4467
424131	99.4503
426580	99.454
429042	99.4577
431519	99.4615
434010	99.4654
436516	99.4693
439036	99.4732
441570	99.4772
444120	99.4812
446684	99.4853
449262	99.4894
451856	99.4935
454465	99.4977
457088	99.502
459727	99.5063
462381	99.5106
465050	99.5149
467735	99.5193
470435	99.5238
473151	99.5282
475883	99.5327
478630	99.5373
481393	99.5418
484172	99.5464
486968	99.5511
489779	99.5557
492606	99.5604
495450	99.5651
498310	99.5699
501187	99.5747
504081	99.5795
506991	99.5843
509918	99.5892
512861	99.5941
515822	99.599
518800	99.6039
521795	99.6089
524807	99.6138
527837	99.6188
530884	99.6239
533949	99.6289
537032	99.634
540132	99.6391
543250	99.6442
546387	99.6493
549541	99.6544
552713	99.6596
555904	99.6647
559114	99.6699
562341	99.6751
565588	99.6803
568853	99.6855
572137	99.6908
575440	99.696
578762	99.7013
582103	99.7066
585464	99.7118
588844	99.7171
592243	99.7224
595662	99.7277
599101	99.7331
602560	99.7384
606038	99.7437
609537	99.7491
613056	99.7544
616595	99.7598
620155	99.7651
623735	99.7705
627336	99.7759
630957	99.7812
634600	99.7866
638263	99.792
641948	99.7974
645654	99.8027
649382	99.8081
653131	99.8135
656901	99.8189
660693	99.8243
664508	99.8297
668344	99.8351
672202	99.8404
676083	99.8458
679986	99.8512
683912	99.8566
687860	99.862
691831	99.8673
695825	99.8727
699842	99.8781
703882	99.8834
707946	99.8888
712033	99.8941
716143	99.8995
720278	99.9048
724436	99.9101
728618	99.9155
732825	99.9208
737055	99.9261
741310	99.9314
745590	99.9367
749894	99.942
754223	99.9473
758578	99.9525
762957	99.9578
767361	99.963
771792	99.9683
776247	99.9735
780728	99.9787
785236	99.9839
789769	99.9891
794328	99.9943
798914	99.9995
803526	100.005
808165	100.01
812831	100.015
817523	100.02
822243	100.025
826990	100.03
831764	100.035
836566	100.04
841395	100.045
846253	100.051
851138	100.056
856052	100.061
860994	100.066
865964	100.071
870964	100.075
875992	100.08
881049	100.085
886135	100.09
891251	100.095
896396	100.1
901571	100.105
906776	100.11
912011	100.115
917276	100.119
922571	100.124
927897	100.129
933254	100.134
938642	100.139
944061	100.143
949511	100.148
954993	100.153
960506	100.157
966051	100.162
971628	100.167
977237	100.171
982879	100.176
988553	100.18
994260	100.185
1e+06	100.189
1.00577e+06	100.194
1.01158e+06	100.198
1.01742e+06	100.203
1.02329e+06	100.207
1.0292e+06	100.212
1.03514e+06	100.216
1.04112e+06	100.221
1.04713e+06	100.225
1.05317e+06	100.229
1.05925e+06	100.234
1.06537e+06	100.238
1.07152e+06	100.242
1.07771e+06	100.246
1.08393e+06	100.251
1.09018e+06	100.255
1.09648e+06	100.259
1.10281e+06	100.263
1.10917e+06	100.267
1.11558e+06	100.271
1.12202e+06	100.276
1.1285e+06	100.28
1.13501e+06	100.284
1.14156e+06	100.288
1.14815e+06	100.292
1.15478e+06	100.296
1.16145e+06	100.3
1.16815e+06	100.304
1.1749e+06	100.308
1.18168e+06	100.311
1.1885e+06	100.315
1.19536e+06	100.319
1.20226e+06	100.323
1.20921e+06	100.327
1.21619e+06	100.331
1.22321e+06	100.334
1.23027e+06	100.338
1.23737e+06	100.342
1.24451e+06	100.345
1.2517e+06	100.349
1.25893e+06	100.353
1.26619e+06	100.356
1.2735e+06	100.36
1.28086e+06	100.363
1.28825e+06	100.367
1.29569e+06	100.371
1.30317e+06	100.374
1.31069e+06	100.378
1.31826e+06	100.381
1.32587e+06	100.384
1.33352e+06	100.388
1.34122e+06	100.391
1.34896e+06	100.394
1.35675e+06	100.398
1.36458e+06	100.401
1.37246e+06	100.404
1.38038e+06	100.408
1.38835e+06	100.411
1.39637e+06	100.414
1.40443e+06	100.417
1.41254e+06	100.42
1.42069e+06	100.423
1.42889e+06	100.427
1.43714e+06	100.43
1.44544e+06	100.433
1.45378e+06	100.436
1.46218e+06	100.439
1.47062e+06	100.442
1.47911e+06	100.445
1.48765e+06	100.448
1.49624e+06	100.451
1.50487e+06	100.453
1.51356e+06	100.456
1.5223e+06	100.459
1.53109e+06	100.462
1.53993e+06	100.465
1.54882e+06	100.467
1.55776e+06	100.47
1.56675e+06	100.473
1.5758e+06	100.476
1.58489e+06	100.478
1.59404e+06	100.481
1.60325e+06	100.484
1.6125e+06	100.486
1.62181e+06	100.489
1.63117e+06	100.491
1.64059e+06	100.494
1.65006e+06	100.496
1.65959e+06	100.499
1.66917e+06	100.501
1.6788e+06	100.504
1.6885e+06	100.506
1.69824e+06	100.508
1.70805e+06	100.511
1.71791e+06	100.513
1.72783e+06	100.515
1.7378e+06	100.518
1.74783e+06	100.52
1.75792e+06	100.522
1.76807e+06	100.524
1.77828e+06	100.527
1.78855e+06	100.529
1.79887e+06	100.531
1.80926e+06	100.533
1.8197e+06	100.535
1.83021e+06	100.537
1.84077e+06	100.539
1.8514e+06	100.541
1.86209e+06	100.543
1.87284e+06	100.545
1.88365e+06	100.547
1.89452e+06	100.549
1.90546e+06	100.551
1.91646e+06	100.553
1.92752e+06	100.555
1.93865e+06	100.557
1.94984e+06	100.559
1.9611e+06	100.561
1.97242e+06	100.562
1.98381e+06	100.564
1.99526e+06	100.566
2.00678e+06	100.568
2.01837e+06	100.569
2.03002e+06	100.571
2.04174e+06	100.573
2.05353e+06	100.574
2.06538e+06	100.576
2.0773e+06	100.577
2.0893e+06	100.579
2.10136e+06	100.581
2.11349e+06	100.582
2.12569e+06	100.584
2.13796e+06	100.585
2.1503e+06	100.587
2.16272e+06	100.588
2.1752e+06	100.589
2.18776e+06	100.591
2.20039e+06	100.592
2.21309e+06	100.594
2.22587e+06	100.595
2.23872e+06	100.596
2.25165e+06	100.598
2.26464e+06	100.599
2.27772e+06	100.6
2.29087e+06	100.601
2.30409e+06	100.603
2.31739e+06	100.604
2.33077e+06	100.605
2.34423e+06	100.606
2.35776e+06	100.607
2.37137e+06	100.609
2.38506e+06	100.61
2.39883e+06	100.611
2.41268e+06	100.612
2.42661e+06	100.613
2.44062e+06	100.614
2.45471e+06	100.615
2.46888e+06	100.616
2.48313e+06	100.617
2.49747e+06	100.618
2.51189e+06	100.619
2.52639e+06	100.62
2.54097e+06	100.621
2.55564e+06	100.622
2.5704e+06	100.623
2.58523e+06	100.623
2.60016e+06	100.624
2.61517e+06	100.625
2.63027e+06	100.626
2.64545e+06	100.627
2.66073e+06	100.628
2.67609e+06	100.628
2.69153e+06	100.629
2.70707e+06	100.63
2.7227e+06	100.63
2.73842e+06	100.631
2.75423e+06	100.632
2.77013e+06	100.633
2.78612e+06	100.633
2.80221e+06	100.634
2.81838e+06	100.634
2.83465e+06	100.635
2.85102e+06	100.636
2.86748e+06	100.636
2.88403e+06	100.637
2.90068e+06	100.637
2.91743e+06	100.638
2.93427e+06	100.638
2.95121e+06	100.639
2.96825e+06	100.639
2.98538e+06	100.64
3.00262e+06	100.64
3.01995e+06	100.641
3.03739e+06	100.641
3.05492e+06	100.642
3.07256e+06	100.642
3.0903e+06	100.643
3.10814e+06	100.643
3.12608e+06	100.643
3.14413e+06	100.644
3.16228e+06	100.644
3.18053e+06	100.644
3.1989e+06	100.645
3.21736e+06	100.645
3.23594e+06	100.645
3.25462e+06	100.646
3.27341e+06	100.646
3.2923e+06	100.646
3.31131e+06	100.646
3.33043e+06	100.647
3.34965e+06	100.647
3.36899e+06	100.647
3.38844e+06	100.647
3.408e+06	100.647
3.42768e+06	100.648
3.44747e+06	100.648
3.46737e+06	100.648
3.48739e+06	100.648
3.50752e+06	100.648
3.52777e+06	100.648
3.54813e+06	100.649
3.56862e+06	100.649
3.58922e+06	100.649
3.60994e+06	100.649
3.63078e+06	100.649
3.65174e+06	100.649
3.67282e+06	100.649
3.69403e+06	100.649
3.71535e+06	100.649
3.7368e+06	100.649
3.75837e+06	100.649
3.78007e+06	100.649
3.80189e+06	100.649
3.82384e+06	100.649
3.84592e+06	100.65
3.86812e+06	100.65
3.89045e+06	100.65
3.91291e+06	100.65
3.9355e+06	100.649
3.95822e+06	100.649
3.98107e+06	100.649
4.00405e+06	100.649
4.02717e+06	100.649
4.05042e+06	100.649
4.0738e+06	100.649
4.09732e+06	100.649
4.12098e+06	100.649
4.14477e+06	100.649
4.16869e+06	100.649
4.19276e+06	100.649
4.21697e+06	100.649
4.24131e+06	100.649
4.2658e+06	100.649
4.29042e+06	100.649
4.31519e+06	100.648
4.3401e+06	100.648
4.36516e+06	100.648
4.39036e+06	100.648
4.4157e+06	100.648
4.4412e+06	100.648
4.46684e+06	100.648
4.49262e+06	100.648
4.51856e+06	100.648
4.54465e+06	100.647
4.57088e+06	100.647
4.59727e+06	100.647
4.62381e+06	100.647
4.6505e+06	100.647
4.67735e+06	100.647
4.70435e+06	100.647
4.73151e+06	100.646
4.75883e+06	100.646
4.7863e+06	100.646
4.81393e+06	100.646
4.84172e+06	100.646
4.86968e+06	100.646
4.89779e+06	100.645
4.92606e+06	100.645
4.9545e+06	100.645
4.9831e+06	100.645
5.01187e+06	100.645
5.04081e+06	100.645
5.06991e+06	100.645
5.09918e+06	100.644
5.12861e+06	100.644
5.15822e+06	100.644
5.188e+06	100.644
5.21795e+06	100.644
5.24807e+06	100.644
5.27837e+06	100.644
5.30884e+06	100.643
5.33949e+06	100.643
5.37032e+06	100.643
5.40132e+06	100.643
5.4325e+06	100.643
5.46387e+06	100.643
5.49541e+06	100.643
5.52713e+06	100.642
5.55904e+06	100.642
5.59114e+06	100.642
5.62341e+06	100.642
5.65588e+06	100.642
5.68853e+06	100.642
5.72137e+06	100.642
5.7544e+06	100.641
5.78762e+06	100.641
5.82103e+06	100.641
5.85464e+06	100.641
5.88844e+06	100.641
5.92243e+06	100.641
5.95662e+06	100.641
5.99101e+06	100.641
6.0256e+06	100.641
6.06038e+06	100.64
6.09537e+06	100.64
6.13056e+06	100.64
6.16595e+06	100.64
6.20155e+06	100.64
6.23735e+06	100.64
6.27336e+06	100.64
6.30957e+06	100.64
6.346e+06	100.639
6.38263e+06	100.639
6.41948e+06	100.639
6.45654e+06	100.639
6.49382e+06	100.639
6.53131e+06	100.639
6.56901e+06	100.639
6.60693e+06	100.639
6.64508e+06	100.639
6.68344e+06	100.639
6.72202e+06	100.638
6.76083e+06	100.638
6.79986e+06	100.638
6.83912e+06	100.638
6.8786e+06	100.638
6.91831e+06	100.638
6.95825e+06	100.638
6.99842e+06	100.638
7.03882e+06	100.638
7.07946e+06	100.638
7.12033e+06	100.638
7.16143e+06	100.637
7.20278e+06	100.637
7.24436e+06	100.637
7.28618e+06	100.637
7.32825e+06	100.637
7.37055e+06	100.637
7.4131e+06	100.637
7.4559e+06	100.637
7.49894e+06	100.637
7.54223e+06	100.637
7.58578e+06	100.637
7.62957e+06	100.637
7.67361e+06	100.636
7.71792e+06	100.636
7.76247e+06	100.636
7.80728e+06	100.636
7.85236e+06	100.636
7.89769e+06	100.636
7.94328e+06	100.636
7.98914e+06	100.636
8.03526e+06	100.636
8.08165e+06	100.636
8.12831e+06	100.636
8.17523e+06	100.636
8.22243e+06	100.636
8.2699e+06	100.635
8.31764e+06	100.635
8.36566e+06	100.635
8.41395e+06	100.635
8.46253e+06	100.635
8.51138e+06	100.635
8.56052e+06	100.635
8.60994e+06	100.635
8.65964e+06	100.635
8.70964e+06	100.635
8.75992e+06	100.635
8.81049e+06	100.635
8.86135e+06	100.635
8.91251e+06	100.635
8.96396e+06	100.635
9.01571e+06	100.634
9.06776e+06	100.634
9.12011e+06	100.634
9.17276e+06	100.634
9.22571e+06	100.634
9.27897e+06	100.634
9.33254e+06	100.634
9.38642e+06	100.634
9.44061e+06	100.634
9.49511e+06	100.634
9.54993e+06	100.634
9.60506e+06	100.634
9.66051e+06	100.634
9.71628e+06	100.634
9.77237e+06	100.634
9.82879e+06	100.634
9.88553e+06	100.634
9.9426e+06	100.633
1e+07	100.633
