Stopping power dEdx from Ionisation for Cr52[0.0] Z = 24 in G4_Si, process name: ionIoni
E [MeV]	dEdx [MeV/mm]
0.001	30.2869
0.00100577	30.3749
0.00101158	30.4631
0.00101742	30.5516
0.00102329	30.6403
0.0010292	30.7293
0.00103514	30.8185
0.00104112	30.908
0.00104713	30.9978
0.00105317	31.0878
0.00105925	31.1781
0.00106537	31.2686
0.00107152	31.3594
0.00107771	31.4505
0.00108393	31.5418
0.00109018	31.6334
0.00109648	31.7252
0.00110281	31.8173
0.00110917	31.9097
0.00111558	32.0024
0.00112202	32.0953
0.0011285	32.1885
0.00113501	32.2819
0.00114156	32.3756
0.00114815	32.4696
0.00115478	32.5639
0.00116145	32.6584
0.00116815	32.7532
0.0011749	32.8483
0.00118168	32.9437
0.0011885	33.0393
0.00119536	33.1352
0.00120226	33.2314
0.00120921	33.3278
0.00121619	33.4246
0.00122321	33.5216
0.00123027	33.6189
0.00123737	33.7164
0.00124451	33.8143
0.0012517	33.9124
0.00125893	34.0109
0.00126619	34.1096
0.0012735	34.2085
0.00128086	34.3078
0.00128825	34.4074
0.00129569	34.5072
0.00130317	34.6074
0.00131069	34.7078
0.00131826	34.8085
0.00132587	34.9095
0.00133352	35.0108
0.00134122	35.1124
0.00134896	35.2143
0.00135675	35.3164
0.00136458	35.4189
0.00137246	35.5217
0.00138038	35.6247
0.00138835	35.7281
0.00139637	35.8317
0.00140443	35.9357
0.00141254	36.0399
0.00142069	36.1445
0.00142889	36.2493
0.00143714	36.3545
0.00144544	36.4599
0.00145378	36.5657
0.00146218	36.6718
0.00147062	36.7781
0.00147911	36.8848
0.00148765	36.9918
0.00149624	37.0991
0.00150487	37.2067
0.00151356	37.3146
0.0015223	37.4229
0.00153109	37.5314
0.00153993	37.6402
0.00154882	37.7494
0.00155776	37.8589
0.00156675	37.9687
0.0015758	38.0788
0.00158489	38.1892
0.00159404	38.3
0.00160325	38.411
0.0016125	38.5224
0.00162181	38.6341
0.00163117	38.7462
0.00164059	38.8585
0.00165006	38.9712
0.00165959	39.0842
0.00166917	39.1975
0.0016788	39.3112
0.0016885	39.4251
0.00169824	39.5395
0.00170805	39.6541
0.00171791	39.7691
0.00172783	39.8844
0.0017378	40
0.00174783	40.116
0.00175792	40.2323
0.00176807	40.3489
0.00177828	40.4659
0.00178855	40.5832
0.00179887	40.7008
0.00180926	40.8188
0.0018197	40.9371
0.00183021	41.0558
0.00184077	41.1748
0.0018514	41.2942
0.00186209	41.4139
0.00187284	41.5339
0.00188365	41.6543
0.00189452	41.775
0.00190546	41.8961
0.00191646	42.0175
0.00192752	42.1393
0.00193865	42.2615
0.00194984	42.3839
0.0019611	42.5068
0.00197242	42.63
0.00198381	42.7535
0.00199526	42.8774
0.00200678	43.0017
0.00201837	43.1263
0.00203002	43.2513
0.00204174	43.3766
0.00205353	43.5023
0.00206538	43.6284
0.0020773	43.7548
0.0020893	43.8816
0.00210136	44.0087
0.00211349	44.1363
0.00212569	44.2642
0.00213796	44.3924
0.0021503	44.521
0.00216272	44.65
0.0021752	44.7794
0.00218776	44.9091
0.00220039	45.0393
0.00221309	45.1698
0.00222587	45.3006
0.00223872	45.4319
0.00225165	45.5635
0.00226464	45.6955
0.00227772	45.8279
0.00229087	45.9606
0.00230409	46.0938
0.00231739	46.2273
0.00233077	46.3612
0.00234423	46.4955
0.00235776	46.6302
0.00237137	46.7653
0.00238506	46.9008
0.00239883	47.0366
0.00241268	47.1729
0.00242661	47.3095
0.00244062	47.4465
0.00245471	47.584
0.00246888	47.7218
0.00248313	47.86
0.00249747	47.9987
0.00251189	48.1377
0.00252639	48.2771
0.00254097	48.4169
0.00255564	48.5571
0.0025704	48.6978
0.00258523	48.8388
0.00260016	48.9803
0.00261517	49.1221
0.00263027	49.2644
0.00264545	49.407
0.00266073	49.5501
0.00267609	49.6936
0.00269153	49.8375
0.00270707	49.9818
0.0027227	50.1266
0.00273842	50.2717
0.00275423	50.4173
0.00277013	50.5633
0.00278612	50.7097
0.00280221	50.8565
0.00281838	51.0038
0.00283465	51.1515
0.00285102	51.2996
0.00286748	51.4481
0.00288403	51.5971
0.00290068	51.7465
0.00291743	51.8963
0.00293427	52.0466
0.00295121	52.1973
0.00296825	52.3484
0.00298538	52.4999
0.00300262	52.6519
0.00301995	52.8044
0.00303739	52.9572
0.00305492	53.1106
0.00307256	53.2643
0.0030903	53.4185
0.00310814	53.5732
0.00312608	53.7283
0.00314413	53.8838
0.00316228	54.0398
0.00318053	54.1962
0.0031989	54.3531
0.00321736	54.5104
0.00323594	54.6682
0.00325462	54.8265
0.00327341	54.9852
0.0032923	55.1443
0.00331131	55.3039
0.00333043	55.464
0.00334965	55.6246
0.00336899	55.7856
0.00338844	55.947
0.003408	56.109
0.00342768	56.2714
0.00344747	56.4342
0.00346737	56.5976
0.00348739	56.7614
0.00350752	56.9256
0.00352777	57.0904
0.00354813	57.2556
0.00356862	57.4213
0.00358922	57.5875
0.00360994	57.7542
0.00363078	57.9213
0.00365174	58.0889
0.00367282	58.257
0.00369403	58.4256
0.00371535	58.5947
0.0037368	58.7643
0.00375837	58.9343
0.00378007	59.1049
0.00380189	59.2759
0.00382384	59.4474
0.00384592	59.6194
0.00386812	59.792
0.00389045	59.965
0.00391291	60.1385
0.0039355	60.3125
0.00395822	60.487
0.00398107	60.662
0.00400405	60.8376
0.00402717	61.0136
0.00405042	61.1901
0.0040738	61.3672
0.00409732	61.5447
0.00412098	61.7228
0.00414477	61.9014
0.00416869	62.0805
0.00419276	62.2601
0.00421697	62.4402
0.00424131	62.6208
0.0042658	62.802
0.00429042	62.9837
0.00431519	63.1659
0.0043401	63.3487
0.00436516	63.5319
0.00439036	63.7157
0.0044157	63.9
0.0044412	64.0849
0.00446684	64.2703
0.00449262	64.4562
0.00451856	64.6427
0.00454465	64.8297
0.00457088	65.0172
0.00459727	65.2053
0.00462381	65.3939
0.0046505	65.583
0.00467735	65.7728
0.00470435	65.963
0.00473151	66.1538
0.00475883	66.3452
0.0047863	66.5371
0.00481393	66.7295
0.00484172	66.9225
0.00486968	67.1161
0.00489779	67.3102
0.00492606	67.5049
0.0049545	67.7002
0.0049831	67.896
0.00501187	68.0923
0.00504081	68.2893
0.00506991	68.4868
0.00509918	68.6849
0.00512861	68.8835
0.00515822	69.0827
0.005188	69.2825
0.00521795	69.4829
0.00524807	69.6838
0.00527837	69.8854
0.00530884	70.0875
0.00533949	70.2902
0.00537032	70.4934
0.00540132	70.6973
0.0054325	70.9017
0.00546387	71.1068
0.00549541	71.3124
0.00552713	71.5186
0.00555904	71.7254
0.00559114	71.9328
0.00562341	72.1409
0.00565588	72.3495
0.00568853	72.5587
0.00572137	72.7685
0.0057544	72.9789
0.00578762	73.1899
0.00582103	73.4016
0.00585464	73.6138
0.00588844	73.8267
0.00592243	74.0401
0.00595662	74.2542
0.00599101	74.4689
0.0060256	74.6842
0.00606038	74.9002
0.00609537	75.1167
0.00613056	75.3339
0.00616595	75.5517
0.00620155	75.7702
0.00623735	75.9892
0.00627336	76.2089
0.00630957	76.4293
0.006346	76.6502
0.00638263	76.8718
0.00641948	77.0941
0.00645654	77.317
0.00649382	77.5405
0.00653131	77.7647
0.00656901	77.9895
0.00660693	78.215
0.00664508	78.4411
0.00668344	78.6678
0.00672202	78.8953
0.00676083	79.1233
0.00679986	79.3521
0.00683912	79.5815
0.0068786	79.8115
0.00691831	80.0422
0.00695825	80.2736
0.00699842	80.5057
0.00703882	80.7384
0.00707946	80.9718
0.00712033	81.2059
0.00716143	81.4406
0.00720278	81.676
0.00724436	81.9121
0.00728618	82.1489
0.00732825	82.3863
0.00737055	82.6245
0.0074131	82.8633
0.0074559	83.1028
0.00749894	83.343
0.00754223	83.5839
0.00758578	83.8255
0.00762957	84.0678
0.00767361	84.3108
0.00771792	84.5545
0.00776247	84.7988
0.00780728	85.0439
0.00785236	85.2897
0.00789769	85.5362
0.00794328	85.7835
0.00798914	86.0314
0.00803526	86.28
0.00808165	86.5294
0.00812831	86.7795
0.00817523	87.0303
0.00822243	87.2818
0.0082699	87.5341
0.00831764	87.787
0.00836566	88.0407
0.00841395	88.2952
0.00846253	88.5504
0.00851138	88.8063
0.00856052	89.0629
0.00860994	89.3203
0.00865964	89.5784
0.00870964	89.8373
0.00875992	90.0969
0.00881049	90.3573
0.00886135	90.6184
0.00891251	90.8803
0.00896396	91.1429
0.00901571	91.4063
0.00906776	91.6704
0.00912011	91.9353
0.00917276	92.201
0.00922571	92.4674
0.00927897	92.7346
0.00933254	93.0026
0.00938642	93.2713
0.00944061	94.2995
0.00949511	94.5712
0.00954993	94.8436
0.00960506	95.1168
0.00966051	95.3908
0.00971628	95.6656
0.00977237	95.9412
0.00982879	96.2176
0.00988553	96.4948
0.0099426	96.7728
0.01	97.0516
0.0100577	97.3312
0.0101158	97.6116
0.0101742	97.8927
0.0102329	98.1748
0.010292	98.4576
0.0103514	98.7412
0.0104112	99.0257
0.0104713	99.3109
0.0105317	99.597
0.0105925	99.8839
0.0106537	100.172
0.0107152	100.46
0.0107771	100.75
0.0108393	101.04
0.0109018	101.331
0.0109648	101.623
0.0110281	101.916
0.0110917	102.209
0.0111558	102.504
0.0112202	102.799
0.011285	103.095
0.0113501	103.392
0.0114156	103.69
0.0114815	103.989
0.0115478	104.288
0.0116145	104.589
0.0116815	104.89
0.011749	105.192
0.0118168	105.495
0.011885	105.799
0.0119536	106.104
0.0120226	106.409
0.0120921	106.716
0.0121619	107.023
0.0122321	107.332
0.0123027	107.641
0.0123737	107.951
0.0124451	108.262
0.012517	108.574
0.0125893	108.886
0.0126619	109.2
0.012735	109.515
0.0128086	109.83
0.0128825	110.146
0.0129569	110.464
0.0130317	110.782
0.0131069	111.101
0.0131826	111.421
0.0132587	111.742
0.0133352	112.064
0.0134122	112.387
0.0134896	112.71
0.0135675	113.035
0.0136458	113.361
0.0137246	113.687
0.0138038	114.015
0.0138835	114.343
0.0139637	114.673
0.0140443	115.003
0.0141254	115.334
0.0142069	115.666
0.0142889	115.999
0.0143714	116.334
0.0144544	116.669
0.0145378	117.005
0.0146218	117.342
0.0147062	117.68
0.0147911	118.019
0.0148765	118.359
0.0149624	118.7
0.0150487	119.042
0.0151356	119.384
0.015223	119.728
0.0153109	120.073
0.0153993	120.419
0.0154882	120.766
0.0155776	121.114
0.0156675	121.463
0.015758	121.812
0.0158489	122.163
0.0159404	122.515
0.0160325	122.868
0.016125	123.222
0.0162181	123.577
0.0163117	123.933
0.0164059	124.29
0.0165006	124.648
0.0165959	125.007
0.0166917	125.367
0.016788	125.728
0.016885	126.09
0.0169824	126.453
0.0170805	126.818
0.0171791	127.183
0.0172783	127.549
0.017378	127.917
0.0174783	128.285
0.0175792	128.655
0.0176807	129.025
0.0177828	129.397
0.0178855	129.769
0.0179887	130.143
0.0180926	130.518
0.018197	130.894
0.0183021	131.271
0.0184077	131.649
0.018514	132.028
0.0186209	132.408
0.0187284	132.79
0.0188365	133.172
0.0189452	133.556
0.0190546	133.941
0.0191646	134.326
0.0192752	134.713
0.0193865	135.101
0.0194984	135.49
0.019611	135.881
0.0197242	136.272
0.0198381	136.664
0.0199526	137.058
0.0200678	137.453
0.0201837	137.849
0.0203002	138.246
0.0204174	138.644
0.0205353	139.043
0.0206538	139.444
0.020773	139.845
0.020893	140.248
0.0210136	140.652
0.0211349	141.057
0.0212569	141.463
0.0213796	141.871
0.021503	142.279
0.0216272	142.689
0.021752	143.1
0.0218776	143.512
0.0220039	143.925
0.0221309	144.34
0.0222587	144.756
0.0223872	145.173
0.0225165	145.591
0.0226464	146.01
0.0227772	146.43
0.0229087	146.852
0.0230409	147.275
0.0231739	147.699
0.0233077	148.125
0.0234423	148.551
0.0235776	148.979
0.0237137	149.408
0.0238506	149.838
0.0239883	150.27
0.0241268	150.703
0.0242661	151.137
0.0244062	151.572
0.0245471	152.008
0.0246888	152.446
0.0248313	152.885
0.0249747	153.326
0.0251189	153.767
0.0252639	154.21
0.0254097	154.654
0.0255564	155.099
0.025704	155.546
0.0258523	155.994
0.0260016	156.443
0.0261517	156.894
0.0263027	157.346
0.0264545	157.799
0.0266073	158.253
0.0267609	158.709
0.0269153	159.166
0.0270707	159.624
0.027227	160.084
0.0273842	160.545
0.0275423	161.007
0.0277013	161.471
0.0278612	161.936
0.0280221	162.402
0.0281838	162.87
0.0283465	163.339
0.0285102	163.809
0.0286748	164.281
0.0288403	164.754
0.0290068	165.229
0.0291743	165.704
0.0293427	166.182
0.0295121	166.66
0.0296825	167.14
0.0298538	167.621
0.0300262	168.104
0.0301995	168.588
0.0303739	169.074
0.0305492	169.561
0.0307256	170.049
0.030903	170.538
0.0310814	171.03
0.0312608	171.522
0.0314413	172.016
0.0316228	172.511
0.0318053	173.008
0.031989	173.506
0.0321736	174.006
0.0323594	174.507
0.0325462	175.009
0.0327341	175.513
0.032923	176.019
0.0331131	176.526
0.0333043	177.034
0.0334965	177.544
0.0336899	178.055
0.0338844	178.568
0.03408	179.082
0.0342768	179.597
0.0344747	180.115
0.0346737	180.633
0.0348739	181.153
0.0350752	181.675
0.0352777	182.198
0.0354813	182.723
0.0356862	183.249
0.0358922	183.776
0.0360994	184.306
0.0363078	184.836
0.0365174	185.369
0.0367282	185.902
0.0369403	186.438
0.0371535	186.974
0.037368	187.513
0.0375837	188.053
0.0378007	188.594
0.0380189	189.137
0.0382384	189.682
0.0384592	190.228
0.0386812	190.776
0.0389045	191.325
0.0391291	191.876
0.039355	192.428
0.0395822	192.982
0.0398107	193.538
0.0400405	194.095
0.0402717	194.654
0.0405042	195.214
0.040738	195.776
0.0409732	196.34
0.0412098	196.905
0.0414477	197.472
0.0416869	198.041
0.0419276	198.611
0.0421697	199.183
0.0424131	199.756
0.042658	200.332
0.0429042	200.908
0.0431519	201.487
0.043401	202.067
0.0436516	202.649
0.0439036	203.232
0.044157	203.817
0.044412	204.404
0.0446684	204.992
0.0449262	205.583
0.0451856	206.175
0.0454465	206.768
0.0457088	207.363
0.0459727	207.96
0.0462381	208.559
0.046505	209.16
0.0467735	209.762
0.0470435	210.366
0.0473151	210.971
0.0475883	211.579
0.047863	212.188
0.0481393	212.799
0.0484172	213.411
0.0486968	214.026
0.0489779	214.642
0.0492606	215.26
0.049545	215.879
0.049831	216.501
0.0501187	217.124
0.0504081	217.749
0.0506991	218.376
0.0509918	219.005
0.0512861	219.635
0.0515822	220.268
0.05188	220.902
0.0521795	221.538
0.0524807	222.175
0.0527837	222.815
0.0530884	223.456
0.0533949	224.1
0.0537032	224.745
0.0540132	225.392
0.054325	226.041
0.0546387	226.691
0.0549541	227.344
0.0552713	227.998
0.0555904	228.655
0.0559114	229.313
0.0562341	229.973
0.0565588	230.635
0.0568853	231.299
0.0572137	231.965
0.057544	232.632
0.0578762	233.302
0.0582103	233.974
0.0585464	234.647
0.0588844	235.323
0.0592243	236
0.0595662	236.679
0.0599101	237.361
0.060256	238.044
0.0606038	238.729
0.0609537	239.416
0.0613056	240.105
0.0616595	240.797
0.0620155	241.49
0.0623735	242.185
0.0627336	242.882
0.0630957	243.581
0.06346	244.282
0.0638263	244.985
0.0641948	245.69
0.0645654	246.398
0.0649382	247.107
0.0653131	247.818
0.0656901	248.531
0.0660693	249.247
0.0664508	249.964
0.0668344	250.684
0.0672202	251.405
0.0676083	252.129
0.0679986	252.855
0.0683912	253.582
0.068786	254.312
0.0691831	255.044
0.0695825	255.778
0.0699842	256.514
0.0703882	257.253
0.0707946	257.993
0.0712033	258.736
0.0716143	259.48
0.0720278	260.227
0.0724436	260.976
0.0728618	261.727
0.0732825	262.481
0.0737055	263.236
0.074131	263.994
0.074559	264.753
0.0749894	265.515
0.0754223	266.28
0.0758578	267.046
0.0762957	267.815
0.0767361	268.585
0.0771792	269.358
0.0776247	270.134
0.0780728	270.911
0.0785236	271.691
0.0789769	272.473
0.0794328	273.257
0.0798914	274.043
0.0803526	274.832
0.0808165	275.623
0.0812831	276.416
0.0817523	277.211
0.0822243	278.009
0.082699	278.809
0.0831764	279.612
0.0836566	280.416
0.0841395	281.223
0.0846253	282.033
0.0851138	282.844
0.0856052	283.658
0.0860994	284.475
0.0865964	285.293
0.0870964	286.114
0.0875992	286.938
0.0881049	287.763
0.0886135	288.591
0.0891251	289.422
0.0896396	290.255
0.0901571	291.09
0.0906776	291.928
0.0912011	292.768
0.0917276	293.61
0.0922571	294.455
0.0927897	295.302
0.0933254	296.152
0.0938642	297.004
0.0944061	297.859
0.0949511	298.716
0.0954993	299.576
0.0960506	300.438
0.0966051	301.302
0.0971628	302.169
0.0977237	303.039
0.0982879	303.911
0.0988553	304.785
0.099426	305.662
0.1	306.542
0.100577	307.424
0.101158	308.308
0.101742	309.195
0.102329	310.085
0.10292	310.977
0.103514	311.872
0.104112	312.769
0.104713	313.669
0.105317	314.572
0.105925	315.477
0.106537	316.385
0.107152	317.295
0.107771	318.208
0.108393	319.123
0.109018	320.042
0.109648	320.962
0.110281	321.886
0.110917	322.812
0.111558	323.741
0.112202	324.672
0.11285	325.606
0.113501	326.543
0.114156	327.483
0.114815	328.425
0.115478	329.37
0.116145	330.317
0.116815	331.268
0.11749	332.221
0.118168	333.177
0.11885	334.135
0.119536	335.096
0.120226	336.06
0.120921	337.027
0.121619	337.997
0.122321	338.969
0.123027	339.944
0.123737	340.922
0.124451	341.903
0.12517	342.887
0.125893	343.873
0.126619	344.862
0.12735	345.855
0.128086	346.85
0.128825	347.847
0.129569	348.848
0.130317	349.852
0.131069	350.858
0.131826	351.867
0.132587	352.879
0.133352	353.895
0.134122	354.913
0.134896	355.934
0.135675	356.957
0.136458	357.984
0.137246	359.014
0.138038	360.047
0.138835	361.082
0.139637	362.121
0.140443	363.163
0.141254	364.207
0.142069	365.255
0.142889	366.306
0.143714	367.359
0.144544	368.416
0.145378	369.476
0.146218	370.538
0.147062	371.604
0.147911	372.673
0.148765	373.745
0.149624	374.82
0.150487	375.898
0.151356	376.979
0.15223	378.064
0.153109	379.151
0.153993	380.242
0.154882	381.335
0.155776	382.432
0.156675	383.532
0.15758	384.635
0.158489	385.741
0.159404	386.851
0.160325	387.963
0.16125	389.079
0.162181	390.198
0.163117	391.321
0.164059	392.446
0.165006	393.575
0.165959	394.707
0.166917	395.842
0.16788	396.98
0.16885	398.122
0.169824	399.267
0.170805	400.415
0.171791	401.567
0.172783	402.722
0.17378	403.88
0.174783	405.041
0.175792	406.206
0.176807	407.374
0.177828	408.546
0.178855	409.721
0.179887	410.899
0.180926	412.08
0.18197	413.265
0.183021	414.454
0.184077	415.646
0.18514	416.841
0.186209	418.04
0.187284	419.242
0.188365	420.447
0.189452	421.656
0.190546	422.869
0.191646	424.085
0.192752	425.304
0.193865	426.527
0.194984	427.754
0.19611	428.984
0.197242	430.217
0.198381	431.454
0.199526	432.695
0.200678	433.939
0.201837	435.187
0.203002	436.438
0.204174	437.693
0.205353	438.952
0.206538	440.214
0.20773	441.479
0.20893	442.749
0.210136	444.022
0.211349	445.298
0.212569	446.579
0.213796	447.863
0.21503	449.15
0.216272	450.442
0.21752	451.737
0.218776	453.036
0.220039	454.338
0.221309	455.644
0.222587	456.954
0.223872	458.268
0.225165	459.586
0.226464	460.907
0.227772	462.232
0.229087	463.561
0.230409	464.893
0.231739	466.23
0.233077	467.57
0.234423	468.914
0.235776	470.263
0.237137	471.614
0.238506	472.97
0.239883	474.33
0.241268	475.693
0.242661	477.061
0.244062	478.432
0.245471	479.808
0.246888	481.187
0.248313	482.57
0.249747	483.957
0.251189	485.348
0.252639	486.744
0.254097	488.143
0.255564	489.546
0.25704	490.953
0.258523	492.364
0.260016	493.78
0.261517	495.199
0.263027	496.622
0.264545	498.05
0.266073	499.481
0.267609	500.917
0.269153	502.357
0.270707	503.801
0.27227	505.249
0.273842	506.701
0.275423	508.157
0.277013	509.618
0.278612	511.083
0.280221	512.552
0.281838	514.025
0.283465	515.502
0.285102	516.984
0.286748	518.469
0.288403	519.96
0.290068	521.454
0.291743	522.953
0.293427	524.455
0.295121	525.963
0.296825	527.474
0.298538	528.99
0.300262	530.51
0.301995	532.035
0.303739	533.564
0.305492	535.097
0.307256	536.635
0.30903	538.177
0.310814	539.724
0.312608	541.275
0.314413	542.83
0.316228	544.39
0.318053	545.954
0.31989	547.523
0.321736	549.097
0.323594	550.674
0.325462	552.257
0.327341	553.844
0.32923	555.435
0.331131	557.031
0.333043	558.632
0.334965	560.237
0.336899	561.847
0.338844	563.461
0.3408	565.08
0.342768	566.704
0.344747	568.332
0.346737	569.965
0.348739	571.602
0.350752	573.245
0.352777	574.892
0.354813	576.544
0.356862	578.2
0.358922	579.861
0.360994	581.527
0.363078	583.198
0.365174	584.873
0.367282	586.554
0.369403	588.239
0.371535	589.929
0.37368	591.624
0.375837	593.323
0.378007	595.028
0.380189	596.737
0.382384	598.452
0.384592	600.171
0.386812	601.895
0.389045	603.624
0.391291	605.358
0.39355	607.097
0.395822	608.841
0.398107	610.59
0.400405	612.344
0.402717	614.103
0.405042	615.867
0.40738	617.636
0.409732	619.41
0.412098	621.189
0.414477	622.973
0.416869	624.763
0.419276	626.557
0.421697	628.357
0.424131	630.162
0.42658	631.972
0.429042	633.787
0.431519	635.607
0.43401	637.433
0.436516	639.264
0.439036	641.1
0.44157	642.941
0.44412	644.788
0.446684	646.639
0.449262	648.497
0.451856	650.359
0.454465	652.227
0.457088	654.1
0.459727	655.978
0.462381	657.862
0.46505	659.752
0.467735	661.646
0.470435	663.546
0.473151	665.452
0.475883	667.363
0.47863	669.279
0.481393	671.201
0.484172	673.129
0.486968	675.062
0.489779	677
0.492606	678.944
0.49545	680.894
0.49831	682.849
0.501187	684.81
0.504081	686.776
0.506991	688.748
0.509918	690.725
0.512861	692.709
0.515822	694.698
0.5188	696.692
0.521795	698.693
0.524807	700.699
0.527837	702.711
0.530884	704.728
0.533949	706.751
0.537032	708.781
0.540132	710.815
0.54325	712.856
0.546387	714.903
0.549541	716.955
0.552713	719.014
0.555904	721.078
0.559114	723.148
0.562341	725.224
0.565588	727.306
0.568853	729.394
0.572137	731.487
0.57544	733.587
0.578762	735.693
0.582103	737.805
0.585464	739.923
0.588844	742.047
0.592243	744.177
0.595662	746.313
0.599101	748.455
0.60256	750.604
0.606038	752.758
0.609537	754.919
0.613056	757.086
0.616595	759.259
0.620155	761.438
0.623735	763.623
0.627336	765.815
0.630957	768.013
0.6346	770.217
0.638263	772.428
0.641948	774.645
0.645654	776.868
0.649382	779.098
0.653131	781.334
0.656901	783.576
0.660693	785.825
0.664508	788.08
0.668344	790.341
0.672202	792.61
0.676083	794.884
0.679986	797.165
0.683912	799.453
0.68786	801.747
0.691831	804.047
0.695825	806.355
0.699842	808.669
0.703882	810.989
0.707946	813.316
0.712033	815.65
0.716143	817.99
0.720278	820.337
0.724436	822.691
0.728618	825.051
0.732825	827.419
0.737055	829.793
0.74131	832.173
0.74559	834.561
0.749894	836.955
0.754223	839.357
0.758578	841.765
0.762957	844.18
0.767361	846.602
0.771792	849.03
0.776247	851.466
0.780728	853.909
0.785236	856.358
0.789769	858.815
0.794328	861.279
0.798914	863.749
0.803526	866.227
0.808165	868.712
0.812831	871.204
0.817523	873.703
0.822243	876.209
0.82699	878.722
0.831764	881.243
0.836566	883.771
0.841395	886.306
0.846253	888.848
0.851138	891.397
0.856052	893.954
0.860994	896.518
0.865964	899.089
0.870964	901.668
0.875992	904.254
0.881049	906.847
0.886135	909.448
0.891251	912.056
0.896396	914.672
0.901571	917.295
0.906776	919.925
0.912011	922.563
0.917276	925.209
0.922571	927.862
0.927897	930.523
0.933254	933.191
0.938642	935.867
0.944061	938.551
0.949511	941.242
0.954993	943.941
0.960506	946.648
0.966051	949.362
0.971628	952.084
0.977237	954.814
0.982879	957.551
0.988553	960.297
0.99426	963.05
1	965.811
1.00577	968.58
1.01158	971.357
1.01742	974.142
1.02329	976.935
1.0292	979.736
1.03514	982.544
1.04112	985.361
1.04713	988.186
1.05317	991.018
1.05925	993.859
1.06537	996.708
1.07152	999.565
1.07771	1002.43
1.08393	1005.3
1.09018	1008.19
1.09648	1011.08
1.10281	1013.97
1.10917	1016.88
1.11558	1019.79
1.12202	1022.72
1.1285	1025.65
1.13501	1028.59
1.14156	1031.54
1.14815	1034.49
1.15478	1037.46
1.16145	1040.43
1.16815	1043.41
1.1749	1046.4
1.18168	1049.4
1.1885	1052.41
1.19536	1055.42
1.20226	1058.45
1.20921	1061.48
1.21619	1064.52
1.22321	1067.57
1.23027	1070.63
1.23737	1073.7
1.24451	1076.78
1.2517	1079.86
1.25893	1082.96
1.26619	1086.06
1.2735	1089.17
1.28086	1092.29
1.28825	1095.42
1.29569	1098.56
1.30317	1101.96
1.31069	1105.73
1.31826	1109.51
1.32587	1113.32
1.33352	1117.14
1.34122	1120.99
1.34896	1124.86
1.35675	1128.75
1.36458	1132.66
1.37246	1136.58
1.38038	1140.53
1.38835	1144.51
1.39637	1148.5
1.40443	1152.51
1.41254	1156.54
1.42069	1160.6
1.42889	1164.67
1.43714	1168.77
1.44544	1172.89
1.45378	1177.02
1.46218	1181.18
1.47062	1185.36
1.47911	1189.57
1.48765	1193.79
1.49624	1198.03
1.50487	1202.3
1.51356	1206.58
1.5223	1210.89
1.53109	1215.22
1.53993	1219.57
1.54882	1223.94
1.55776	1228.33
1.56675	1232.59
1.5758	1236.82
1.58489	1241.07
1.59404	1245.33
1.60325	1249.62
1.6125	1253.93
1.62181	1258.26
1.63117	1262.6
1.64059	1266.97
1.65006	1271.36
1.65959	1275.76
1.66917	1280.19
1.6788	1284.63
1.6885	1289.1
1.69824	1293.59
1.70805	1298.09
1.71791	1302.62
1.72783	1307.16
1.7378	1311.72
1.74783	1316.31
1.75792	1320.91
1.76807	1325.53
1.77828	1330.17
1.78855	1334.83
1.79887	1339.51
1.80926	1344.21
1.8197	1348.92
1.83021	1353.66
1.84077	1358.41
1.8514	1363.18
1.86209	1367.97
1.87284	1372.78
1.88365	1377.61
1.89452	1382.45
1.90546	1387.31
1.91646	1392.19
1.92752	1397.09
1.93865	1402
1.94984	1406.93
1.9611	1411.88
1.97242	1416.85
1.98381	1421.83
1.99526	1426.83
2.00678	1431.84
2.01837	1436.87
2.03002	1441.91
2.04174	1446.97
2.05353	1452.05
2.06538	1457.14
2.0773	1462.24
2.0893	1467.32
2.10136	1472.4
2.11349	1477.49
2.12569	1482.6
2.13796	1487.72
2.1503	1492.85
2.16272	1498
2.1752	1503.16
2.18776	1508.34
2.20039	1513.53
2.21309	1518.73
2.22587	1523.95
2.23872	1529.18
2.25165	1534.43
2.26464	1539.69
2.27772	1544.96
2.29087	1550.25
2.30409	1555.55
2.31739	1560.86
2.33077	1566.19
2.34423	1571.54
2.35776	1576.89
2.37137	1582.26
2.38506	1587.65
2.39883	1593.05
2.41268	1598.46
2.42661	1603.89
2.44062	1609.33
2.45471	1614.78
2.46888	1620.25
2.48313	1625.73
2.49747	1631.23
2.51189	1636.74
2.52639	1642.27
2.54097	1647.8
2.55564	1653.36
2.5704	1658.92
2.58523	1664.5
2.60016	1670.1
2.61517	1675.71
2.63027	1681.33
2.64545	1686.96
2.66073	1692.61
2.67609	1698.27
2.69153	1703.95
2.70707	1709.64
2.7227	1715.35
2.73842	1721.06
2.75423	1726.8
2.77013	1732.54
2.78612	1738.3
2.80221	1744.08
2.81838	1749.86
2.83465	1755.67
2.85102	1761.48
2.86748	1767.31
2.88403	1773.15
2.90068	1779.01
2.91743	1784.87
2.93427	1790.76
2.95121	1796.65
2.96825	1802.56
2.98538	1808.48
3.00262	1814.42
3.01995	1820.37
3.03739	1826.33
3.05492	1832.31
3.07256	1838.3
3.0903	1844.3
3.10814	1850.31
3.12608	1856.34
3.14413	1862.38
3.16228	1868.44
3.18053	1874.51
3.1989	1880.59
3.21736	1886.68
3.23594	1892.79
3.25462	1898.91
3.27341	1905.05
3.2923	1911.2
3.31131	1917.36
3.33043	1923.54
3.34965	1929.73
3.36899	1935.94
3.38844	1942.16
3.408	1948.39
3.42768	1954.64
3.44747	1960.91
3.46737	1967.19
3.48739	1973.48
3.50752	1979.79
3.52777	1986.12
3.54813	1992.46
3.56862	1998.82
3.58922	2005.19
3.60994	2011.58
3.63078	2017.99
3.65174	2024.41
3.67282	2030.86
3.69403	2037.31
3.71535	2043.79
3.7368	2050.29
3.75837	2056.8
3.78007	2063.33
3.80189	2069.88
3.82384	2076.46
3.84592	2083.05
3.86812	2089.66
3.89045	2096.29
3.91291	2102.95
3.9355	2109.63
3.95822	2116.33
3.98107	2123.05
4.00405	2129.79
4.02717	2136.56
4.05042	2143.36
4.0738	2150.18
4.09732	2157.03
4.12098	2163.9
4.14477	2170.8
4.16869	2177.73
4.19276	2184.69
4.21697	2191.67
4.24131	2198.69
4.2658	2205.73
4.29042	2212.81
4.31519	2219.91
4.3401	2227.05
4.36516	2234.22
4.39036	2241.42
4.4157	2248.66
4.4412	2255.93
4.46684	2263.24
4.49262	2270.58
4.51856	2277.95
4.54465	2285.37
4.57088	2292.82
4.59727	2300.3
4.62381	2307.83
4.6505	2315.4
4.67735	2323
4.70435	2330.65
4.73151	2338.34
4.75883	2346.07
4.7863	2353.84
4.81393	2361.65
4.84172	2369.51
4.86968	2377.4
4.89779	2385.34
4.92606	2393.32
4.9545	2401.34
4.9831	2409.4
5.01187	2417.5
5.04081	2425.65
5.06991	2433.83
5.09918	2442.06
5.12861	2450.33
5.15822	2458.64
5.188	2466.99
5.21795	2475.39
5.24807	2483.82
5.27837	2492.3
5.30884	2500.82
5.33949	2509.38
5.37032	2517.98
5.40132	2526.62
5.4325	2535.3
5.46387	2544.03
5.49541	2552.79
5.52713	2561.6
5.55904	2570.44
5.59114	2579.33
5.62341	2588.26
5.65588	2597.22
5.68853	2606.23
5.72137	2615.28
5.7544	2624.36
5.78762	2633.49
5.82103	2642.66
5.85464	2651.86
5.88844	2661.11
5.92243	2670.39
5.95662	2679.71
5.99101	2689.07
6.0256	2698.47
6.06038	2707.91
6.09537	2717.38
6.13056	2726.89
6.16595	2736.44
6.20155	2746.03
6.23735	2755.65
6.27336	2765.31
6.30957	2775
6.346	2784.73
6.38263	2794.5
6.41948	2804.29
6.45654	2814.13
6.49382	2823.99
6.53131	2833.89
6.56901	2843.83
6.60693	2853.79
6.64508	2863.79
6.68344	2873.82
6.72202	2883.88
6.76083	2893.97
6.79986	2904.09
6.83912	2914.24
6.8786	2924.42
6.91831	2934.62
6.95825	2944.86
6.99842	2955.12
7.03882	2965.4
7.07946	2975.71
7.12033	2986.05
7.16143	2996.41
7.20278	3006.79
7.24436	3017.2
7.28618	3027.63
7.32825	3038.07
7.37055	3048.54
7.4131	3059.03
7.4559	3069.53
7.49894	3080.05
7.54223	3090.59
7.58578	3101.14
7.62957	3111.71
7.67361	3122.29
7.71792	3132.88
7.76247	3143.49
7.80728	3154.09
7.85236	3164.68
7.89769	3175.27
7.94328	3185.88
7.98914	3196.49
8.03526	3207.11
8.08165	3217.73
8.12831	3228.36
8.17523	3239
8.22243	3249.64
8.2699	3260.29
8.31764	3270.95
8.36566	3281.61
8.41395	3292.27
8.46253	3302.94
8.51138	3313.62
8.56052	3324.29
8.60994	3334.97
8.65964	3345.66
8.70964	3356.34
8.75992	3367.03
8.81049	3377.72
8.86135	3388.42
8.91251	3399.11
8.96396	3409.81
9.01571	3420.5
9.06776	3431.2
9.12011	3441.9
9.17276	3452.6
9.22571	3463.3
9.27897	3473.99
9.33254	3484.69
9.38642	3495.39
9.44061	3506.08
9.49511	3516.77
9.54993	3527.46
9.60506	3538.15
9.66051	3548.84
9.71628	3559.52
9.77237	3570.2
9.82879	3580.87
9.88553	3591.55
9.9426	3602.21
10	3612.88
10.0577	3623.54
10.1158	3634.19
10.1742	3644.84
10.2329	3655.49
10.292	3666.13
10.3514	3676.76
10.4112	3687.39
10.4713	3698.05
10.5317	3708.69
10.5925	3719.33
10.6537	3729.97
10.7152	3740.59
10.7771	3751.21
10.8393	3761.82
10.9018	3772.42
10.9648	3783.02
11.0281	3793.6
11.0917	3804.18
11.1558	3814.74
11.2202	3825.3
11.285	3835.85
11.3501	3846.38
11.4156	3856.91
11.4815	3867.42
11.5478	3877.93
11.6145	3888.42
11.6815	3898.9
11.749	3909.37
11.8168	3919.82
11.885	3930.27
11.9536	3940.7
12.0226	3951.12
12.0921	3961.53
12.1619	3971.92
12.2321	3982.3
12.3027	3992.67
12.3737	4003.02
12.4451	4013.36
12.517	4023.69
12.5893	4034
12.6619	4044.3
12.735	4054.59
12.8086	4064.86
12.8825	4075.12
12.9569	4085.36
13.0317	4095.59
13.1069	4105.8
13.1826	4116
13.2587	4126.19
13.3352	4136.36
13.4122	4146.52
13.4896	4156.66
13.5675	4166.78
13.6458	4176.89
13.7246	4186.99
13.8038	4197.06
13.8835	4207.12
13.9637	4217.16
14.0443	4227.19
14.1254	4237.2
14.2069	4247.19
14.2889	4257.16
14.3714	4267.11
14.4544	4277.05
14.5378	4286.97
14.6218	4296.87
14.7062	4306.75
14.7911	4316.62
14.8765	4326.47
14.9624	4336.29
15.0487	4346.1
15.1356	4355.9
15.223	4365.67
15.3109	4375.42
15.3993	4385.16
15.4882	4394.88
15.5776	4404.58
15.6675	4414.27
15.758	4423.95
15.8489	4433.62
15.9404	4443.26
16.0325	4452.88
16.125	4462.49
16.2181	4472.07
16.3117	4481.64
16.4059	4491.18
16.5006	4500.71
16.5959	4510.21
16.6917	4519.7
16.788	4529.16
16.885	4538.61
16.9824	4548.03
17.0805	4557.43
17.1791	4566.81
17.2783	4576.17
17.378	4585.51
17.4783	4594.82
17.5792	4604.12
17.6807	4613.39
17.7828	4622.64
17.8855	4631.86
17.9887	4641.07
18.0926	4650.25
18.197	4659.41
18.3021	4668.55
18.4077	4677.67
18.514	4686.77
18.6209	4695.84
18.7284	4704.89
18.8365	4713.93
18.9452	4722.93
19.0546	4731.92
19.1646	4740.89
19.2752	4749.84
19.3865	4758.76
19.4984	4767.67
19.611	4776.55
19.7242	4785.42
19.8381	4794.27
19.9526	4803.1
20.0678	4811.91
20.1837	4820.7
20.3002	4829.47
20.4174	4838.23
20.5353	4846.97
20.6538	4855.7
20.773	4864.41
20.893	4873.06
21.0136	4881.69
21.1349	4890.31
21.2569	4898.9
21.3796	4907.49
21.503	4916.05
21.6272	4924.6
21.752	4933.14
21.8776	4941.65
22.0039	4950.15
22.1309	4958.63
22.2587	4967.09
22.3872	4975.53
22.5165	4983.96
22.6464	4992.36
22.7772	5000.75
22.9087	5009.11
23.0409	5017.46
23.1739	5025.78
23.3077	5034.09
23.4423	5042.37
23.5776	5050.63
23.7137	5058.87
23.8506	5067.09
23.9883	5075.29
24.1268	5083.46
24.2661	5091.62
24.4062	5099.75
24.5471	5107.85
24.6888	5115.94
24.8313	5124
24.9747	5132.04
25.1189	5140.05
25.2639	5148.04
25.4097	5156.01
25.5564	5163.95
25.704	5171.87
25.8523	5179.77
26.0016	5187.64
26.1517	5195.5
26.3027	5203.34
26.4545	5211.15
26.6073	5218.94
26.7609	5226.7
26.9153	5234.44
27.0707	5242.15
27.227	5249.83
27.3842	5257.48
27.5423	5265.11
27.7013	5272.71
27.8612	5280.28
28.0221	5287.82
28.1838	5295.34
28.3465	5302.82
28.5102	5310.28
28.6748	5317.7
28.8403	5325.09
29.0068	5332.46
29.1743	5339.79
29.3427	5347.09
29.5121	5354.36
29.6825	5361.59
29.8538	5368.8
30.0262	5375.97
30.1995	5383.11
30.3739	5390.22
30.5492	5397.29
30.7256	5404.33
30.903	5411.33
31.0814	5418.3
31.2608	5425.24
31.4413	5432.15
31.6228	5439.02
31.8053	5445.85
31.989	5452.65
32.1736	5459.41
32.3594	5466.13
32.5462	5472.82
32.7341	5479.47
32.923	5486.08
33.1131	5492.65
33.3043	5499.18
33.4965	5505.68
33.6899	5512.13
33.8844	5518.54
34.08	5524.91
34.2768	5531.24
34.4747	5537.53
34.6737	5543.77
34.8739	5549.97
35.0752	5556.13
35.2777	5562.24
35.4813	5568.31
35.6862	5574.34
35.8922	5580.32
36.0994	5586.26
36.3078	5592.15
36.5174	5597.99
36.7282	5603.79
36.9403	5609.54
37.1535	5615.24
37.368	5620.9
37.5837	5626.5
37.8007	5632.06
38.0189	5637.57
38.2384	5643.03
38.4592	5648.44
38.6812	5653.8
38.9045	5659.1
39.1291	5664.36
39.355	5669.56
39.5822	5674.72
39.8107	5679.81
40.0405	5684.86
40.2717	5689.85
40.5042	5694.79
40.738	5699.68
40.9732	5704.51
41.2098	5709.28
41.4477	5714
41.6869	5718.67
41.9276	5723.28
42.1697	5727.83
42.4131	5732.33
42.658	5736.77
42.9042	5741.16
43.1519	5745.48
43.401	5749.75
43.6516	5753.95
43.9036	5758.1
44.157	5762.19
44.412	5766.22
44.6684	5770.19
44.9262	5774.1
45.1856	5777.94
45.4465	5781.73
45.7088	5785.45
45.9727	5789.11
46.2381	5792.71
46.505	5796.25
46.7735	5799.72
47.0435	5803.13
47.3151	5806.48
47.5883	5809.76
47.863	5812.98
48.1393	5816.14
48.4172	5819.23
48.6968	5822.26
48.9779	5825.23
49.2606	5828.13
49.545	5830.97
49.831	5833.74
50.1187	5836.46
50.4081	5839.11
50.6991	5841.7
50.9918	5844.22
51.2861	5846.69
51.5822	5849.09
51.88	5851.43
52.1795	5853.72
52.4807	5855.96
52.7837	5858.13
53.0884	5860.24
53.3949	5862.29
53.7032	5864.28
54.0132	5866.2
54.325	5868.06
54.6387	5869.86
54.9541	5871.59
55.2713	5873.26
55.5904	5874.86
55.9114	5876.4
56.2341	5877.87
56.5588	5879.27
56.8853	5880.61
57.2137	5881.88
57.544	5883.08
57.8762	5884.21
58.2103	5885.28
58.5464	5886.28
58.8844	5887.2
59.2243	5888.06
59.5662	5888.86
59.9101	5889.58
60.256	5890.23
60.6038	5890.81
60.9537	5891.32
61.3056	5891.77
61.6595	5892.14
62.0155	5892.44
62.3735	5892.68
62.7336	5892.84
63.0957	5892.93
63.46	5892.95
63.8263	5892.9
64.1948	5892.79
64.5654	5892.6
64.9382	5892.34
65.3131	5892.01
65.6901	5891.62
66.0693	5891.15
66.4508	5890.61
66.8344	5890.01
67.2202	5889.34
67.6083	5888.59
67.9986	5887.79
68.3912	5886.91
68.786	5885.97
69.1831	5884.96
69.5825	5883.88
69.9842	5882.74
70.3882	5881.54
70.7946	5880.27
71.2033	5878.94
71.6143	5877.55
72.0278	5876.09
72.4436	5874.57
72.8618	5873
73.2825	5871.36
73.7055	5869.67
74.131	5867.92
74.559	5866.12
74.9894	5864.26
75.4223	5862.35
75.8578	5860.38
76.2957	5858.37
76.7361	5856.3
77.1792	5854.19
77.6247	5852.04
78.0728	5849.81
78.5236	5847.4
78.9769	5844.94
79.4328	5842.44
79.8914	5839.9
80.3526	5837.31
80.8165	5834.68
81.2831	5832
81.7523	5829.27
82.2243	5826.5
82.699	5823.69
83.1764	5820.82
83.6566	5817.91
84.1395	5814.96
84.6253	5811.96
85.1138	5808.91
85.6052	5805.81
86.0994	5802.67
86.5964	5799.48
87.0964	5796.24
87.5992	5792.96
88.1049	5789.62
88.6135	5786.24
89.1251	5782.81
89.6396	5779.34
90.1571	5775.81
90.6776	5772.24
91.2011	5768.62
91.7276	5764.95
92.2571	5761.23
92.7897	5757.46
93.3254	5753.65
93.8642	5749.78
94.4061	5745.87
94.9511	5741.91
95.4993	5737.9
96.0506	5733.85
96.6051	5729.74
97.1628	5725.59
97.7237	5721.39
98.2879	5717.14
98.8553	5712.85
99.426	5708.51
100	5704.12
100.577	5699.68
101.158	5695.19
101.742	5690.66
102.329	5686.09
102.92	5681.46
103.514	5676.8
104.112	5672.08
104.713	5667.34
105.317	5662.56
105.925	5657.73
106.537	5652.85
107.152	5647.93
107.771	5642.96
108.393	5637.95
109.018	5632.9
109.648	5627.8
110.281	5622.65
110.917	5617.46
111.558	5612.23
112.202	5606.96
112.85	5601.64
113.501	5596.27
114.156	5590.87
114.815	5585.42
115.478	5579.92
116.145	5574.39
116.815	5568.81
117.49	5563.19
118.168	5557.53
118.85	5551.83
119.536	5546.09
120.226	5540.31
120.921	5534.49
121.619	5528.63
122.321	5522.73
123.027	5516.79
123.737	5510.81
124.451	5504.8
125.17	5498.75
125.893	5492.66
126.619	5486.54
127.35	5480.38
128.086	5474.19
128.825	5467.96
129.569	5461.71
130.317	5455.42
131.069	5449.1
131.826	5442.75
132.587	5436.37
133.352	5429.95
134.122	5423.51
134.896	5417.03
135.675	5410.53
136.458	5403.99
137.246	5397.42
138.038	5390.82
138.835	5384.19
139.637	5377.53
140.443	5370.84
141.254	5364.12
142.069	5357.37
142.889	5350.58
143.714	5343.77
144.544	5336.93
145.378	5330.06
146.218	5323.16
147.062	5316.23
147.911	5309.27
148.765	5302.28
149.624	5295.27
150.487	5288.22
151.356	5281.15
152.23	5274.05
153.109	5266.92
153.993	5259.76
154.882	5252.58
155.776	5245.37
156.675	5238.13
157.58	5230.87
158.489	5223.58
159.404	5216.26
160.325	5208.92
161.25	5201.55
162.181	5194.15
163.117	5186.73
164.059	5179.28
165.006	5171.81
165.959	5164.31
166.917	5156.78
167.88	5149.23
168.85	5141.66
169.824	5134.05
170.805	5126.43
171.791	5118.77
172.783	5111.09
173.78	5103.39
174.783	5095.66
175.792	5087.91
176.807	5080.13
177.828	5072.33
178.855	5064.5
179.887	5056.65
180.926	5048.78
181.97	5040.88
183.021	5032.96
184.077	5025.01
185.14	5017.04
186.209	5009.05
187.284	5001.03
188.365	4992.99
189.452	4984.93
190.546	4976.85
191.646	4968.74
192.752	4960.62
193.865	4952.47
194.984	4944.3
196.11	4936.11
197.242	4927.89
198.381	4919.66
199.526	4911.41
200.678	4903.13
201.837	4894.84
203.002	4886.53
204.174	4878.2
205.353	4869.85
206.538	4861.48
207.73	4853.09
208.93	4844.69
210.136	4836.28
211.349	4827.85
212.569	4819.4
213.796	4810.94
215.03	4802.45
216.272	4793.95
217.52	4785.44
218.776	4776.91
220.039	4768.36
221.309	4759.79
222.587	4751.21
223.872	4742.61
225.165	4734
226.464	4725.37
227.772	4716.72
229.087	4708.06
230.409	4699.38
231.739	4690.69
233.077	4681.99
234.423	4673.26
235.776	4664.53
237.137	4655.77
238.506	4647.01
239.883	4638.23
241.268	4629.43
242.661	4620.62
244.062	4611.8
245.471	4602.96
246.888	4594.11
248.313	4585.24
249.747	4576.36
251.189	4567.47
252.639	4558.57
254.097	4549.65
255.564	4540.72
257.04	4531.78
258.523	4522.82
260.016	4513.86
261.517	4504.87
263.027	4495.87
264.545	4486.86
266.073	4477.84
267.609	4468.81
269.153	4459.77
270.707	4450.71
272.27	4441.64
273.842	4432.57
275.423	4423.48
277.013	4414.38
278.612	4405.27
280.221	4396.15
281.838	4387.02
283.465	4377.88
285.102	4368.73
286.748	4359.57
288.403	4350.4
290.068	4341.22
291.743	4332.03
293.427	4322.83
295.121	4313.63
296.825	4304.41
298.538	4295.19
300.262	4285.95
301.995	4276.71
303.739	4267.46
305.492	4258.2
307.256	4248.93
309.03	4239.66
310.814	4230.37
312.608	4221.08
314.413	4211.78
316.228	4202.47
318.053	4193.16
319.89	4183.84
321.736	4174.51
323.594	4165.17
325.462	4155.83
327.341	4146.48
329.23	4137.12
331.131	4127.76
333.043	4118.39
334.965	4109.02
336.899	4099.64
338.844	4090.25
340.8	4080.86
342.768	4071.47
344.747	4062.06
346.737	4052.66
348.739	4043.24
350.752	4033.83
352.777	4024.41
354.813	4014.98
356.862	4005.55
358.922	3996.11
360.994	3986.67
363.078	3977.23
365.174	3967.78
367.282	3958.33
369.403	3948.87
371.535	3939.41
373.68	3929.95
375.837	3920.49
378.007	3911.02
380.189	3901.55
382.384	3892.07
384.592	3882.59
386.812	3873.11
389.045	3863.63
391.291	3854.15
393.55	3844.66
395.822	3835.17
398.107	3825.68
400.405	3816.19
402.717	3806.7
405.042	3797.2
407.38	3787.71
409.732	3778.21
412.098	3768.71
414.477	3759.21
416.869	3749.71
419.276	3740.21
421.697	3730.71
424.131	3721.21
426.58	3711.7
429.042	3702.2
431.519	3692.7
434.01	3683.2
436.516	3673.7
439.036	3664.19
441.57	3654.69
444.12	3645.19
446.684	3635.69
449.262	3626.2
451.856	3616.7
454.465	3607.21
457.088	3597.71
459.727	3588.22
462.381	3578.73
465.05	3569.24
467.735	3559.76
470.435	3550.27
473.151	3540.79
475.883	3531.31
478.63	3521.84
481.393	3512.36
484.172	3502.89
486.968	3493.42
489.779	3483.96
492.606	3474.5
495.45	3465.04
498.31	3455.58
501.187	3446.13
504.081	3436.68
506.991	3427.23
509.918	3417.79
512.861	3408.35
515.822	3398.92
518.8	3389.48
521.795	3380.05
524.807	3370.61
527.837	3361.18
530.884	3351.76
533.949	3342.33
537.032	3332.92
540.132	3323.5
543.25	3314.09
546.387	3304.69
549.541	3295.3
552.713	3285.91
555.904	3276.52
559.114	3267.14
562.341	3257.77
565.588	3248.41
568.853	3239.05
572.137	3229.7
575.44	3220.36
578.762	3211.02
582.103	3201.69
585.464	3192.38
588.844	3183.07
592.243	3173.76
595.662	3164.47
599.101	3155.19
602.56	3145.91
606.038	3136.65
609.537	3127.39
613.056	3118.15
616.595	3108.91
620.155	3099.68
623.735	3090.47
627.336	3081.26
630.957	3072.06
634.6	3062.88
638.263	3053.7
641.948	3044.54
645.654	3035.38
649.382	3026.24
653.131	3017.11
656.901	3007.99
660.693	2998.88
664.508	2989.78
668.344	2980.69
672.202	2971.61
676.083	2962.54
679.986	2953.49
683.912	2944.44
687.86	2935.4
691.831	2926.38
695.825	2917.37
699.842	2908.36
703.882	2899.37
707.946	2890.39
712.033	2881.41
716.143	2872.45
720.278	2863.5
724.436	2854.55
728.618	2845.62
732.825	2836.69
737.055	2827.77
741.31	2818.87
745.59	2809.96
749.894	2801.07
754.223	2792.19
758.578	2783.31
762.957	2774.43
767.361	2765.57
771.792	2756.71
776.247	2747.85
780.728	2739.02
785.236	2730.3
789.769	2721.58
794.328	2712.87
798.914	2704.17
803.526	2695.47
808.165	2686.78
812.831	2678.1
817.523	2669.42
822.243	2660.75
826.99	2652.09
831.764	2643.43
836.566	2634.79
841.395	2626.15
846.253	2617.52
851.138	2608.9
856.052	2600.29
860.994	2591.69
865.964	2583.1
870.964	2574.53
875.992	2565.96
881.049	2557.4
886.135	2548.86
891.251	2540.32
896.396	2531.8
901.571	2523.29
906.776	2514.79
912.011	2506.31
917.276	2497.84
922.571	2489.38
927.897	2480.94
933.254	2472.51
938.642	2464.1
944.061	2455.7
949.511	2447.31
954.993	2438.94
960.506	2430.59
966.051	2422.25
971.628	2413.92
977.237	2405.62
982.879	2397.32
988.553	2389.05
994.26	2380.79
1000	2372.55
1005.77	2364.33
1011.58	2356.12
1017.42	2347.93
1023.29	2339.76
1029.2	2331.61
1035.14	2323.48
1041.12	2315.35
1047.13	2307.23
1053.17	2299.12
1059.25	2291.02
1065.37	2282.95
1071.52	2274.9
1077.71	2266.86
1083.93	2258.85
1090.18	2250.85
1096.48	2242.88
1102.81	2234.92
1109.17	2226.98
1115.58	2219.07
1122.02	2211.17
1128.5	2203.29
1135.01	2195.44
1141.56	2187.6
1148.15	2179.78
1154.78	2171.99
1161.45	2164.21
1168.15	2156.45
1174.9	2148.72
1181.68	2141
1188.5	2133.31
1195.36	2125.63
1202.26	2117.97
1209.21	2110.34
1216.19	2102.72
1223.21	2095.13
1230.27	2087.55
1237.37	2079.99
1244.51	2072.45
1251.7	2064.93
1258.93	2057.43
1266.19	2049.94
1273.5	2042.47
1280.86	2035.02
1288.25	2027.59
1295.69	2020.18
1303.17	2012.78
1310.69	2005.39
1318.26	1998.02
1325.87	1990.67
1333.52	1983.34
1341.22	1976.02
1348.96	1968.72
1356.75	1961.43
1364.58	1954.17
1372.46	1946.92
1380.38	1939.69
1388.35	1932.47
1396.37	1925.28
1404.43	1918.1
1412.54	1910.95
1420.69	1903.81
1428.89	1896.69
1437.14	1889.58
1445.44	1882.5
1453.78	1875.44
1462.18	1868.39
1470.62	1861.36
1479.11	1854.35
1487.65	1847.37
1496.24	1840.4
1504.87	1833.45
1513.56	1826.51
1522.3	1819.6
1531.09	1812.71
1539.93	1805.83
1548.82	1798.98
1557.76	1792.14
1566.75	1785.31
1575.8	1778.5
1584.89	1771.71
1594.04	1764.93
1603.25	1758.18
1612.5	1751.44
1621.81	1744.73
1631.17	1738.03
1640.59	1731.36
1650.06	1724.7
1659.59	1718.07
1669.17	1711.45
1678.8	1704.86
1688.5	1698.28
1698.24	1691.73
1708.05	1685.2
1717.91	1678.69
1727.83	1672.2
1737.8	1665.73
1747.83	1659.29
1757.92	1652.86
1768.07	1646.46
1778.28	1640.07
1788.55	1633.71
1798.87	1627.37
1809.26	1621.06
1819.7	1614.76
1830.21	1608.49
1840.77	1602.23
1851.4	1596
1862.09	1589.79
1872.84	1583.6
1883.65	1577.43
1894.52	1571.28
1905.46	1565.15
1916.46	1559.05
1927.52	1552.96
1938.65	1546.9
1949.84	1540.85
1961.1	1534.82
1972.42	1528.81
1983.81	1522.83
1995.26	1516.86
2006.78	1510.9
2018.37	1504.97
2030.02	1499.05
2041.74	1493.16
2053.53	1487.27
2065.38	1481.41
2077.3	1475.56
2089.3	1469.75
2101.36	1463.97
2113.49	1458.21
2125.69	1452.46
2137.96	1446.72
2150.3	1441
2162.72	1435.3
2175.2	1429.62
2187.76	1423.95
2200.39	1418.3
2213.09	1412.67
2225.87	1407.05
2238.72	1401.46
2251.65	1395.88
2264.64	1390.31
2277.72	1384.77
2290.87	1379.24
2304.09	1373.74
2317.39	1368.25
2330.77	1362.78
2344.23	1357.33
2357.76	1351.9
2371.37	1346.48
2385.06	1341.09
2398.83	1335.71
2412.68	1330.36
2426.61	1325.02
2440.62	1319.7
2454.71	1314.41
2468.88	1309.13
2483.13	1303.87
2497.47	1298.63
2511.89	1293.41
2526.39	1288.21
2540.97	1283.03
2555.64	1277.87
2570.4	1272.73
2585.23	1267.61
2600.16	1262.51
2615.17	1257.41
2630.27	1252.34
2645.45	1247.28
2660.73	1242.25
2676.09	1237.23
2691.53	1232.23
2707.07	1227.26
2722.7	1222.3
2738.42	1217.36
2754.23	1212.44
2770.13	1207.55
2786.12	1202.67
2802.21	1197.81
2818.38	1192.97
2834.65	1188.15
2851.02	1183.35
2867.48	1178.57
2884.03	1173.81
2900.68	1169.07
2917.43	1164.35
2934.27	1159.65
2951.21	1154.96
2968.25	1150.3
2985.38	1145.65
3002.62	1141.03
3019.95	1136.42
3037.39	1131.83
3054.92	1127.25
3072.56	1122.7
3090.3	1118.16
3108.14	1113.64
3126.08	1109.13
3144.13	1104.65
3162.28	1100.17
3180.53	1095.72
3198.9	1091.28
3217.36	1086.86
3235.94	1082.45
3254.62	1078.07
3273.41	1073.7
3292.3	1069.34
3311.31	1065.01
3330.43	1060.69
3349.65	1056.39
3368.99	1052.11
3388.44	1047.84
3408	1043.59
3427.68	1039.36
3447.47	1035.14
3467.37	1030.95
3487.39	1026.77
3507.52	1022.61
3527.77	1018.46
3548.13	1014.33
3568.62	1010.22
3589.22	1006.13
3609.94	1002.05
3630.78	997.989
3651.74	993.945
3672.82	989.917
3694.03	985.906
3715.35	981.911
3736.8	977.933
3758.37	973.971
3780.07	970.027
3801.89	966.098
3823.84	962.187
3845.92	958.292
3868.12	954.414
3890.45	950.552
3912.91	946.707
3935.5	942.879
3958.22	939.067
3981.07	935.272
4004.05	931.492
4027.17	927.729
4050.42	923.982
4073.8	920.251
4097.32	916.536
4120.98	912.836
4144.77	909.152
4168.69	905.483
4192.76	901.83
4216.97	898.191
4241.31	894.568
4265.8	890.96
4290.42	887.368
4315.19	883.791
4340.1	880.23
4365.16	876.684
4390.36	873.154
4415.7	869.639
4441.2	866.14
4466.84	862.657
4492.62	859.189
4518.56	855.736
4544.65	852.299
4570.88	848.877
4597.27	845.471
4623.81	842.08
4650.5	838.704
4677.35	835.343
4704.35	831.998
4731.51	828.667
4758.83	825.351
4786.3	822.05
4813.93	818.763
4841.72	815.491
4869.68	812.233
4897.79	808.99
4926.06	805.761
4954.5	802.545
4983.1	799.344
5011.87	796.156
5040.81	792.982
5069.91	789.82
5099.18	786.672
5128.61	783.536
5158.22	780.413
5188	777.302
5217.95	774.199
5248.07	771.104
5278.37	768.022
5308.84	764.952
5339.49	761.894
5370.32	758.848
5401.32	755.814
5432.5	752.794
5463.87	749.786
5495.41	746.79
5527.13	743.808
5559.04	740.839
5591.14	737.884
5623.41	734.941
5655.88	732.012
5688.53	729.097
5721.37	726.195
5754.4	723.307
5787.62	720.433
5821.03	717.573
5854.64	714.728
5888.44	711.896
5922.43	709.078
5956.62	706.275
5991.01	703.486
6025.6	700.712
6060.38	697.952
6095.37	695.206
6130.56	692.475
6165.95	689.759
6201.55	687.057
6237.35	684.37
6273.36	681.698
6309.57	679.04
6346	676.396
6382.63	673.768
6419.48	671.153
6456.54	668.554
6493.82	665.969
6531.31	663.398
6569.01	660.842
6606.93	658.3
6645.08	655.772
6683.44	653.258
6722.02	650.758
6760.83	648.272
6799.86	645.8
6839.12	643.342
6878.6	640.896
6918.31	638.465
6958.25	636.046
6998.42	633.64
7038.82	631.246
7079.46	628.865
7120.33	626.497
7161.43	624.14
7202.78	621.795
7244.36	619.461
7286.18	617.138
7328.25	614.826
7370.55	612.524
7413.1	610.232
7455.9	607.825
7498.94	605.363
7542.23	602.911
7585.78	600.469
7629.57	598.038
7673.61	595.615
7717.92	593.201
7762.47	590.795
7807.28	588.408
7852.36	586.084
7897.69	583.767
7943.28	581.458
7989.14	579.157
8035.26	576.864
8081.65	574.579
8128.31	572.301
8175.23	570.032
8222.43	567.771
8269.9	565.519
8317.64	563.274
8365.66	561.039
8413.95	558.812
8462.53	556.594
8511.38	554.385
8560.52	552.184
8609.94	549.993
8659.64	547.811
8709.64	545.638
8759.92	543.474
8810.49	541.32
8861.35	539.175
8912.51	537.04
8963.96	534.914
9015.71	532.799
9067.76	530.693
9120.11	528.597
9172.76	526.511
9225.71	524.435
9278.97	522.369
9332.54	520.314
9386.42	518.269
9440.61	516.234
9495.11	514.209
9549.93	512.195
9605.06	510.192
9660.51	508.199
9716.28	506.217
9772.37	504.245
9828.79	502.284
9885.53	500.334
9942.6	498.395
10000	496.467
10057.7	494.549
10115.8	492.643
10174.2	490.747
10232.9	488.863
10292	486.989
10351.4	485.126
10411.2	483.272
10471.3	481.421
10531.7	479.58
10592.5	477.751
10653.7	475.932
10715.2	474.124
10777.1	472.328
10839.3	470.542
10901.8	468.767
10964.8	467.004
11028.1	465.251
11091.7	463.509
11155.8	461.778
11220.2	460.058
11285	458.349
11350.1	456.651
11415.6	454.963
11481.5	453.286
11547.8	451.62
11614.5	449.964
11681.5	448.319
11749	446.684
11816.8	445.059
11885	443.444
11953.6	441.84
12022.6	440.246
12092.1	438.661
12161.9	437.086
12232.1	435.52
12302.7	433.964
12373.7	432.417
12445.1	430.879
12517	429.35
12589.3	427.829
12661.9	426.317
12735	424.813
12808.6	423.317
12882.5	421.829
12956.9	420.348
13031.7	418.874
13106.9	417.406
13182.6	415.946
13258.7	414.493
13335.2	413.046
13412.2	411.607
13489.6	410.175
13567.5	408.751
13645.8	407.333
13724.6	405.923
13803.8	404.52
13883.5	403.124
13963.7	401.736
14044.3	400.355
14125.4	398.981
14206.9	397.615
14288.9	396.256
14371.4	394.904
14454.4	393.56
14537.8	392.223
14621.8	390.893
14706.2	389.57
14791.1	388.255
14876.5	386.947
14962.4	385.646
15048.7	384.352
15135.6	383.066
15223	381.786
15310.9	380.514
15399.3	379.248
15488.2	377.99
15577.6	376.738
15667.5	375.491
15758	374.25
15848.9	373.016
15940.4	371.788
16032.5	370.568
16125	369.354
16218.1	368.147
16311.7	366.948
16405.9	365.755
16500.6	364.569
16595.9	363.391
16691.7	362.219
16788	361.054
16885	359.897
16982.4	358.746
17080.5	357.603
17179.1	356.467
17278.3	355.338
17378	354.216
17478.3	353.101
17579.2	351.993
17680.7	350.892
17782.8	349.799
17885.5	348.712
17988.7	347.632
18092.6	346.56
18197	345.494
18302.1	344.435
18407.7	343.383
18514	342.338
18620.9	341.299
18728.4	340.267
18836.5	339.242
18945.2	338.223
19054.6	337.211
19164.6	336.205
19275.2	335.205
19386.5	334.212
19498.4	333.225
19611	332.243
19724.2	331.268
19838.1	330.298
19952.6	329.334
20067.8	328.375
20183.7	327.422
20300.2	326.473
20417.4	325.53
20535.3	324.592
20653.8	323.658
20773	322.729
20893	321.811
21013.6	320.899
21134.9	319.991
21256.9	319.088
21379.6	318.19
21503	317.296
21627.2	316.406
21752	315.521
21877.6	314.641
22003.9	313.765
22130.9	312.893
22258.7	312.027
22387.2	311.165
22516.5	310.308
22646.4	309.455
22777.2	308.608
22908.7	307.765
23040.9	306.927
23173.9	306.093
23307.7	305.265
23442.3	304.441
23577.6	303.623
23713.7	302.809
23850.6	302
23988.3	301.196
24126.8	300.397
24266.1	299.603
24406.2	298.814
24547.1	298.03
24688.8	297.25
24831.3	296.476
24974.7	295.706
25118.9	294.941
25263.9	294.181
25409.7	293.426
25556.4	292.676
25704	291.931
25852.3	291.19
26001.6	290.454
26151.7	289.721
26302.7	288.992
26454.5	288.268
26607.3	287.549
26760.9	286.835
26915.3	286.125
27070.7	285.42
27227	284.72
27384.2	284.024
27542.3	283.334
27701.3	282.647
27861.2	281.966
28022.1	281.289
28183.8	280.617
28346.5	279.949
28510.2	279.286
28674.8	278.628
28840.3	277.974
29006.8	277.324
29174.3	276.679
29342.7	276.038
29512.1	275.402
29682.5	274.77
29853.8	274.143
30026.2	273.519
30199.5	272.9
30373.9	272.284
30549.2	271.673
30725.6	271.066
30903	270.462
31081.4	269.863
31260.8	269.266
31441.3	268.674
31622.8	268.085
31805.3	267.5
31989	266.918
32173.6	266.34
32359.4	265.766
32546.2	265.195
32734.1	264.628
32923	264.065
33113.1	263.505
33304.3	262.949
33496.5	262.397
33689.9	261.849
33884.4	261.304
34080	260.763
34276.8	260.225
34474.7	259.691
34673.7	259.161
34873.9	258.635
35075.2	258.112
35277.7	257.592
35481.3	257.076
35686.2	256.564
35892.2	256.055
36099.4	255.55
36307.8	255.048
36517.4	254.549
36728.2	254.054
36940.3	253.562
37153.5	253.074
37368	252.589
37583.7	252.107
37800.7	251.629
38018.9	251.154
38238.4	250.682
38459.2	250.214
38681.2	249.749
38904.5	249.288
39129.1	248.83
39355	248.375
39582.2	247.924
39810.7	247.475
40040.5	247.03
40271.7	246.589
40504.2	246.15
40738	245.715
40973.2	245.283
41209.8	244.853
41447.7	244.427
41686.9	244.004
41927.6	243.584
42169.7	243.167
42413.1	242.753
42658	242.342
42904.2	241.934
43151.9	241.529
43401	241.127
43651.6	240.728
43903.6	240.331
44157	239.938
44412	239.548
44668.4	239.16
44926.2	238.775
45185.6	238.394
45446.5	238.015
45708.8	237.638
45972.7	237.265
46238.1	236.894
46505	236.526
46773.5	236.161
47043.5	235.798
47315.1	235.438
47588.3	235.081
47863	234.725
48139.3	234.373
48417.2	234.022
48696.8	233.674
48977.9	233.329
49260.6	232.985
49545	232.644
49831	232.304
50118.7	231.967
50408.1	231.631
50699.1	231.298
50991.8	230.966
51286.1	230.635
51582.2	230.306
51880	229.979
52179.5	229.64
52480.7	229.296
52783.7	228.954
53088.4	228.615
53394.9	228.278
53703.2	227.944
54013.2	227.613
54325	227.284
54638.7	226.957
54954.1	226.634
55271.3	226.312
55590.4	225.993
55911.4	225.677
56234.1	225.363
56558.8	225.052
56885.3	224.743
57213.7	224.436
57544	224.132
57876.2	223.831
58210.3	223.531
58546.4	223.235
58884.4	222.94
59224.3	222.648
59566.2	222.358
59910.1	222.07
60256	221.785
60603.8	221.502
60953.7	221.222
61305.6	220.943
61659.5	220.667
62015.5	220.394
62373.5	220.122
62733.6	219.853
63095.7	219.585
63460	219.32
63826.3	219.058
64194.8	218.797
64565.4	218.539
64938.2	218.282
65313.1	218.028
65690.1	217.776
66069.3	217.526
66450.8	217.278
66834.4	217.033
67220.2	216.789
67608.3	216.547
67998.6	216.308
68391.2	216.07
68786	215.835
69183.1	215.601
69582.5	215.37
69984.2	215.14
70388.2	214.913
70794.6	214.687
71203.3	214.464
71614.3	214.242
72027.8	214.022
72443.6	213.804
72861.8	213.589
73282.5	213.375
73705.5	213.163
74131	212.952
74559	212.744
74989.4	212.537
75422.3	212.333
75857.8	212.13
76295.7	211.929
76736.1	211.73
77179.2	211.533
77624.7	211.337
78072.8	211.143
78523.6	210.951
78976.9	210.761
79432.8	210.572
79891.4	210.385
80352.6	210.2
80816.5	210.017
81283.1	209.835
81752.3	209.655
82224.3	209.477
82699	209.301
83176.4	209.126
83656.6	208.952
84139.5	208.781
84625.3	208.611
85113.8	208.442
85605.2	208.276
86099.4	208.111
86596.4	207.947
87096.4	207.785
87599.2	207.625
88104.9	207.466
88613.5	207.309
89125.1	207.153
89639.6	206.999
90157.1	206.846
90677.6	206.695
91201.1	206.545
91727.6	206.397
92257.1	206.25
92789.7	206.105
93325.4	205.962
93864.2	205.819
94406.1	205.678
94951.1	205.539
95499.3	205.401
96050.6	205.265
96605.1	205.13
97162.8	204.996
97723.7	204.864
98287.9	204.733
98855.3	204.603
99426	204.475
100000	204.348
100577	204.223
101158	204.099
101742	203.976
102329	203.855
102920	203.735
103514	203.616
104112	203.498
104713	203.382
105317	203.267
105925	203.154
106537	203.041
107152	202.93
107771	202.82
108393	202.712
109018	202.605
109648	202.498
110281	202.393
110917	202.29
111558	202.187
112202	202.086
112850	201.986
113501	201.887
114156	201.789
114815	201.692
115478	201.597
116145	201.503
116815	201.409
117490	201.317
118168	201.226
118850	201.137
119536	201.048
120226	200.96
120921	200.874
121619	200.788
122321	200.704
123027	200.621
123737	200.538
124451	200.457
125170	200.377
125893	200.298
126619	200.22
127350	200.143
128086	200.067
128825	199.992
129569	199.918
130317	199.845
131069	199.773
131826	199.702
132587	199.632
133352	199.563
134122	199.495
134896	199.427
135675	199.361
136458	199.296
137246	199.232
138038	199.168
138835	199.106
139637	199.044
140443	198.983
141254	198.924
142069	198.865
142889	198.807
143714	198.75
144544	198.693
145378	198.638
146218	198.583
147062	198.53
147911	198.477
148765	198.425
149624	198.374
150487	198.324
151356	198.274
152230	198.225
153109	198.177
153993	198.13
154882	198.084
155776	198.039
156675	197.994
157580	197.95
158489	197.907
159404	197.865
160325	197.823
161250	197.782
162181	197.742
163117	197.703
164059	197.664
165006	197.626
165959	197.589
166917	197.553
167880	197.517
168850	197.482
169824	197.447
170805	197.414
171791	197.381
172783	197.349
173780	197.317
174783	197.286
175792	197.256
176807	197.226
177828	197.197
178855	197.169
179887	197.142
180926	197.115
181970	197.088
183021	197.063
184077	197.038
185140	197.013
186209	196.989
187284	196.966
188365	196.943
189452	196.921
190546	196.9
191646	196.879
192752	196.859
193865	196.839
194984	196.82
196110	196.802
197242	196.784
198381	196.766
199526	196.75
200678	196.733
201837	196.717
203002	196.702
204174	196.688
205353	196.673
206538	196.66
207730	196.647
208930	196.634
210136	196.622
211349	196.611
212569	196.6
213796	196.589
215030	196.579
216272	196.569
217520	196.56
218776	196.552
220039	196.544
221309	196.536
222587	196.529
223872	196.522
225165	196.516
226464	196.51
227772	196.504
229087	196.5
230409	196.495
231739	196.491
233077	196.487
234423	196.484
235776	196.481
237137	196.479
238506	196.477
239883	196.476
241268	196.475
242661	196.474
244062	196.474
245471	196.474
246888	196.474
248313	196.475
249747	196.476
251189	196.478
252639	196.48
254097	196.482
255564	196.485
257040	196.488
258523	196.492
260016	196.496
261517	196.5
263027	196.504
264545	196.509
266073	196.515
267609	196.52
269153	196.526
270707	196.532
272270	196.539
273842	196.546
275423	196.553
277013	196.561
278612	196.569
280221	196.577
281838	196.585
283465	196.594
285102	196.603
286748	196.612
288403	196.622
290068	196.632
291743	196.642
293427	196.653
295121	196.664
296825	196.675
298538	196.686
300262	196.698
301995	196.71
303739	196.722
305492	196.735
307256	196.747
309030	196.76
310814	196.773
312608	196.787
314413	196.801
316228	196.815
318053	196.829
319890	196.843
321736	196.858
323594	196.873
325462	196.888
327341	196.903
329230	196.919
331131	196.935
333043	196.951
334965	196.967
336899	196.984
338844	197
340800	197.017
342768	197.034
344747	197.052
346737	197.069
348739	197.087
350752	197.105
352777	197.123
354813	197.141
356862	197.16
358922	197.178
360994	197.197
363078	197.216
365174	197.235
367282	197.255
369403	197.274
371535	197.294
373680	197.314
375837	197.334
378007	197.354
380189	197.374
382384	197.395
384592	197.416
386812	197.436
389045	197.457
391291	197.479
393550	197.5
395822	197.521
398107	197.543
400405	197.565
402717	197.586
405042	197.608
407380	197.63
409732	197.653
412098	197.675
414477	197.698
416869	197.72
419276	197.743
421697	197.766
424131	197.789
426580	197.812
429042	197.835
431519	197.858
434010	197.882
436516	197.905
439036	197.929
441570	197.953
444120	197.977
446684	198.001
449262	198.025
451856	198.049
454465	198.073
457088	198.098
459727	198.122
462381	198.147
465050	198.171
467735	198.196
470435	198.221
473151	198.246
475883	198.271
478630	198.296
481393	198.321
484172	198.346
486968	198.371
489779	198.397
492606	198.422
495450	198.448
498310	198.473
501187	198.499
504081	198.525
506991	198.55
509918	198.576
512861	198.602
515822	198.628
518800	198.654
521795	198.68
524807	198.706
527837	198.732
530884	198.758
533949	198.785
537032	198.811
540132	198.837
543250	198.864
546387	198.89
549541	198.917
552713	198.943
555904	198.97
559114	198.997
562341	199.023
565588	199.05
568853	199.077
572137	199.103
575440	199.13
578762	199.157
582103	199.184
585464	199.211
588844	199.238
592243	199.265
595662	199.292
599101	199.319
602560	199.346
606038	199.373
609537	199.4
613056	199.427
616595	199.454
620155	199.481
623735	199.508
627336	199.535
630957	199.562
634600	199.59
638263	199.617
641948	199.644
645654	199.671
649382	199.698
653131	199.726
656901	199.753
660693	199.78
664508	199.807
668344	199.834
672202	199.862
676083	199.889
679986	199.916
683912	199.943
687860	199.971
691831	199.998
695825	200.025
699842	200.052
703882	200.08
707946	200.107
712033	200.134
716143	200.161
720278	200.188
724436	200.216
728618	200.243
732825	200.27
737055	200.297
741310	200.324
745590	200.351
749894	200.378
754223	200.406
758578	200.433
762957	200.46
767361	200.487
771792	200.514
776247	200.541
780728	200.568
785236	200.595
789769	200.622
794328	200.649
798914	200.675
803526	200.702
808165	200.729
812831	200.756
817523	200.783
822243	200.81
826990	200.836
831764	200.863
836566	200.89
841395	200.916
846253	200.943
851138	200.97
856052	200.996
860994	201.023
865964	201.049
870964	201.076
875992	201.102
881049	201.128
886135	201.155
891251	201.181
896396	201.207
901571	201.234
906776	201.26
912011	201.286
917276	201.312
922571	201.338
927897	201.364
933254	201.39
938642	201.416
944061	201.442
949511	201.468
954993	201.494
960506	201.52
966051	201.546
971628	201.571
977237	201.597
982879	201.623
988553	201.648
994260	201.674
1e+06	201.699
1.00577e+06	201.725
1.01158e+06	201.75
1.01742e+06	201.776
1.02329e+06	201.801
1.0292e+06	201.826
1.03514e+06	201.851
1.04112e+06	201.877
1.04713e+06	201.902
1.05317e+06	201.927
1.05925e+06	201.952
1.06537e+06	201.977
1.07152e+06	202.002
1.07771e+06	202.027
1.08393e+06	202.051
1.09018e+06	202.076
1.09648e+06	202.101
1.10281e+06	202.126
1.10917e+06	202.15
1.11558e+06	202.175
1.12202e+06	202.199
1.1285e+06	202.224
1.13501e+06	202.248
1.14156e+06	202.273
1.14815e+06	202.297
1.15478e+06	202.321
1.16145e+06	202.345
1.16815e+06	202.369
1.1749e+06	202.393
1.18168e+06	202.417
1.1885e+06	202.441
1.19536e+06	202.465
1.20226e+06	202.489
1.20921e+06	202.513
1.21619e+06	202.537
1.22321e+06	202.56
1.23027e+06	202.584
1.23737e+06	202.608
1.24451e+06	202.631
1.2517e+06	202.654
1.25893e+06	202.678
1.26619e+06	202.701
1.2735e+06	202.724
1.28086e+06	202.748
1.28825e+06	202.771
1.29569e+06	202.794
1.30317e+06	202.817
1.31069e+06	202.84
1.31826e+06	202.863
1.32587e+06	202.885
1.33352e+06	202.908
1.34122e+06	202.931
1.34896e+06	202.954
1.35675e+06	202.976
1.36458e+06	202.999
1.37246e+06	203.021
1.38038e+06	203.044
1.38835e+06	203.066
1.39637e+06	203.088
1.40443e+06	203.11
1.41254e+06	203.133
1.42069e+06	203.155
1.42889e+06	203.177
1.43714e+06	203.199
1.44544e+06	203.22
1.45378e+06	203.242
1.46218e+06	203.264
1.47062e+06	203.286
1.47911e+06	203.307
1.48765e+06	203.329
1.49624e+06	203.35
1.50487e+06	203.372
1.51356e+06	203.393
1.5223e+06	203.415
1.53109e+06	203.436
1.53993e+06	203.457
1.54882e+06	203.478
1.55776e+06	203.499
1.56675e+06	203.52
1.5758e+06	203.541
1.58489e+06	203.562
1.59404e+06	203.583
1.60325e+06	203.603
1.6125e+06	203.624
1.62181e+06	203.645
1.63117e+06	203.665
1.64059e+06	203.686
1.65006e+06	203.706
1.65959e+06	203.726
1.66917e+06	203.746
1.6788e+06	203.767
1.6885e+06	203.787
1.69824e+06	203.807
1.70805e+06	203.827
1.71791e+06	203.847
1.72783e+06	203.867
1.7378e+06	203.886
1.74783e+06	203.906
1.75792e+06	203.926
1.76807e+06	203.945
1.77828e+06	203.965
1.78855e+06	203.984
1.79887e+06	204.003
1.80926e+06	204.023
1.8197e+06	204.042
1.83021e+06	204.061
1.84077e+06	204.08
1.8514e+06	204.099
1.86209e+06	204.118
1.87284e+06	204.137
1.88365e+06	204.156
1.89452e+06	204.175
1.90546e+06	204.193
1.91646e+06	204.212
1.92752e+06	204.231
1.93865e+06	204.249
1.94984e+06	204.267
1.9611e+06	204.286
1.97242e+06	204.304
1.98381e+06	204.322
1.99526e+06	204.34
2.00678e+06	204.359
2.01837e+06	204.377
2.03002e+06	204.394
2.04174e+06	204.412
2.05353e+06	204.43
2.06538e+06	204.448
2.0773e+06	204.466
2.0893e+06	204.483
2.10136e+06	204.501
2.11349e+06	204.518
2.12569e+06	204.536
2.13796e+06	204.553
2.1503e+06	204.57
2.16272e+06	204.587
2.1752e+06	204.604
2.18776e+06	204.621
2.20039e+06	204.638
2.21309e+06	204.655
2.22587e+06	204.672
2.23872e+06	204.689
2.25165e+06	204.706
2.26464e+06	204.722
2.27772e+06	204.739
2.29087e+06	204.755
2.30409e+06	204.772
2.31739e+06	204.788
2.33077e+06	204.805
2.34423e+06	204.821
2.35776e+06	204.837
2.37137e+06	204.853
2.38506e+06	204.869
2.39883e+06	204.885
2.41268e+06	204.901
2.42661e+06	204.917
2.44062e+06	204.933
2.45471e+06	204.948
2.46888e+06	204.964
2.48313e+06	204.979
2.49747e+06	204.995
2.51189e+06	205.01
2.52639e+06	205.026
2.54097e+06	205.041
2.55564e+06	205.056
2.5704e+06	205.071
2.58523e+06	205.087
2.60016e+06	205.102
2.61517e+06	205.116
2.63027e+06	205.131
2.64545e+06	205.146
2.66073e+06	205.161
2.67609e+06	205.176
2.69153e+06	205.19
2.70707e+06	205.205
2.7227e+06	205.219
2.73842e+06	205.234
2.75423e+06	205.248
2.77013e+06	205.262
2.78612e+06	205.277
2.80221e+06	205.291
2.81838e+06	205.305
2.83465e+06	205.319
2.85102e+06	205.333
2.86748e+06	205.347
2.88403e+06	205.361
2.90068e+06	205.375
2.91743e+06	205.388
2.93427e+06	205.402
2.95121e+06	205.416
2.96825e+06	205.429
2.98538e+06	205.443
3.00262e+06	205.456
3.01995e+06	205.469
3.03739e+06	205.482
3.05492e+06	205.496
3.07256e+06	205.509
3.0903e+06	205.522
3.10814e+06	205.535
3.12608e+06	205.548
3.14413e+06	205.561
3.16228e+06	205.574
3.18053e+06	205.586
3.1989e+06	205.599
3.21736e+06	205.612
3.23594e+06	205.624
3.25462e+06	205.637
3.27341e+06	205.649
3.2923e+06	205.662
3.31131e+06	205.674
3.33043e+06	205.686
3.34965e+06	205.698
3.36899e+06	205.71
3.38844e+06	205.723
3.408e+06	205.735
3.42768e+06	205.746
3.44747e+06	205.758
3.46737e+06	205.77
3.48739e+06	205.782
3.50752e+06	205.794
3.52777e+06	205.805
3.54813e+06	205.817
3.56862e+06	205.828
3.58922e+06	205.84
3.60994e+06	205.851
3.63078e+06	205.863
3.65174e+06	205.874
3.67282e+06	205.885
3.69403e+06	205.896
3.71535e+06	205.907
3.7368e+06	205.918
3.75837e+06	205.929
3.78007e+06	205.94
3.80189e+06	205.951
3.82384e+06	205.962
3.84592e+06	205.973
3.86812e+06	205.983
3.89045e+06	205.994
3.91291e+06	206.004
3.9355e+06	206.015
3.95822e+06	206.025
3.98107e+06	206.036
4.00405e+06	206.046
4.02717e+06	206.056
4.05042e+06	206.067
4.0738e+06	206.077
4.09732e+06	206.087
4.12098e+06	206.097
4.14477e+06	206.107
4.16869e+06	206.117
4.19276e+06	206.127
4.21697e+06	206.136
4.24131e+06	206.146
4.2658e+06	206.156
4.29042e+06	206.166
4.31519e+06	206.175
4.3401e+06	206.185
4.36516e+06	206.194
4.39036e+06	206.204
4.4157e+06	206.213
4.4412e+06	206.222
4.46684e+06	206.232
4.49262e+06	206.241
4.51856e+06	206.25
4.54465e+06	206.259
4.57088e+06	206.268
4.59727e+06	206.277
4.62381e+06	206.286
4.6505e+06	206.295
4.67735e+06	206.304
4.70435e+06	206.312
4.73151e+06	206.321
4.75883e+06	206.33
4.7863e+06	206.338
4.81393e+06	206.347
4.84172e+06	206.355
4.86968e+06	206.364
4.89779e+06	206.372
4.92606e+06	206.38
4.9545e+06	206.389
4.9831e+06	206.397
5.01187e+06	206.405
5.04081e+06	206.413
5.06991e+06	206.421
5.09918e+06	206.429
5.12861e+06	206.437
5.15822e+06	206.445
5.188e+06	206.453
5.21795e+06	206.461
5.24807e+06	206.469
5.27837e+06	206.476
5.30884e+06	206.484
5.33949e+06	206.492
5.37032e+06	206.499
5.40132e+06	206.507
5.4325e+06	206.514
5.46387e+06	206.522
5.49541e+06	206.529
5.52713e+06	206.536
5.55904e+06	206.544
5.59114e+06	206.551
5.62341e+06	206.558
5.65588e+06	206.565
5.68853e+06	206.572
5.72137e+06	206.579
5.7544e+06	206.586
5.78762e+06	206.593
5.82103e+06	206.6
5.85464e+06	206.607
5.88844e+06	206.613
5.92243e+06	206.62
5.95662e+06	206.627
5.99101e+06	206.633
6.0256e+06	206.64
6.06038e+06	206.647
6.09537e+06	206.653
6.13056e+06	206.66
6.16595e+06	206.666
6.20155e+06	206.672
6.23735e+06	206.679
6.27336e+06	206.685
6.30957e+06	206.691
6.346e+06	206.697
6.38263e+06	206.703
6.41948e+06	206.709
6.45654e+06	206.716
6.49382e+06	206.722
6.53131e+06	206.727
6.56901e+06	206.733
6.60693e+06	206.739
6.64508e+06	206.745
6.68344e+06	206.751
6.72202e+06	206.757
6.76083e+06	206.762
6.79986e+06	206.768
6.83912e+06	206.773
6.8786e+06	206.779
6.91831e+06	206.785
6.95825e+06	206.79
6.99842e+06	206.795
7.03882e+06	206.801
7.07946e+06	206.806
7.12033e+06	206.811
7.16143e+06	206.817
7.20278e+06	206.822
7.24436e+06	206.827
7.28618e+06	206.832
7.32825e+06	206.837
7.37055e+06	206.842
7.4131e+06	206.847
7.4559e+06	206.852
7.49894e+06	206.857
7.54223e+06	206.862
7.58578e+06	206.867
7.62957e+06	206.872
7.67361e+06	206.877
7.71792e+06	206.881
7.76247e+06	206.886
7.80728e+06	206.891
7.85236e+06	206.895
7.89769e+06	206.9
7.94328e+06	206.904
7.98914e+06	206.909
8.03526e+06	206.913
8.08165e+06	206.918
8.12831e+06	206.922
8.17523e+06	206.926
8.22243e+06	206.931
8.2699e+06	206.935
8.31764e+06	206.939
8.36566e+06	206.943
8.41395e+06	206.947
8.46253e+06	206.952
8.51138e+06	206.956
8.56052e+06	206.96
8.60994e+06	206.964
8.65964e+06	206.968
8.70964e+06	206.972
8.75992e+06	206.975
8.81049e+06	206.979
8.86135e+06	206.983
8.91251e+06	206.987
8.96396e+06	206.991
9.01571e+06	206.994
9.06776e+06	206.998
9.12011e+06	207.002
9.17276e+06	207.005
9.22571e+06	207.009
9.27897e+06	207.012
9.33254e+06	207.016
9.38642e+06	207.019
9.44061e+06	207.023
9.49511e+06	207.026
9.54993e+06	207.03
9.60506e+06	207.033
9.66051e+06	207.036
9.71628e+06	207.04
9.77237e+06	207.043
9.82879e+06	207.046
9.88553e+06	207.049
9.9426e+06	207.052
1e+07	207.056
