Stopping power dEdx from Ionisation for deuteron Z = 1 in G4_TISSUE_SOFT_ICRP, process name: hIoni
E [MeV]	dEdx [MeV/mm]
0.001	12.2188
0.00100577	12.254
0.00101158	12.2893
0.00101742	12.3247
0.00102329	12.3602
0.0010292	12.3959
0.00103514	12.4316
0.00104112	12.4674
0.00104713	12.5034
0.00105317	12.5394
0.00105925	12.5755
0.00106537	12.6118
0.00107152	12.6481
0.00107771	12.6846
0.00108393	12.7212
0.00109018	12.7578
0.00109648	12.7946
0.00110281	12.8315
0.00110917	12.8685
0.00111558	12.9056
0.00112202	12.9428
0.0011285	12.9801
0.00113501	13.0175
0.00114156	13.055
0.00114815	13.0926
0.00115478	13.1304
0.00116145	13.1682
0.00116815	13.2062
0.0011749	13.2442
0.00118168	13.2824
0.0011885	13.3207
0.00119536	13.3591
0.00120226	13.3976
0.00120921	13.4362
0.00121619	13.4749
0.00122321	13.5138
0.00123027	13.5527
0.00123737	13.5918
0.00124451	13.631
0.0012517	13.6703
0.00125893	13.7097
0.00126619	13.7492
0.0012735	13.7888
0.00128086	13.8286
0.00128825	13.8684
0.00129569	13.9084
0.00130317	13.9485
0.00131069	13.9887
0.00131826	14.029
0.00132587	14.0694
0.00133352	14.11
0.00134122	14.1507
0.00134896	14.1915
0.00135675	14.2324
0.00136458	14.2734
0.00137246	14.3145
0.00138038	14.3558
0.00138835	14.3972
0.00139637	14.4387
0.00140443	14.4803
0.00141254	14.522
0.00142069	14.5639
0.00142889	14.6058
0.00143714	14.6479
0.00144544	14.6902
0.00145378	14.7325
0.00146218	14.775
0.00147062	14.8176
0.00147911	14.8603
0.00148765	14.9031
0.00149624	14.9461
0.00150487	14.9891
0.00151356	15.0323
0.0015223	15.0757
0.00153109	15.1191
0.00153993	15.1627
0.00154882	15.2064
0.00155776	15.2502
0.00156675	15.2942
0.0015758	15.3383
0.00158489	15.3825
0.00159404	15.4268
0.00160325	15.4713
0.0016125	15.5159
0.00162181	15.5606
0.00163117	15.6055
0.00164059	15.6504
0.00165006	15.6956
0.00165959	15.7408
0.00166917	15.7862
0.0016788	15.8317
0.0016885	15.8773
0.00169824	15.9231
0.00170805	15.969
0.00171791	16.015
0.00172783	16.0612
0.0017378	16.1075
0.00174783	16.1539
0.00175792	16.2004
0.00176807	16.2471
0.00177828	16.294
0.00178855	16.3409
0.00179887	16.388
0.00180926	16.4353
0.0018197	16.4826
0.00183021	16.5302
0.00184077	16.5778
0.0018514	16.6256
0.00186209	16.6735
0.00187284	16.7216
0.00188365	16.7698
0.00189452	16.8181
0.00190546	16.8666
0.00191646	16.9152
0.00192752	16.9639
0.00193865	17.0128
0.00194984	17.0619
0.0019611	17.1111
0.00197242	17.1604
0.00198381	17.2098
0.00199526	17.2594
0.00200678	17.3092
0.00201837	17.3591
0.00203002	17.4091
0.00204174	17.4593
0.00205353	17.5096
0.00206538	17.5601
0.0020773	17.6107
0.0020893	17.6615
0.00210136	17.7124
0.00211349	17.7634
0.00212569	17.8146
0.00213796	17.866
0.0021503	17.9175
0.00216272	17.9691
0.0021752	18.0209
0.00218776	18.0729
0.00220039	18.1249
0.00221309	18.1772
0.00222587	18.2296
0.00223872	18.2821
0.00225165	18.3348
0.00226464	18.3877
0.00227772	18.4407
0.00229087	18.4938
0.00230409	18.5471
0.00231739	18.6006
0.00233077	18.6542
0.00234423	18.708
0.00235776	18.7619
0.00237137	18.816
0.00238506	18.8702
0.00239883	18.9246
0.00241268	18.9792
0.00242661	19.0339
0.00244062	19.0887
0.00245471	19.1437
0.00246888	19.1989
0.00248313	19.2543
0.00249747	19.3098
0.00251189	19.3654
0.00252639	19.4212
0.00254097	19.4772
0.00255564	19.5334
0.0025704	19.5897
0.00258523	19.6461
0.00260016	19.7027
0.00261517	19.7595
0.00263027	19.8165
0.00264545	19.8736
0.00266073	19.9309
0.00267609	19.9883
0.00269153	20.046
0.00270707	20.1037
0.0027227	20.1617
0.00273842	20.2198
0.00275423	20.2781
0.00277013	20.3365
0.00278612	20.3951
0.00280221	20.4539
0.00281838	20.5129
0.00283465	20.572
0.00285102	20.6313
0.00286748	20.6908
0.00288403	20.7504
0.00290068	20.8102
0.00291743	20.8702
0.00293427	20.9304
0.00295121	20.9907
0.00296825	21.0512
0.00298538	21.1119
0.00300262	21.1727
0.00301995	21.2338
0.00303739	21.295
0.00305492	21.3563
0.00307256	21.4179
0.0030903	21.4796
0.00310814	21.5415
0.00312608	21.6036
0.00314413	21.6659
0.00316228	21.7284
0.00318053	21.791
0.0031989	21.8538
0.00321736	21.9168
0.00323594	21.98
0.00325462	22.0433
0.00327341	22.1068
0.0032923	22.1706
0.00331131	22.2345
0.00333043	22.2986
0.00334965	22.3628
0.00336899	22.4273
0.00338844	22.4919
0.003408	22.5568
0.00342768	22.6218
0.00344747	22.687
0.00346737	22.7524
0.00348739	22.818
0.00350752	22.8837
0.00352777	22.9497
0.00354813	23.0158
0.00356862	23.0822
0.00358922	23.1487
0.00360994	23.2154
0.00363078	23.2823
0.00365174	23.3495
0.00367282	23.4168
0.00369403	23.4843
0.00371535	23.5519
0.0037368	23.6198
0.00375837	23.6879
0.00378007	23.7562
0.00380189	23.8247
0.00382384	23.8933
0.00384592	23.9622
0.00386812	24.0313
0.00389045	24.1005
0.00391291	24.17
0.0039355	24.2397
0.00395822	24.3095
0.00398107	24.3796
0.00400405	24.4499
0.00402717	24.5204
0.00405042	24.591
0.0040738	24.6619
0.00409732	24.733
0.00412098	24.8043
0.00414477	24.8758
0.00416869	24.9475
0.00419276	25.0194
0.00421697	25.0915
0.00424131	25.1638
0.0042658	25.2364
0.00429042	25.3091
0.00431519	25.3821
0.0043401	25.4552
0.00436516	25.5286
0.00439036	25.6022
0.0044157	25.676
0.0044412	25.75
0.00446684	25.8242
0.00449262	25.8986
0.00451856	25.9733
0.00454465	26.0481
0.00457088	26.1232
0.00459727	26.1985
0.00462381	26.274
0.0046505	26.3498
0.00467735	26.4257
0.00470435	26.5019
0.00473151	26.5783
0.00475883	26.6549
0.0047863	26.7317
0.00481393	26.8088
0.00484172	26.886
0.00486968	26.9635
0.00489779	27.0413
0.00492606	27.1192
0.0049545	27.1974
0.0049831	27.2758
0.00501187	27.3544
0.00504081	27.4332
0.00506991	27.5123
0.00509918	27.5916
0.00512861	27.6711
0.00515822	27.7509
0.005188	27.8309
0.00521795	27.9111
0.00524807	27.9915
0.00527837	28.0722
0.00530884	28.1531
0.00533949	28.2343
0.00537032	28.3157
0.00540132	28.3973
0.0054325	28.4791
0.00546387	28.5612
0.00549541	28.6435
0.00552713	28.7261
0.00555904	28.8089
0.00559114	28.8919
0.00562341	28.9752
0.00565588	29.0587
0.00568853	29.1425
0.00572137	29.2265
0.0057544	29.3107
0.00578762	29.3952
0.00582103	29.48
0.00585464	29.5649
0.00588844	29.6501
0.00592243	29.7356
0.00595662	29.8213
0.00599101	29.9073
0.0060256	29.9935
0.00606038	30.0799
0.00609537	30.1666
0.00613056	30.2536
0.00616595	30.3408
0.00620155	30.4282
0.00623735	30.5159
0.00627336	30.6039
0.00630957	30.6921
0.006346	30.7806
0.00638263	30.8693
0.00641948	30.9583
0.00645654	31.0475
0.00649382	31.137
0.00653131	31.2268
0.00656901	31.3168
0.00660693	31.407
0.00664508	31.4976
0.00668344	31.5883
0.00672202	31.6794
0.00676083	31.7707
0.00679986	31.8623
0.00683912	31.9541
0.0068786	32.0462
0.00691831	32.1386
0.00695825	32.2312
0.00699842	32.3241
0.00703882	32.4173
0.00707946	32.5107
0.00712033	32.6044
0.00716143	32.6984
0.00720278	32.7927
0.00724436	32.8872
0.00728618	32.982
0.00732825	33.0771
0.00737055	33.1724
0.0074131	33.268
0.0074559	33.3639
0.00749894	33.4601
0.00754223	33.5565
0.00758578	33.6532
0.00762957	33.7502
0.00767361	33.8475
0.00771792	33.9451
0.00776247	34.0429
0.00780728	34.141
0.00785236	34.2395
0.00789769	34.3381
0.00794328	34.4371
0.00798914	34.5364
0.00803526	34.6359
0.00808165	34.7358
0.00812831	34.8359
0.00817523	34.9363
0.00822243	35.037
0.0082699	35.138
0.00831764	35.2393
0.00836566	35.3408
0.00841395	35.4427
0.00846253	35.5449
0.00851138	35.6473
0.00856052	35.7501
0.00860994	35.8531
0.00865964	35.9564
0.00870964	36.0601
0.00875992	36.164
0.00881049	36.2683
0.00886135	36.3728
0.00891251	36.4776
0.00896396	36.5828
0.00901571	36.6882
0.00906776	36.794
0.00912011	36.9
0.00917276	37.0064
0.00922571	37.1131
0.00927897	37.22
0.00933254	37.3273
0.00938642	37.4349
0.00944061	37.5428
0.00949511	37.651
0.00954993	37.7595
0.00960506	37.8684
0.00966051	37.9775
0.00971628	38.087
0.00977237	38.1968
0.00982879	38.3069
0.00988553	38.4173
0.0099426	38.528
0.01	38.6391
0.0100577	38.7505
0.0101158	38.8621
0.0101742	38.9742
0.0102329	39.0865
0.010292	39.1992
0.0103514	39.3122
0.0104112	39.4255
0.0104713	39.5391
0.0105317	39.6531
0.0105925	39.7674
0.0106537	39.882
0.0107152	39.9969
0.0107771	40.1122
0.0108393	40.2278
0.0109018	40.3438
0.0109648	40.4601
0.0110281	40.5767
0.0110917	40.6937
0.0111558	40.811
0.0112202	40.9286
0.011285	41.0466
0.0113501	41.1649
0.0114156	41.2835
0.0114815	41.4025
0.0115478	41.5219
0.0116145	41.6415
0.0116815	41.7616
0.011749	41.8819
0.0118168	42.0027
0.011885	42.1237
0.0119536	42.2451
0.0120226	42.3669
0.0120921	42.489
0.0121619	42.6115
0.0122321	42.7343
0.0123027	42.8575
0.0123737	42.981
0.0124451	43.1049
0.012517	43.2292
0.0125893	43.3538
0.0126619	43.4787
0.012735	43.604
0.0128086	43.7297
0.0128825	43.8558
0.0129569	43.9822
0.0130317	44.109
0.0131069	44.2361
0.0131826	44.3636
0.0132587	44.4915
0.0133352	44.6197
0.0134122	44.7483
0.0134896	44.8773
0.0135675	45.0067
0.0136458	45.1364
0.0137246	45.2665
0.0138038	45.397
0.0138835	45.5278
0.0139637	45.659
0.0140443	45.7906
0.0141254	45.9226
0.0142069	46.055
0.0142889	46.1877
0.0143714	46.3209
0.0144544	46.4544
0.0145378	46.5883
0.0146218	46.7226
0.0147062	46.8573
0.0147911	46.9923
0.0148765	47.1278
0.0149624	47.2636
0.0150487	47.3998
0.0151356	47.5365
0.015223	47.6735
0.0153109	47.8109
0.0153993	47.9487
0.0154882	48.0869
0.0155776	48.2255
0.0156675	48.3645
0.015758	48.5039
0.0158489	48.6437
0.0159404	48.7839
0.0160325	48.9245
0.016125	49.0656
0.0162181	49.207
0.0163117	49.3488
0.0164059	49.4911
0.0165006	49.6337
0.0165959	49.7768
0.0166917	49.9203
0.016788	50.0641
0.016885	50.2084
0.0169824	50.3532
0.0170805	50.4983
0.0171791	50.6439
0.0172783	50.7898
0.017378	50.9362
0.0174783	51.083
0.0175792	51.2303
0.0176807	51.378
0.0177828	51.526
0.0178855	51.6746
0.0179887	51.8235
0.0180926	51.9729
0.018197	52.1227
0.0183021	52.2729
0.0184077	52.4236
0.018514	52.5747
0.0186209	52.7262
0.0187284	52.8782
0.0188365	53.0306
0.0189452	53.1835
0.0190546	53.3368
0.0191646	53.4905
0.0192752	53.6447
0.0193865	53.7993
0.0194984	53.9544
0.019611	54.1099
0.0197242	54.2659
0.0198381	54.4223
0.0199526	54.5792
0.0200678	54.7365
0.0201837	54.8857
0.0203002	55.0234
0.0204174	55.1613
0.0205353	55.2994
0.0206538	55.4379
0.020773	55.5766
0.020893	55.7157
0.0210136	55.855
0.0211349	55.9945
0.0212569	56.1344
0.0213796	56.2745
0.021503	56.415
0.0216272	56.5557
0.021752	56.6966
0.0218776	56.8379
0.0220039	56.9794
0.0221309	57.1212
0.0222587	57.2633
0.0223872	57.4057
0.0225165	57.5483
0.0226464	57.6912
0.0227772	57.8344
0.0229087	57.9779
0.0230409	58.1216
0.0231739	58.2656
0.0233077	58.4099
0.0234423	58.5545
0.0235776	58.6993
0.0237137	58.8444
0.0238506	58.9898
0.0239883	59.1354
0.0241268	59.2814
0.0242661	59.4276
0.0244062	59.574
0.0245471	59.7207
0.0246888	59.8677
0.0248313	60.015
0.0249747	60.1625
0.0251189	60.3103
0.0252639	60.4584
0.0254097	60.6067
0.0255564	60.7553
0.025704	60.9042
0.0258523	61.0533
0.0260016	61.2027
0.0261517	61.3523
0.0263027	61.5022
0.0264545	61.6524
0.0266073	61.8028
0.0267609	61.9535
0.0269153	62.1044
0.0270707	62.2556
0.027227	62.407
0.0273842	62.5588
0.0275423	62.7107
0.0277013	62.8629
0.0278612	63.0154
0.0280221	63.1681
0.0281838	63.321
0.0283465	63.4743
0.0285102	63.6277
0.0286748	63.7814
0.0288403	63.9354
0.0290068	64.0896
0.0291743	64.244
0.0293427	64.3987
0.0295121	64.5536
0.0296825	64.7088
0.0298538	64.8642
0.0300262	65.0198
0.0301995	65.1757
0.0303739	65.3318
0.0305492	65.4881
0.0307256	65.6447
0.030903	65.8015
0.0310814	65.9585
0.0312608	66.1158
0.0314413	66.2733
0.0316228	66.431
0.0318053	66.5889
0.031989	66.7471
0.0321736	66.9054
0.0323594	67.064
0.0325462	67.2228
0.0327341	67.3819
0.032923	67.5411
0.0331131	67.7006
0.0333043	67.8602
0.0334965	68.0201
0.0336899	68.1802
0.0338844	68.3405
0.03408	68.501
0.0342768	68.6617
0.0344747	68.8226
0.0346737	68.9837
0.0348739	69.145
0.0350752	69.3064
0.0352777	69.4681
0.0354813	69.63
0.0356862	69.792
0.0358922	69.9543
0.0360994	70.1167
0.0363078	70.2793
0.0365174	70.4421
0.0367282	70.6051
0.0369403	70.7682
0.0371535	70.9316
0.037368	71.0951
0.0375837	71.2587
0.0378007	71.4226
0.0380189	71.5866
0.0382384	71.7507
0.0384592	71.915
0.0386812	72.0795
0.0389045	72.2441
0.0391291	72.4089
0.039355	72.5739
0.0395822	72.7389
0.0398107	72.9042
0.0400405	73.0695
0.0402717	73.235
0.0405042	73.4007
0.040738	73.5665
0.0409732	73.7324
0.0412098	73.8984
0.0414477	74.0646
0.0416869	74.2309
0.0419276	74.3973
0.0421697	74.5638
0.0424131	74.7305
0.042658	74.8972
0.0429042	75.0641
0.0431519	75.2311
0.043401	75.3981
0.0436516	75.5653
0.0439036	75.7326
0.044157	75.8999
0.044412	76.0674
0.0446684	76.2349
0.0449262	76.4025
0.0451856	76.5702
0.0454465	76.738
0.0457088	76.9059
0.0459727	77.0738
0.0462381	77.2418
0.046505	77.4098
0.0467735	77.5779
0.0470435	77.7461
0.0473151	77.9143
0.0475883	78.0825
0.047863	78.2508
0.0481393	78.4192
0.0484172	78.5876
0.0486968	78.756
0.0489779	78.9244
0.0492606	79.0929
0.049545	79.2614
0.049831	79.4299
0.0501187	79.5984
0.0504081	79.7669
0.0506991	79.9354
0.0509918	80.104
0.0512861	80.2725
0.0515822	80.441
0.05188	80.6095
0.0521795	80.778
0.0524807	80.9464
0.0527837	81.1149
0.0530884	81.2833
0.0533949	81.4516
0.0537032	81.62
0.0540132	81.7883
0.054325	81.9565
0.0546387	82.1247
0.0549541	82.2928
0.0552713	82.4609
0.0555904	82.6289
0.0559114	82.7968
0.0562341	82.9646
0.0565588	83.1324
0.0568853	83.3001
0.0572137	83.4677
0.057544	83.6351
0.0578762	83.8025
0.0582103	83.9698
0.0585464	84.1369
0.0588844	84.304
0.0592243	84.4709
0.0595662	84.6377
0.0599101	84.8043
0.060256	84.9709
0.0606038	85.1372
0.0609537	85.3034
0.0613056	85.4695
0.0616595	85.6354
0.0620155	85.8011
0.0623735	85.9667
0.0627336	86.132
0.0630957	86.2972
0.06346	86.4622
0.0638263	86.627
0.0641948	86.7916
0.0645654	86.956
0.0649382	87.1202
0.0653131	87.2842
0.0656901	87.4479
0.0660693	87.6114
0.0664508	87.7746
0.0668344	87.9377
0.0672202	88.1004
0.0676083	88.2629
0.0679986	88.4252
0.0683912	88.5871
0.068786	88.7488
0.0691831	88.9102
0.0695825	89.0714
0.0699842	89.2322
0.0703882	89.3927
0.0707946	89.5529
0.0712033	89.7128
0.0716143	89.8724
0.0720278	90.0316
0.0724436	90.1905
0.0728618	90.3491
0.0732825	90.5073
0.0737055	90.6652
0.074131	90.8226
0.074559	90.9798
0.0749894	91.1365
0.0754223	91.2929
0.0758578	91.4488
0.0762957	91.6044
0.0767361	91.7596
0.0771792	91.9143
0.0776247	92.0687
0.0780728	92.2226
0.0785236	92.3761
0.0789769	92.5291
0.0794328	92.6817
0.0798914	92.8338
0.0803526	92.9855
0.0808165	93.1257
0.0812831	93.2577
0.0817523	93.389
0.0822243	93.5196
0.082699	93.6494
0.0831764	93.7786
0.0836566	93.907
0.0841395	94.0346
0.0846253	94.1615
0.0851138	94.2877
0.0856052	94.413
0.0860994	94.5376
0.0865964	94.6613
0.0870964	94.7843
0.0875992	94.9064
0.0881049	95.0277
0.0886135	95.1482
0.0891251	95.2678
0.0896396	95.3866
0.0901571	95.5045
0.0906776	95.6215
0.0912011	95.7377
0.0917276	95.8529
0.0922571	95.9673
0.0927897	96.0807
0.0933254	96.1932
0.0938642	96.3047
0.0944061	96.4153
0.0949511	96.525
0.0954993	96.6336
0.0960506	96.7413
0.0966051	96.848
0.0971628	96.9537
0.0977237	97.0584
0.0982879	97.1621
0.0988553	97.2647
0.099426	97.3663
0.1	97.4669
0.100577	97.5664
0.101158	97.6648
0.101742	97.7621
0.102329	97.8583
0.10292	97.9535
0.103514	98.0475
0.104112	98.1404
0.104713	98.2321
0.105317	98.3227
0.105925	98.4122
0.106537	98.5005
0.107152	98.5876
0.107771	98.6735
0.108393	98.7583
0.109018	98.8418
0.109648	98.9241
0.110281	99.0052
0.110917	99.085
0.111558	99.1636
0.112202	99.2409
0.11285	99.317
0.113501	99.3918
0.114156	99.4653
0.114815	99.5375
0.115478	99.6083
0.116145	99.6779
0.116815	99.7461
0.11749	99.813
0.118168	99.8786
0.11885	99.9428
0.119536	100.006
0.120226	100.067
0.120921	100.127
0.121619	100.186
0.122321	100.243
0.123027	100.299
0.123737	100.353
0.124451	100.406
0.12517	100.458
0.125893	100.508
0.126619	100.556
0.12735	100.604
0.128086	100.649
0.128825	100.693
0.129569	100.736
0.130317	100.777
0.131069	100.817
0.131826	100.855
0.132587	100.891
0.133352	100.926
0.134122	100.96
0.134896	100.992
0.135675	101.022
0.136458	101.051
0.137246	101.078
0.138038	101.104
0.138835	101.128
0.139637	101.15
0.140443	101.171
0.141254	101.19
0.142069	101.207
0.142889	101.223
0.143714	101.237
0.144544	101.25
0.145378	101.261
0.146218	101.27
0.147062	101.277
0.147911	101.283
0.148765	101.287
0.149624	101.29
0.150487	101.291
0.151356	101.29
0.15223	101.287
0.153109	101.283
0.153993	101.276
0.154882	101.269
0.155776	101.259
0.156675	101.248
0.15758	101.235
0.158489	101.22
0.159404	101.203
0.160325	101.185
0.16125	101.165
0.162181	101.143
0.163117	101.119
0.164059	101.094
0.165006	101.066
0.165959	101.037
0.166917	101.007
0.16788	100.974
0.16885	100.939
0.169824	100.903
0.170805	100.865
0.171791	100.825
0.172783	100.784
0.17378	100.74
0.174783	100.695
0.175792	100.648
0.176807	100.599
0.177828	100.548
0.178855	100.495
0.179887	100.441
0.180926	100.385
0.18197	100.327
0.183021	100.267
0.184077	100.205
0.18514	100.142
0.186209	100.076
0.187284	100.009
0.188365	99.9399
0.189452	99.869
0.190546	99.7963
0.191646	99.7218
0.192752	99.6454
0.193865	99.5672
0.194984	99.4872
0.19611	99.4053
0.197242	99.3216
0.198381	99.2361
0.199526	99.1488
0.200678	99.0597
0.201837	98.9688
0.203002	98.876
0.204174	98.7814
0.205353	98.6851
0.206538	98.5869
0.20773	98.4869
0.20893	98.3852
0.210136	98.2816
0.211349	98.1763
0.212569	98.0692
0.213796	97.9603
0.21503	97.8496
0.216272	97.7372
0.21752	97.623
0.218776	97.507
0.220039	97.3893
0.221309	97.2699
0.222587	97.1487
0.223872	97.0258
0.225165	96.9011
0.226464	96.7748
0.227772	96.6467
0.229087	96.5169
0.230409	96.3854
0.231739	96.2523
0.233077	96.1174
0.234423	95.9809
0.235776	95.8428
0.237137	95.7029
0.238506	95.5614
0.239883	95.4183
0.241268	95.2736
0.242661	95.1272
0.244062	94.9792
0.245471	94.8296
0.246888	94.6785
0.248313	94.5257
0.249747	94.3714
0.251189	94.2155
0.252639	94.0581
0.254097	93.8991
0.255564	93.7386
0.25704	93.5766
0.258523	93.413
0.260016	93.248
0.261517	93.0815
0.263027	92.9136
0.264545	92.7441
0.266073	92.5733
0.267609	92.4009
0.269153	92.2272
0.270707	92.0521
0.27227	91.8756
0.273842	91.6977
0.275423	91.5184
0.277013	91.3377
0.278612	91.1558
0.280221	90.9725
0.281838	90.7879
0.283465	90.602
0.285102	90.4148
0.286748	90.2263
0.288403	90.0366
0.290068	89.8456
0.291743	89.6534
0.293427	89.46
0.295121	89.2654
0.296825	89.0696
0.298538	88.8726
0.300262	88.6745
0.301995	88.4753
0.303739	88.2749
0.305492	88.0735
0.307256	87.8709
0.30903	87.6673
0.310814	87.4626
0.312608	87.2569
0.314413	87.0501
0.316228	86.8424
0.318053	86.6336
0.31989	86.4239
0.321736	86.2132
0.323594	86.0015
0.325462	85.789
0.327341	85.5755
0.32923	85.3611
0.331131	85.1459
0.333043	84.9298
0.334965	84.7128
0.336899	84.495
0.338844	84.2765
0.3408	84.0571
0.342768	83.8369
0.344747	83.616
0.346737	83.3943
0.348739	83.172
0.350752	82.9489
0.352777	82.7251
0.354813	82.5006
0.356862	82.2755
0.358922	82.0498
0.360994	81.8234
0.363078	81.5964
0.365174	81.3688
0.367282	81.1407
0.369403	80.912
0.371535	80.6828
0.37368	80.453
0.375837	80.2228
0.378007	79.992
0.380189	79.7608
0.382384	79.5291
0.384592	79.297
0.386812	79.0645
0.389045	78.8316
0.391291	78.5983
0.39355	78.3646
0.395822	78.1305
0.398107	77.8962
0.400405	77.6615
0.402717	77.4265
0.405042	77.1912
0.40738	76.9556
0.409732	76.7198
0.412098	76.4837
0.414477	76.2474
0.416869	76.0109
0.419276	75.7743
0.421697	75.5374
0.424131	75.3004
0.42658	75.0632
0.429042	74.8259
0.431519	74.5885
0.43401	74.351
0.436516	74.1134
0.439036	73.8757
0.44157	73.6379
0.44412	73.4002
0.446684	73.1624
0.449262	72.9245
0.451856	72.6867
0.454465	72.4489
0.457088	72.2112
0.459727	71.9734
0.462381	71.7358
0.46505	71.4982
0.467735	71.2606
0.470435	71.0232
0.473151	70.7859
0.475883	70.5487
0.47863	70.3117
0.481393	70.0748
0.484172	69.838
0.486968	69.6014
0.489779	69.365
0.492606	69.1289
0.49545	68.8929
0.49831	68.6571
0.501187	68.4216
0.504081	68.1863
0.506991	67.9513
0.509918	67.7165
0.512861	67.482
0.515822	67.2478
0.5188	67.014
0.521795	66.7804
0.524807	66.5471
0.527837	66.3142
0.530884	66.0816
0.533949	65.8493
0.537032	65.6174
0.540132	65.3859
0.54325	65.1548
0.546387	64.924
0.549541	64.6937
0.552713	64.4637
0.555904	64.2342
0.559114	64.0051
0.562341	63.7764
0.565588	63.5481
0.568853	63.3203
0.572137	63.093
0.57544	62.8661
0.578762	62.6397
0.582103	62.4138
0.585464	62.1883
0.588844	61.9634
0.592243	61.7389
0.595662	61.515
0.599101	61.2915
0.60256	61.0686
0.606038	60.8462
0.609537	60.6243
0.613056	60.403
0.616595	60.1822
0.620155	59.962
0.623735	59.7423
0.627336	59.5232
0.630957	59.3046
0.6346	59.0866
0.638263	58.8692
0.641948	58.6524
0.645654	58.4361
0.649382	58.2204
0.653131	58.0053
0.656901	57.7909
0.660693	57.577
0.664508	57.3637
0.668344	57.151
0.672202	56.939
0.676083	56.7275
0.679986	56.5167
0.683912	56.3065
0.68786	56.0969
0.691831	55.8879
0.695825	55.6796
0.699842	55.4719
0.703882	55.2648
0.707946	55.0584
0.712033	54.8526
0.716143	54.6475
0.720278	54.443
0.724436	54.2392
0.728618	54.036
0.732825	53.8334
0.737055	53.6315
0.74131	53.4302
0.74559	53.2296
0.749894	53.0297
0.754223	52.8304
0.758578	52.6318
0.762957	52.4338
0.767361	52.2365
0.771792	52.0399
0.776247	51.8439
0.780728	51.6486
0.785236	51.4539
0.789769	51.2599
0.794328	51.0665
0.798914	50.8739
0.803526	50.6819
0.808165	50.4905
0.812831	50.2998
0.817523	50.1098
0.822243	49.9204
0.82699	49.7317
0.831764	49.5437
0.836566	49.3563
0.841395	49.1696
0.846253	48.9835
0.851138	48.7981
0.856052	48.6134
0.860994	48.4293
0.865964	48.2459
0.870964	48.0631
0.875992	47.881
0.881049	47.6996
0.886135	47.5188
0.891251	47.3386
0.896396	47.1591
0.901571	46.9803
0.906776	46.8021
0.912011	46.6246
0.917276	46.4477
0.922571	46.2714
0.927897	46.0958
0.933254	45.9208
0.938642	45.7465
0.944061	45.5728
0.949511	45.3997
0.954993	45.2273
0.960506	45.0555
0.966051	44.8844
0.971628	44.7138
0.977237	44.5439
0.982879	44.3747
0.988553	44.206
0.99426	44.038
1	43.8706
1.00577	43.7038
1.01158	43.5377
1.01742	43.3721
1.02329	43.2072
1.0292	43.0428
1.03514	42.8791
1.04112	42.716
1.04713	42.5535
1.05317	42.3916
1.05925	42.2303
1.06537	42.0695
1.07152	41.9094
1.07771	41.7499
1.08393	41.591
1.09018	41.4326
1.09648	41.2749
1.10281	41.1177
1.10917	40.9611
1.11558	40.8051
1.12202	40.6496
1.1285	40.4948
1.13501	40.3405
1.14156	40.1868
1.14815	40.0336
1.15478	39.881
1.16145	39.729
1.16815	39.5775
1.1749	39.4266
1.18168	39.2763
1.1885	39.1265
1.19536	38.9772
1.20226	38.8285
1.20921	38.6804
1.21619	38.5328
1.22321	38.3857
1.23027	38.2392
1.23737	38.0932
1.24451	37.9477
1.2517	37.8028
1.25893	37.6584
1.26619	37.5146
1.2735	37.3712
1.28086	37.2284
1.28825	37.0861
1.29569	36.9443
1.30317	36.8031
1.31069	36.6623
1.31826	36.5221
1.32587	36.3823
1.33352	36.2431
1.34122	36.1044
1.34896	35.9662
1.35675	35.8285
1.36458	35.6913
1.37246	35.5545
1.38038	35.4183
1.38835	35.2826
1.39637	35.1473
1.40443	35.0126
1.41254	34.8783
1.42069	34.7445
1.42889	34.6112
1.43714	34.4783
1.44544	34.346
1.45378	34.2141
1.46218	34.0827
1.47062	33.9517
1.47911	33.8212
1.48765	33.6912
1.49624	33.5617
1.50487	33.4326
1.51356	33.3039
1.5223	33.1758
1.53109	33.048
1.53993	32.9208
1.54882	32.794
1.55776	32.6676
1.56675	32.5417
1.5758	32.4162
1.58489	32.2911
1.59404	32.1666
1.60325	32.0424
1.6125	31.9187
1.62181	31.7954
1.63117	31.6726
1.64059	31.5501
1.65006	31.4282
1.65959	31.3066
1.66917	31.1855
1.6788	31.0648
1.6885	30.9445
1.69824	30.8246
1.70805	30.7052
1.71791	30.5861
1.72783	30.4675
1.7378	30.3493
1.74783	30.2315
1.75792	30.1141
1.76807	29.9972
1.77828	29.8806
1.78855	29.7645
1.79887	29.6487
1.80926	29.5334
1.8197	29.4184
1.83021	29.3038
1.84077	29.1897
1.8514	29.0759
1.86209	28.9626
1.87284	28.8496
1.88365	28.737
1.89452	28.6248
1.90546	28.513
1.91646	28.4016
1.92752	28.2906
1.93865	28.1799
1.94984	28.0696
1.9611	27.9598
1.97242	27.8503
1.98381	27.7411
1.99526	27.6324
2.00678	27.524
2.01837	27.416
2.03002	27.3083
2.04174	27.2011
2.05353	27.0942
2.06538	26.9877
2.0773	26.8815
2.0893	26.7757
2.10136	26.6703
2.11349	26.5652
2.12569	26.4605
2.13796	26.3561
2.1503	26.2521
2.16272	26.1485
2.1752	26.0452
2.18776	25.9423
2.20039	25.8398
2.21309	25.7375
2.22587	25.6357
2.23872	25.5342
2.25165	25.433
2.26464	25.3322
2.27772	25.2317
2.29087	25.1316
2.30409	25.0318
2.31739	24.9324
2.33077	24.8333
2.34423	24.7345
2.35776	24.6361
2.37137	24.538
2.38506	24.4403
2.39883	24.3429
2.41268	24.2458
2.42661	24.149
2.44062	24.0526
2.45471	23.9566
2.46888	23.8608
2.48313	23.7654
2.49747	23.6703
2.51189	23.5756
2.52639	23.4811
2.54097	23.387
2.55564	23.2933
2.5704	23.1998
2.58523	23.1067
2.60016	23.0139
2.61517	22.9214
2.63027	22.8292
2.64545	22.7373
2.66073	22.6458
2.67609	22.5546
2.69153	22.4637
2.70707	22.3731
2.7227	22.2828
2.73842	22.1929
2.75423	22.1032
2.77013	22.0139
2.78612	21.9248
2.80221	21.8361
2.81838	21.7477
2.83465	21.6596
2.85102	21.5718
2.86748	21.4843
2.88403	21.3971
2.90068	21.3102
2.91743	21.2236
2.93427	21.1374
2.95121	21.0514
2.96825	20.9657
2.98538	20.8803
3.00262	20.7952
3.01995	20.7104
3.03739	20.626
3.05492	20.5418
3.07256	20.4579
3.0903	20.3743
3.10814	20.2909
3.12608	20.2079
3.14413	20.1252
3.16228	20.0428
3.18053	19.9606
3.1989	19.8787
3.21736	19.7972
3.23594	19.7159
3.25462	19.6349
3.27341	19.5542
3.2923	19.4738
3.31131	19.3936
3.33043	19.3138
3.34965	19.2342
3.36899	19.1549
3.38844	19.0759
3.408	18.9972
3.42768	18.9187
3.44747	18.8405
3.46737	18.7626
3.48739	18.685
3.50752	18.6077
3.52777	18.5306
3.54813	18.4538
3.56862	18.3773
3.58922	18.3011
3.60994	18.2251
3.63078	18.1494
3.65174	18.074
3.67282	17.9988
3.69403	17.9239
3.71535	17.8493
3.7368	17.7749
3.75837	17.7009
3.78007	17.627
3.80189	17.5535
3.82384	17.4802
3.84592	17.4072
3.86812	17.3344
3.89045	17.2619
3.91291	17.1897
3.9355	17.1177
3.95822	17.046
3.98107	16.9746
4.00405	16.9034
4.02717	16.8324
4.05042	16.7618
4.0738	16.6913
4.09732	16.6212
4.12098	16.5513
4.14477	16.4816
4.16869	16.4122
4.19276	16.3431
4.21697	16.2742
4.24131	16.2056
4.2658	16.1372
4.29042	16.069
4.31519	16.0012
4.3401	15.9335
4.36516	15.8661
4.39036	15.799
4.4157	15.7321
4.4412	15.6655
4.46684	15.5991
4.49262	15.5329
4.51856	15.467
4.54465	15.4014
4.57088	15.3359
4.59727	15.2708
4.62381	15.2058
4.6505	15.1411
4.67735	15.0767
4.70435	15.0125
4.73151	14.9485
4.75883	14.8848
4.7863	14.8213
4.81393	14.758
4.84172	14.695
4.86968	14.6322
4.89779	14.5696
4.92606	14.5073
4.9545	14.4452
4.9831	14.3834
5.01187	14.3218
5.04081	14.2604
5.06991	14.1992
5.09918	14.1383
5.12861	14.0776
5.15822	14.0171
5.188	13.9569
5.21795	13.8969
5.24807	13.8371
5.27837	13.7776
5.30884	13.7182
5.33949	13.6591
5.37032	13.6003
5.40132	13.5416
5.4325	13.4832
5.46387	13.425
5.49541	13.367
5.52713	13.3092
5.55904	13.2517
5.59114	13.1943
5.62341	13.1372
5.65588	13.0804
5.68853	13.0237
5.72137	12.9672
5.7544	12.911
5.78762	12.855
5.82103	12.7992
5.85464	12.7436
5.88844	12.6882
5.92243	12.6331
5.95662	12.5781
5.99101	12.5234
6.0256	12.4689
6.06038	12.4146
6.09537	12.3605
6.13056	12.3066
6.16595	12.2529
6.20155	12.1994
6.23735	12.1462
6.27336	12.0931
6.30957	12.0403
6.346	11.9876
6.38263	11.9352
6.41948	11.8829
6.45654	11.8309
6.49382	11.7791
6.53131	11.7275
6.56901	11.676
6.60693	11.6248
6.64508	11.5738
6.68344	11.523
6.72202	11.4724
6.76083	11.422
6.79986	11.3717
6.83912	11.3217
6.8786	11.2719
6.91831	11.2223
6.95825	11.1728
6.99842	11.1236
7.03882	11.0746
7.07946	11.0257
7.12033	10.9771
7.16143	10.9286
7.20278	10.8803
7.24436	10.8323
7.28618	10.7844
7.32825	10.7367
7.37055	10.6892
7.4131	10.6419
7.4559	10.5947
7.49894	10.5478
7.54223	10.5011
7.58578	10.4545
7.62957	10.4081
7.67361	10.3619
7.71792	10.3159
7.76247	10.2701
7.80728	10.2245
7.85236	10.179
7.89769	10.1338
7.94328	10.0887
7.98914	10.0438
8.03526	9.99764
8.08165	9.95161
8.12831	9.90579
8.17523	9.8629
8.22243	9.81743
8.2699	9.77215
8.31764	9.72709
8.36566	9.68221
8.41395	9.63753
8.46253	9.59304
8.51138	9.54877
8.56052	9.50468
8.60994	9.46078
8.65964	9.41708
8.70964	9.37357
8.75992	9.33025
8.81049	9.28713
8.86135	9.2442
8.91251	9.20146
8.96396	9.16514
9.01571	9.1227
9.06776	9.08046
9.12011	9.0384
9.17276	8.99653
9.22571	8.95484
9.27897	8.91334
9.33254	8.87203
9.38642	8.8309
9.44061	8.78995
9.49511	8.74919
9.54993	8.70861
9.60506	8.66821
9.66051	8.628
9.71628	8.58796
9.77237	8.5481
9.82879	8.50842
9.88553	8.46892
9.9426	8.42961
10	8.39046
10.0577	8.35149
10.1158	8.3127
10.1742	8.27408
10.2329	8.23563
10.292	8.19736
10.3514	8.15926
10.4112	8.12133
10.4713	8.08357
10.5317	8.04598
10.5925	8.00856
10.6537	7.97132
10.7152	7.93424
10.7771	7.89732
10.8393	7.86058
10.9018	7.82399
10.9648	7.78758
11.0281	7.75133
11.0917	7.71524
11.1558	7.67932
11.2202	7.64356
11.285	7.60796
11.3501	7.57268
11.4156	7.5374
11.4815	7.50389
11.5478	7.46891
11.6145	7.43408
11.6815	7.39941
11.749	7.3649
11.8168	7.33054
11.885	7.29634
11.9536	7.2623
12.0226	7.22841
12.0921	7.19468
12.1619	7.1611
12.2321	7.12767
12.3027	7.09439
12.3737	7.06127
12.4451	7.02829
12.517	6.99547
12.5893	6.9628
12.6619	6.93027
12.735	6.8979
12.8086	6.86567
12.8825	6.83359
12.9569	6.80166
13.0317	6.76987
13.1069	6.73822
13.1826	6.70672
13.2587	6.67537
13.3352	6.64416
13.4122	6.61309
13.4896	6.58217
13.5675	6.55138
13.6458	6.52074
13.7246	6.49023
13.8038	6.45987
13.8835	6.42965
13.9637	6.39956
14.0443	6.36961
14.1254	6.3398
14.2069	6.31013
14.2889	6.2806
14.3714	6.25119
14.4544	6.22193
14.5378	6.19279
14.6218	6.16379
14.7062	6.13493
14.7911	6.1062
14.8765	6.07759
14.9624	6.04913
15.0487	6.02273
15.1356	5.99448
15.223	5.96637
15.3109	5.93839
15.3993	5.91053
15.4882	5.8828
15.5776	5.8552
15.6675	5.82773
15.758	5.80038
15.8489	5.77316
15.9404	5.74616
16.0325	5.71919
16.125	5.69234
16.2181	5.66562
16.3117	5.63902
16.4059	5.61254
16.5006	5.58619
16.5959	5.55997
16.6917	5.53386
16.788	5.50788
16.885	5.48202
16.9824	5.45627
17.0805	5.43064
17.1791	5.40514
17.2783	5.37975
17.378	5.35447
17.4783	5.32932
17.5792	5.30428
17.6807	5.27935
17.7828	5.25455
17.8855	5.22985
17.9887	5.20527
18.0926	5.18081
18.197	5.15645
18.3021	5.13221
18.4077	5.10808
18.514	5.08407
18.6209	5.06016
18.7284	5.03637
18.8365	5.01268
18.9452	4.98911
19.0546	4.96564
19.1646	4.94229
19.2752	4.91904
19.3865	4.8959
19.4984	4.87286
19.611	4.84994
19.7242	4.82712
19.8381	4.8044
19.9526	4.78179
20.0678	4.75929
20.1837	4.73689
20.3002	4.7146
20.4174	4.6924
20.5353	4.67032
20.6538	4.64833
20.773	4.62645
20.893	4.60467
21.0136	4.58299
21.1349	4.56256
21.2569	4.54106
21.3796	4.51967
21.503	4.49837
21.6272	4.47717
21.752	4.45607
21.8776	4.43507
22.0039	4.41417
22.1309	4.39337
22.2587	4.37266
22.3872	4.35205
22.5165	4.33153
22.6464	4.31111
22.7772	4.29079
22.9087	4.27056
23.0409	4.25042
23.1739	4.23038
23.3077	4.21043
23.4423	4.19058
23.5776	4.17082
23.7137	4.15115
23.8506	4.13158
23.9883	4.11209
24.1268	4.0927
24.2661	4.0734
24.4062	4.05418
24.5471	4.03506
24.6888	4.01603
24.8313	3.99708
24.9747	3.97823
25.1189	3.95947
25.2639	3.94079
25.4097	3.9222
25.5564	3.9037
25.704	3.88528
25.8523	3.86695
26.0016	3.84871
26.1517	3.83055
26.3027	3.81247
26.4545	3.79449
26.6073	3.77658
26.7609	3.75876
26.9153	3.74103
27.0707	3.72338
27.227	3.70581
27.3842	3.68832
27.5423	3.67092
27.7013	3.65359
27.8612	3.63635
28.0221	3.61919
28.1838	3.60211
28.3465	3.58512
28.5102	3.5682
28.6748	3.55136
28.8403	3.5346
29.0068	3.51792
29.1743	3.50132
29.3427	3.4848
29.5121	3.46835
29.6825	3.45199
29.8538	3.43569
30.0262	3.41948
30.1995	3.40334
30.3739	3.38728
30.5492	3.3713
30.7256	3.3554
30.903	3.33957
31.0814	3.32381
31.2608	3.30813
31.4413	3.29252
31.6228	3.27699
31.8053	3.26153
31.989	3.24614
32.1736	3.23083
32.3594	3.21559
32.5462	3.20042
32.7341	3.18532
32.923	3.17029
33.1131	3.15534
33.3043	3.14045
33.4965	3.12564
33.6899	3.1109
33.8844	3.09622
34.08	3.08162
34.2768	3.06708
34.4747	3.05261
34.6737	3.03822
34.8739	3.02389
35.0752	3.00962
35.2777	2.99543
35.4813	2.9813
35.6862	2.96724
35.8922	2.95325
36.0994	2.93932
36.3078	2.92546
36.5174	2.91166
36.7282	2.89793
36.9403	2.88427
37.1535	2.87067
37.368	2.85713
37.5837	2.84366
37.8007	2.83025
38.0189	2.81691
38.2384	2.80363
38.4592	2.79041
38.6812	2.77726
38.9045	2.76417
39.1291	2.75114
39.355	2.73817
39.5822	2.72526
39.8107	2.71242
40.0405	2.69964
40.2717	2.68691
40.5042	2.67425
40.738	2.66165
40.9732	2.64911
41.2098	2.63663
41.4477	2.62421
41.6869	2.61184
41.9276	2.59954
42.1697	2.58729
42.4131	2.57511
42.658	2.56298
42.9042	2.55091
43.1519	2.53889
43.401	2.52694
43.6516	2.51504
43.9036	2.5032
44.157	2.49141
44.412	2.47969
44.6684	2.46801
44.9262	2.4564
45.1856	2.44483
45.4465	2.43333
45.7088	2.42188
45.9727	2.41048
46.2381	2.39914
46.505	2.38785
46.7735	2.37662
47.0435	2.36544
47.3151	2.35431
47.5883	2.34324
47.863	2.33222
48.1393	2.32125
48.4172	2.31034
48.6968	2.29947
48.9779	2.28866
49.2606	2.27791
49.545	2.2672
49.831	2.25654
50.1187	2.24594
50.4081	2.23539
50.6991	2.22488
50.9918	2.21443
51.2861	2.20403
51.5822	2.19368
51.88	2.18337
52.1795	2.17312
52.4807	2.16292
52.7837	2.15277
53.0884	2.14266
53.3949	2.1326
53.7032	2.1226
54.0132	2.11264
54.325	2.10272
54.6387	2.09286
54.9541	2.08304
55.2713	2.07327
55.5904	2.06355
55.9114	2.05388
56.2341	2.04425
56.5588	2.03467
56.8853	2.02513
57.2137	2.01564
57.544	2.0062
57.8762	1.9968
58.2103	1.98744
58.5464	1.97813
58.8844	1.96887
59.2243	1.95965
59.5662	1.95048
59.9101	1.94135
60.256	1.93226
60.6038	1.92322
60.9537	1.91422
61.3056	1.90527
61.6595	1.89636
62.0155	1.88749
62.3735	1.87866
62.7336	1.86988
63.0957	1.86114
63.46	1.85244
63.8263	1.84379
64.1948	1.83517
64.5654	1.8266
64.9382	1.81807
65.3131	1.80958
65.6901	1.80114
66.0693	1.79273
66.4508	1.78436
66.8344	1.77604
67.2202	1.76775
67.6083	1.75951
67.9986	1.7513
68.3912	1.74314
68.786	1.73501
69.1831	1.72693
69.5825	1.71888
69.9842	1.71088
70.3882	1.70291
70.7946	1.69498
71.2033	1.68709
71.6143	1.67923
72.0278	1.67142
72.4436	1.66364
72.8618	1.6559
73.2825	1.6482
73.7055	1.64054
74.131	1.63291
74.559	1.62533
74.9894	1.61777
75.4223	1.61026
75.8578	1.60278
76.2957	1.59534
76.7361	1.58793
77.1792	1.58056
77.6247	1.57323
78.0728	1.56593
78.5236	1.55867
78.9769	1.55144
79.4328	1.54425
79.8914	1.53709
80.3526	1.52997
80.8165	1.52289
81.2831	1.51583
81.7523	1.50882
82.2243	1.50183
82.699	1.49488
83.1764	1.48797
83.6566	1.48109
84.1395	1.47424
84.6253	1.46743
85.1138	1.46065
85.6052	1.4539
86.0994	1.44718
86.5964	1.4405
87.0964	1.43385
87.5992	1.42724
88.1049	1.42066
88.6135	1.4141
89.1251	1.40758
89.6396	1.4011
90.1571	1.39464
90.6776	1.38822
91.2011	1.38183
91.7276	1.37547
92.2571	1.36914
92.7897	1.36284
93.3254	1.35657
93.8642	1.35033
94.4061	1.34413
94.9511	1.33795
95.4993	1.33181
96.0506	1.32569
96.6051	1.31961
97.1628	1.31355
97.7237	1.30753
98.2879	1.30153
98.8553	1.29557
99.426	1.28963
100	1.28372
100.577	1.27785
101.158	1.272
101.742	1.26618
102.329	1.26039
102.92	1.25462
103.514	1.24889
104.112	1.24318
104.713	1.2375
105.317	1.23185
105.925	1.22623
106.537	1.22064
107.152	1.21507
107.771	1.20953
108.393	1.20402
109.018	1.19854
109.648	1.19308
110.281	1.18765
110.917	1.18225
111.558	1.17687
112.202	1.17152
112.85	1.1662
113.501	1.1609
114.156	1.15563
114.815	1.15038
115.478	1.14516
116.145	1.13997
116.815	1.13481
117.49	1.12966
118.168	1.12455
118.85	1.11946
119.536	1.11439
120.226	1.10935
120.921	1.10434
121.619	1.09935
122.321	1.09438
123.027	1.08944
123.737	1.08452
124.451	1.07963
125.17	1.07477
125.893	1.06992
126.619	1.0651
127.35	1.06031
128.086	1.05554
128.825	1.05079
129.569	1.04607
130.317	1.04137
131.069	1.03669
131.826	1.03204
132.587	1.02741
133.352	1.0228
134.122	1.01822
134.896	1.01365
135.675	1.00912
136.458	1.0046
137.246	1.00011
138.038	0.995637
138.835	0.991189
139.637	0.986763
140.443	0.982359
141.254	0.977977
142.069	0.973617
142.889	0.969279
143.714	0.964963
144.544	0.960668
145.378	0.956395
146.218	0.952143
147.062	0.947912
147.911	0.943703
148.765	0.939515
149.624	0.935348
150.487	0.931201
151.356	0.927076
152.23	0.922971
153.109	0.918887
153.993	0.914823
154.882	0.91078
155.776	0.906757
156.675	0.902755
157.58	0.898772
158.489	0.89481
159.404	0.890867
160.325	0.886945
161.25	0.883042
162.181	0.879158
163.117	0.875295
164.059	0.871451
165.006	0.867626
165.959	0.86382
166.917	0.860034
167.88	0.856267
168.85	0.852518
169.824	0.848789
170.805	0.845079
171.791	0.841387
172.783	0.837714
173.78	0.834059
174.783	0.830423
175.792	0.826806
176.807	0.823206
177.828	0.819625
178.855	0.816062
179.887	0.812517
180.926	0.80899
181.97	0.805481
183.021	0.80199
184.077	0.798516
185.14	0.79506
186.209	0.791622
187.284	0.788201
188.365	0.784797
189.452	0.781411
190.546	0.778042
191.646	0.77469
192.752	0.771355
193.865	0.768037
194.984	0.764736
196.11	0.761451
197.242	0.758184
198.381	0.754933
199.526	0.751699
200.678	0.748481
201.837	0.745279
203.002	0.742094
204.174	0.738925
205.353	0.735772
206.538	0.732636
207.73	0.729515
208.93	0.72641
210.136	0.723321
211.349	0.720248
212.569	0.717191
213.796	0.714149
215.03	0.711123
216.272	0.708112
217.52	0.705117
218.776	0.702137
220.039	0.699173
221.309	0.696223
222.587	0.693289
223.872	0.69037
225.165	0.687465
226.464	0.684576
227.772	0.681702
229.087	0.678842
230.409	0.675997
231.739	0.673166
233.077	0.670351
234.423	0.667549
235.776	0.664762
237.137	0.66199
238.506	0.659231
239.883	0.656487
241.268	0.653757
242.661	0.651041
244.062	0.648339
245.471	0.645652
246.888	0.642977
248.313	0.640317
249.747	0.637671
251.189	0.635038
252.639	0.632419
254.097	0.629813
255.564	0.627221
257.04	0.624642
258.523	0.622077
260.016	0.619525
261.517	0.616986
263.027	0.61446
264.545	0.611948
266.073	0.609448
267.609	0.606962
269.153	0.604488
270.707	0.602027
272.27	0.599579
273.842	0.597144
275.423	0.594722
277.013	0.592312
278.612	0.589914
280.221	0.587529
281.838	0.585157
283.465	0.582797
285.102	0.580449
286.748	0.578113
288.403	0.57579
290.068	0.573479
291.743	0.57118
293.427	0.568893
295.121	0.566618
296.825	0.564354
298.538	0.562103
300.262	0.559864
301.995	0.557636
303.739	0.55542
305.492	0.553215
307.256	0.551022
309.03	0.548841
310.814	0.546671
312.608	0.544512
314.413	0.542365
316.228	0.540229
318.053	0.538105
319.89	0.535991
321.736	0.533889
323.594	0.531798
325.462	0.529718
327.341	0.527649
329.23	0.52559
331.131	0.523543
333.043	0.521506
334.965	0.519481
336.899	0.517466
338.844	0.515461
340.8	0.513467
342.768	0.511484
344.747	0.509512
346.737	0.507549
348.739	0.505598
350.752	0.503656
352.777	0.501725
354.813	0.499804
356.862	0.497894
358.922	0.495993
360.994	0.494103
363.078	0.492223
365.174	0.490353
367.282	0.488493
369.403	0.486642
371.535	0.484802
373.68	0.482971
375.837	0.481151
378.007	0.47934
380.189	0.477538
382.384	0.475747
384.592	0.473965
386.812	0.472192
389.045	0.470429
391.291	0.468676
393.55	0.466932
395.822	0.465197
398.107	0.463472
400.405	0.461756
402.717	0.460049
405.042	0.458352
407.38	0.456663
409.732	0.454984
412.098	0.453314
414.477	0.451653
416.869	0.45
419.276	0.448357
421.697	0.446723
424.131	0.445097
426.58	0.443481
429.042	0.441873
431.519	0.440274
434.01	0.438683
436.516	0.437102
439.036	0.435528
441.57	0.433964
444.12	0.432408
446.684	0.43086
449.262	0.429321
451.856	0.42779
454.465	0.426268
457.088	0.424754
459.727	0.423248
462.381	0.421751
465.05	0.420262
467.735	0.418781
470.435	0.417308
473.151	0.415843
475.883	0.414386
478.63	0.412937
481.393	0.411497
484.172	0.410064
486.968	0.408639
489.779	0.407222
492.606	0.405813
495.45	0.404411
498.31	0.403018
501.187	0.401632
504.081	0.400254
506.991	0.398883
509.918	0.39752
512.861	0.396165
515.822	0.394817
518.8	0.393477
521.795	0.392144
524.807	0.390818
527.837	0.3895
530.884	0.38819
533.949	0.386886
537.032	0.38559
540.132	0.384302
543.25	0.38302
546.387	0.381746
549.541	0.380479
552.713	0.379219
555.904	0.377966
559.114	0.37672
562.341	0.375481
565.588	0.374249
568.853	0.373024
572.137	0.371806
575.44	0.370595
578.762	0.369391
582.103	0.368194
585.464	0.367003
588.844	0.36582
592.243	0.364642
595.662	0.363472
599.101	0.362309
602.56	0.361151
606.038	0.360001
609.537	0.358857
613.056	0.35772
616.595	0.356589
620.155	0.355465
623.735	0.354347
627.336	0.353236
630.957	0.352131
634.6	0.351032
638.263	0.34994
641.948	0.348854
645.654	0.347774
649.382	0.346701
653.131	0.345634
656.901	0.344573
660.693	0.343518
664.508	0.342469
668.344	0.341426
672.202	0.34039
676.083	0.339359
679.986	0.338335
683.912	0.337317
687.86	0.336304
691.831	0.335297
695.825	0.334297
699.842	0.333302
703.882	0.332313
707.946	0.33133
712.033	0.330353
716.143	0.329381
720.278	0.328416
724.436	0.327455
728.618	0.326501
732.825	0.325552
737.055	0.324609
741.31	0.323672
745.59	0.32274
749.894	0.321814
754.223	0.320893
758.578	0.319978
762.957	0.319068
767.361	0.318164
771.792	0.317265
776.247	0.316372
780.728	0.315484
785.236	0.314601
789.769	0.313724
794.328	0.312851
798.914	0.311985
803.526	0.311123
808.165	0.310267
812.831	0.309416
817.523	0.30857
822.243	0.307729
826.99	0.306894
831.764	0.306063
836.566	0.305238
841.395	0.304418
846.253	0.303603
851.138	0.302792
856.052	0.301987
860.994	0.301187
865.964	0.300392
870.964	0.299602
875.992	0.298816
881.049	0.298036
886.135	0.29726
891.251	0.296489
896.396	0.295723
901.571	0.294962
906.776	0.294206
912.011	0.293454
917.276	0.292707
922.571	0.291965
927.897	0.291227
933.254	0.290494
938.642	0.289766
944.061	0.289043
949.511	0.288324
954.993	0.287609
960.506	0.286899
966.051	0.286194
971.628	0.285493
977.237	0.284797
982.879	0.284105
988.553	0.283418
994.26	0.282735
1000	0.282057
1005.77	0.281382
1011.58	0.280713
1017.42	0.280047
1023.29	0.279386
1029.2	0.27873
1035.14	0.278077
1041.12	0.277429
1047.13	0.276785
1053.17	0.276146
1059.25	0.27551
1065.37	0.274879
1071.52	0.274252
1077.71	0.273629
1083.93	0.273011
1090.18	0.272396
1096.48	0.271786
1102.81	0.271179
1109.17	0.270577
1115.58	0.269979
1122.02	0.269385
1128.5	0.268794
1135.01	0.268208
1141.56	0.267626
1148.15	0.267048
1154.78	0.266473
1161.45	0.265903
1168.15	0.265336
1174.9	0.264774
1181.68	0.264215
1188.5	0.26366
1195.36	0.263109
1202.26	0.262562
1209.21	0.262019
1216.19	0.261479
1223.21	0.260943
1230.27	0.260411
1237.37	0.259883
1244.51	0.259358
1251.7	0.258837
1258.93	0.25832
1266.19	0.257806
1273.5	0.257296
1280.86	0.25679
1288.25	0.256287
1295.69	0.255788
1303.17	0.255293
1310.69	0.254801
1318.26	0.254312
1325.87	0.253827
1333.52	0.253346
1341.22	0.252868
1348.96	0.252394
1356.75	0.251923
1364.58	0.251455
1372.46	0.250991
1380.38	0.250531
1388.35	0.250074
1396.37	0.24962
1404.43	0.24917
1412.54	0.248723
1420.69	0.248279
1428.89	0.247839
1437.14	0.247402
1445.44	0.246968
1453.78	0.246538
1462.18	0.246111
1470.62	0.245687
1479.11	0.245266
1487.65	0.244849
1496.24	0.244434
1504.87	0.244023
1513.56	0.243616
1522.3	0.243211
1531.09	0.24281
1539.93	0.242411
1548.82	0.242016
1557.76	0.241624
1566.75	0.241235
1575.8	0.240849
1584.89	0.240466
1594.04	0.240087
1603.25	0.23971
1612.5	0.239336
1621.81	0.238966
1631.17	0.238598
1640.59	0.238234
1650.06	0.237872
1659.59	0.237513
1669.17	0.237157
1678.8	0.236805
1688.5	0.236455
1698.24	0.236108
1708.05	0.235764
1717.91	0.235423
1727.83	0.235084
1737.8	0.234749
1747.83	0.234416
1757.92	0.234086
1768.07	0.23376
1778.28	0.233435
1788.55	0.233114
1798.87	0.232796
1809.26	0.23248
1819.7	0.232167
1830.21	0.231856
1840.77	0.231549
1851.4	0.231244
1862.09	0.230942
1872.84	0.230643
1883.65	0.230346
1894.52	0.230052
1905.46	0.22976
1916.46	0.229472
1927.52	0.229186
1938.65	0.228902
1949.84	0.228608
1961.1	0.228305
1972.42	0.228004
1983.81	0.227706
1995.26	0.227411
2006.78	0.227118
2018.37	0.226827
2030.02	0.226539
2041.74	0.226254
2053.53	0.225971
2065.38	0.22569
2077.3	0.225412
2089.3	0.225136
2101.36	0.224863
2113.49	0.224592
2125.69	0.224323
2137.96	0.224057
2150.3	0.223794
2162.72	0.223532
2175.2	0.223273
2187.76	0.223017
2200.39	0.222762
2213.09	0.22251
2225.87	0.22226
2238.72	0.222013
2251.65	0.221768
2264.64	0.221525
2277.72	0.221284
2290.87	0.221046
2304.09	0.22081
2317.39	0.220576
2330.77	0.220344
2344.23	0.220114
2357.76	0.219887
2371.37	0.219662
2385.06	0.219439
2398.83	0.219218
2412.68	0.219
2426.61	0.218783
2440.62	0.218569
2454.71	0.218357
2468.88	0.218146
2483.13	0.217938
2497.47	0.217732
2511.89	0.217529
2526.39	0.217327
2540.97	0.217127
2555.64	0.216929
2570.4	0.216734
2585.23	0.21654
2600.16	0.216348
2615.17	0.216159
2630.27	0.215971
2645.45	0.215786
2660.73	0.215602
2676.09	0.21542
2691.53	0.21524
2707.07	0.215063
2722.7	0.214887
2738.42	0.214713
2754.23	0.214541
2770.13	0.214371
2786.12	0.214203
2802.21	0.214036
2818.38	0.213872
2834.65	0.213709
2851.02	0.213548
2867.48	0.21339
2884.03	0.213233
2900.68	0.213077
2917.43	0.212924
2934.27	0.212772
2951.21	0.212623
2968.25	0.212475
2985.38	0.212328
3002.62	0.212184
3019.95	0.212041
3037.39	0.2119
3054.92	0.211761
3072.56	0.211624
3090.3	0.211488
3108.14	0.211354
3126.08	0.211222
3144.13	0.211091
3162.28	0.210962
3180.53	0.210835
3198.9	0.21071
3217.36	0.210586
3235.94	0.210464
3254.62	0.210343
3273.41	0.210224
3292.3	0.210107
3311.31	0.209991
3330.43	0.209877
3349.65	0.209765
3368.99	0.209654
3388.44	0.209545
3408	0.209437
3427.68	0.209331
3447.47	0.209226
3467.37	0.209123
3487.39	0.209022
3507.52	0.208922
3527.77	0.208823
3548.13	0.208726
3568.62	0.208631
3589.22	0.208537
3609.94	0.208445
3630.78	0.208354
3651.74	0.208264
3672.82	0.208176
3694.03	0.20809
3715.35	0.208005
3736.8	0.207921
3758.37	0.207839
3780.07	0.207758
3801.89	0.207679
3823.84	0.207601
3845.92	0.207524
3868.12	0.207449
3890.45	0.207376
3912.91	0.207303
3935.5	0.207232
3958.22	0.207163
3981.07	0.207094
4004.05	0.207028
4027.17	0.206962
4050.42	0.206898
4073.8	0.206835
4097.32	0.206773
4120.98	0.206713
4144.77	0.206654
4168.69	0.206596
4192.76	0.20654
4216.97	0.206485
4241.31	0.206431
4265.8	0.206378
4290.42	0.206327
4315.19	0.206277
4340.1	0.206228
4365.16	0.206181
4390.36	0.206134
4415.7	0.206089
4441.2	0.206045
4466.84	0.206002
4492.62	0.205961
4518.56	0.205921
4544.65	0.205881
4570.88	0.205843
4597.27	0.205807
4623.81	0.205771
4650.5	0.205737
4677.35	0.205703
4704.35	0.205671
4731.51	0.20564
4758.83	0.20561
4786.3	0.205581
4813.93	0.205554
4841.72	0.205527
4869.68	0.205502
4897.79	0.205477
4926.06	0.205454
4954.5	0.205432
4983.1	0.205411
5011.87	0.205391
5040.81	0.205372
5069.91	0.205354
5099.18	0.205337
5128.61	0.205321
5158.22	0.205306
5188	0.205293
5217.95	0.20528
5248.07	0.205268
5278.37	0.205257
5308.84	0.205248
5339.49	0.205239
5370.32	0.205231
5401.32	0.205224
5432.5	0.205219
5463.87	0.205214
5495.41	0.20521
5527.13	0.205207
5559.04	0.205205
5591.14	0.205204
5623.41	0.205204
5655.88	0.205205
5688.53	0.205207
5721.37	0.20521
5754.4	0.205213
5787.62	0.205218
5821.03	0.205223
5854.64	0.20523
5888.44	0.205237
5922.43	0.205245
5956.62	0.205254
5991.01	0.205264
6025.6	0.205275
6060.38	0.205287
6095.37	0.205299
6130.56	0.205312
6165.95	0.205327
6201.55	0.205342
6237.35	0.205358
6273.36	0.205374
6309.57	0.205392
6346	0.20541
6382.63	0.205429
6419.48	0.205449
6456.54	0.20547
6493.82	0.205492
6531.31	0.205514
6569.01	0.205537
6606.93	0.205561
6645.08	0.205586
6683.44	0.205611
6722.02	0.205637
6760.83	0.205664
6799.86	0.205692
6839.12	0.205721
6878.6	0.20575
6918.31	0.20578
6958.25	0.20581
6998.42	0.205842
7038.82	0.205874
7079.46	0.205907
7120.33	0.20594
7161.43	0.205975
7202.78	0.20601
7244.36	0.206045
7286.18	0.206082
7328.25	0.206119
7370.55	0.206156
7413.1	0.206195
7455.9	0.206234
7498.94	0.206273
7542.23	0.206314
7585.78	0.206355
7629.57	0.206397
7673.61	0.206439
7717.92	0.206482
7762.47	0.206525
7807.28	0.20657
7852.36	0.206615
7897.69	0.20666
7943.28	0.206706
7989.14	0.206753
8035.26	0.2068
8081.65	0.206848
8128.31	0.206897
8175.23	0.206946
8222.43	0.206996
8269.9	0.207046
8317.64	0.207097
8365.66	0.207148
8413.95	0.2072
8462.53	0.207253
8511.38	0.207306
8560.52	0.20736
8609.94	0.207414
8659.64	0.207469
8709.64	0.207524
8759.92	0.20758
8810.49	0.207637
8861.35	0.207694
8912.51	0.207751
8963.96	0.207809
9015.71	0.207868
9067.76	0.207927
9120.11	0.207986
9172.76	0.208047
9225.71	0.208107
9278.97	0.208168
9332.54	0.20823
9386.42	0.208292
9440.61	0.208355
9495.11	0.208418
9549.93	0.208481
9605.06	0.208545
9660.51	0.20861
9716.28	0.208675
9772.37	0.20874
9828.79	0.208806
9885.53	0.208872
9942.6	0.208939
10000	0.209006
10057.7	0.209074
10115.8	0.209142
10174.2	0.209211
10232.9	0.20928
10292	0.209349
10351.4	0.209419
10411.2	0.209489
10471.3	0.20956
10531.7	0.209631
10592.5	0.209703
10653.7	0.209775
10715.2	0.209847
10777.1	0.20992
10839.3	0.209993
10901.8	0.210067
10964.8	0.21014
11028.1	0.210215
11091.7	0.21029
11155.8	0.210365
11220.2	0.21044
11285	0.210516
11350.1	0.210592
11415.6	0.210669
11481.5	0.210746
11547.8	0.210823
11614.5	0.210901
11681.5	0.210979
11749	0.211057
11816.8	0.211136
11885	0.211215
11953.6	0.211294
12022.6	0.211374
12092.1	0.211454
12161.9	0.211535
12232.1	0.211616
12302.7	0.211697
12373.7	0.211778
12445.1	0.21186
12517	0.211942
12589.3	0.212024
12661.9	0.212107
12735	0.21219
12808.6	0.212273
12882.5	0.212357
12956.9	0.212441
13031.7	0.212525
13106.9	0.212609
13182.6	0.212694
13258.7	0.212779
13335.2	0.212865
13412.2	0.21295
13489.6	0.213036
13567.5	0.213122
13645.8	0.213209
13724.6	0.213296
13803.8	0.213383
13883.5	0.21347
13963.7	0.213558
14044.3	0.213645
14125.4	0.213734
14206.9	0.213822
14288.9	0.213911
14371.4	0.213999
14454.4	0.214089
14537.8	0.214178
14621.8	0.214267
14706.2	0.214357
14791.1	0.214447
14876.5	0.214538
14962.4	0.214628
15048.7	0.214719
15135.6	0.21481
15223	0.214901
15310.9	0.214993
15399.3	0.215084
15488.2	0.215176
15577.6	0.215269
15667.5	0.215361
15758	0.215453
15848.9	0.215546
15940.4	0.215639
16032.5	0.215732
16125	0.215826
16218.1	0.215919
16311.7	0.216013
16405.9	0.216107
16500.6	0.216201
16595.9	0.216296
16691.7	0.21639
16788	0.216485
16885	0.21658
16982.4	0.216675
17080.5	0.216771
17179.1	0.216866
17278.3	0.216962
17378	0.217058
17478.3	0.217154
17579.2	0.21725
17680.7	0.217346
17782.8	0.217443
17885.5	0.217539
17988.7	0.217636
18092.6	0.217733
18197	0.217831
18302.1	0.217928
18407.7	0.218026
18514	0.218123
18620.9	0.218221
18728.4	0.218319
18836.5	0.218417
18945.2	0.218516
19054.6	0.218614
19164.6	0.218713
19275.2	0.218811
19386.5	0.21891
19498.4	0.219009
19611	0.219108
19724.2	0.219208
19838.1	0.219307
19952.6	0.219407
20067.8	0.219506
20183.7	0.219606
20300.2	0.219706
20417.4	0.219806
20535.3	0.219906
20653.8	0.220007
20773	0.220107
20893	0.220208
21013.6	0.220308
21134.9	0.220409
21256.9	0.22051
21379.6	0.220611
21503	0.220712
21627.2	0.220813
21752	0.220915
21877.6	0.221016
22003.9	0.221118
22130.9	0.22122
22258.7	0.221321
22387.2	0.221423
22516.5	0.221525
22646.4	0.221627
22777.2	0.221729
22908.7	0.221832
23040.9	0.221934
23173.9	0.222037
23307.7	0.222139
23442.3	0.222242
23577.6	0.222345
23713.7	0.222447
23850.6	0.22255
23988.3	0.222653
24126.8	0.222756
24266.1	0.22286
24406.2	0.222963
24547.1	0.223066
24688.8	0.22317
24831.3	0.223273
24974.7	0.223377
25118.9	0.22348
25263.9	0.223584
25409.7	0.223688
25556.4	0.223792
25704	0.223896
25852.3	0.224
26001.6	0.224104
26151.7	0.224208
26302.7	0.224312
26454.5	0.224416
26607.3	0.224521
26760.9	0.224625
26915.3	0.22473
27070.7	0.224834
27227	0.224939
27384.2	0.225043
27542.3	0.225148
27701.3	0.225253
27861.2	0.225358
28022.1	0.225463
28183.8	0.225567
28346.5	0.225672
28510.2	0.225777
28674.8	0.225883
28840.3	0.225988
29006.8	0.226093
29174.3	0.226198
29342.7	0.226303
29512.1	0.226409
29682.5	0.226514
29853.8	0.226619
30026.2	0.226725
30199.5	0.22683
30373.9	0.226936
30549.2	0.227041
30725.6	0.227147
30903	0.227253
31081.4	0.227358
31260.8	0.227464
31441.3	0.22757
31622.8	0.227676
31805.3	0.227782
31989	0.227887
32173.6	0.227993
32359.4	0.228099
32546.2	0.228205
32734.1	0.228311
32923	0.228417
33113.1	0.228523
33304.3	0.228629
33496.5	0.228735
33689.9	0.228841
33884.4	0.228948
34080	0.229054
34276.8	0.22916
34474.7	0.229266
34673.7	0.229372
34873.9	0.229479
35075.2	0.229585
35277.7	0.229691
35481.3	0.229798
35686.2	0.229904
35892.2	0.23001
36099.4	0.230117
36307.8	0.230223
36517.4	0.230329
36728.2	0.230436
36940.3	0.230542
37153.5	0.230649
37368	0.230755
37583.7	0.230862
37800.7	0.230968
38018.9	0.231075
38238.4	0.231181
38459.2	0.231288
38681.2	0.231394
38904.5	0.231501
39129.1	0.231607
39355	0.231714
39582.2	0.23182
39810.7	0.231927
40040.5	0.232034
40271.7	0.23214
40504.2	0.232247
40738	0.232353
40973.2	0.23246
41209.8	0.232567
41447.7	0.232673
41686.9	0.23278
41927.6	0.232886
42169.7	0.232993
42413.1	0.233099
42658	0.233206
42904.2	0.233313
43151.9	0.233419
43401	0.233526
43651.6	0.233632
43903.6	0.233739
44157	0.233846
44412	0.233952
44668.4	0.234059
44926.2	0.234165
45185.6	0.234272
45446.5	0.234378
45708.8	0.234485
45972.7	0.234592
46238.1	0.234698
46505	0.234805
46773.5	0.234911
47043.5	0.235018
47315.1	0.235124
47588.3	0.235231
47863	0.235337
48139.3	0.235444
48417.2	0.23555
48696.8	0.235657
48977.9	0.235763
49260.6	0.235869
49545	0.235976
49831	0.236082
50118.7	0.236189
50408.1	0.236295
50699.1	0.236401
50991.8	0.236508
51286.1	0.236614
51582.2	0.23672
51880	0.236827
52179.5	0.236933
52480.7	0.237039
52783.7	0.237146
53088.4	0.237252
53394.9	0.237358
53703.2	0.237464
54013.2	0.23757
54325	0.237677
54638.7	0.237783
54954.1	0.237889
55271.3	0.237995
55590.4	0.238101
55911.4	0.238207
56234.1	0.238313
56558.8	0.238419
56885.3	0.238525
57213.7	0.238631
57544	0.238737
57876.2	0.238843
58210.3	0.238949
58546.4	0.239055
58884.4	0.239161
59224.3	0.239267
59566.2	0.239373
59910.1	0.239479
60256	0.239584
60603.8	0.23969
60953.7	0.239796
61305.6	0.239902
61659.5	0.240007
62015.5	0.240113
62373.5	0.240219
62733.6	0.240324
63095.7	0.24043
63460	0.240535
63826.3	0.240641
64194.8	0.240747
64565.4	0.240852
64938.2	0.240957
65313.1	0.241063
65690.1	0.241168
66069.3	0.241274
66450.8	0.241379
66834.4	0.241484
67220.2	0.24159
67608.3	0.241695
67998.6	0.2418
68391.2	0.241905
68786	0.242011
69183.1	0.242116
69582.5	0.242221
69984.2	0.242326
70388.2	0.242431
70794.6	0.242536
71203.3	0.242641
71614.3	0.242746
72027.8	0.242851
72443.6	0.242956
72861.8	0.243061
73282.5	0.243166
73705.5	0.243271
74131	0.243375
74559	0.24348
74989.4	0.243585
75422.3	0.24369
75857.8	0.243794
76295.7	0.243899
76736.1	0.244003
77179.2	0.244108
77624.7	0.244213
78072.8	0.244317
78523.6	0.244421
78976.9	0.244526
79432.8	0.24463
79891.4	0.244735
80352.6	0.244839
80816.5	0.244943
81283.1	0.245048
81752.3	0.245152
82224.3	0.245256
82699	0.24536
83176.4	0.245464
83656.6	0.245568
84139.5	0.245672
84625.3	0.245776
85113.8	0.24588
85605.2	0.245984
86099.4	0.246088
86596.4	0.246192
87096.4	0.246296
87599.2	0.2464
88104.9	0.246504
88613.5	0.246607
89125.1	0.246711
89639.6	0.246815
90157.1	0.246918
90677.6	0.247022
91201.1	0.247125
91727.6	0.247229
92257.1	0.247332
92789.7	0.247436
93325.4	0.247539
93864.2	0.247643
94406.1	0.247746
94951.1	0.247849
95499.3	0.247952
96050.6	0.248056
96605.1	0.248159
97162.8	0.248262
97723.7	0.248365
98287.9	0.248468
98855.3	0.248571
99426	0.248674
100000	0.248777
100577	0.24888
101158	0.248983
101742	0.249086
102329	0.249188
102920	0.249291
103514	0.249394
104112	0.249497
104713	0.249599
105317	0.249702
105925	0.249804
106537	0.249907
107152	0.250009
107771	0.250112
108393	0.250214
109018	0.250317
109648	0.250419
110281	0.250521
110917	0.250623
111558	0.250726
112202	0.250828
112850	0.25093
113501	0.251032
114156	0.251134
114815	0.251236
115478	0.251338
116145	0.25144
116815	0.251542
117490	0.251643
118168	0.251745
118850	0.251847
119536	0.251949
120226	0.25205
120921	0.252152
121619	0.252254
122321	0.252355
123027	0.252457
123737	0.252558
124451	0.252659
125170	0.252761
125893	0.252862
126619	0.252963
127350	0.253065
128086	0.253166
128825	0.253267
129569	0.253368
130317	0.253469
131069	0.25357
131826	0.253671
132587	0.253772
133352	0.253873
134122	0.253974
134896	0.254075
135675	0.254176
136458	0.254276
137246	0.254377
138038	0.254478
138835	0.254578
139637	0.254679
140443	0.254779
141254	0.25488
142069	0.25498
142889	0.255081
143714	0.255181
144544	0.255281
145378	0.255382
146218	0.255482
147062	0.255582
147911	0.255682
148765	0.255782
149624	0.255882
150487	0.255982
151356	0.256082
152230	0.256182
153109	0.256282
153993	0.256382
154882	0.256482
155776	0.256582
156675	0.256681
157580	0.256781
158489	0.256881
159404	0.25698
160325	0.25708
161250	0.257179
162181	0.257279
163117	0.257378
164059	0.257478
165006	0.257577
165959	0.257676
166917	0.257775
167880	0.257875
168850	0.257974
169824	0.258073
170805	0.258172
171791	0.258271
172783	0.25837
173780	0.258469
174783	0.258568
175792	0.258666
176807	0.258765
177828	0.258864
178855	0.258963
179887	0.259061
180926	0.25916
181970	0.259259
183021	0.259357
184077	0.259456
185140	0.259554
186209	0.259652
187284	0.259751
188365	0.259849
189452	0.259947
190546	0.260045
191646	0.260144
192752	0.260242
193865	0.26034
194984	0.260438
196110	0.260536
197242	0.260634
198381	0.260732
199526	0.26083
200678	0.260927
201837	0.261025
203002	0.261123
204174	0.261221
205353	0.261318
206538	0.261416
207730	0.261513
208930	0.261611
210136	0.261708
211349	0.261806
212569	0.261903
213796	0.262
215030	0.262098
216272	0.262195
217520	0.262292
218776	0.262389
220039	0.262486
221309	0.262583
222587	0.26268
223872	0.262777
225165	0.262874
226464	0.262971
227772	0.263068
229087	0.263165
230409	0.263261
231739	0.263358
233077	0.263455
234423	0.263551
235776	0.263648
237137	0.263744
238506	0.263841
239883	0.263937
241268	0.264033
242661	0.26413
244062	0.264226
245471	0.264322
246888	0.264418
248313	0.264515
249747	0.264611
251189	0.264707
252639	0.264803
254097	0.264899
255564	0.264995
257040	0.26509
258523	0.265186
260016	0.265282
261517	0.265378
263027	0.265473
264545	0.265569
266073	0.265664
267609	0.26576
269153	0.265856
270707	0.265951
272270	0.266046
273842	0.266142
275423	0.266237
277013	0.266332
278612	0.266427
280221	0.266523
281838	0.266618
283465	0.266713
285102	0.266808
286748	0.266903
288403	0.266998
290068	0.267093
291743	0.267187
293427	0.267282
295121	0.267377
296825	0.267472
298538	0.267566
300262	0.267661
301995	0.267755
303739	0.26785
305492	0.267944
307256	0.268039
309030	0.268133
310814	0.268227
312608	0.268322
314413	0.268416
316228	0.26851
318053	0.268604
319890	0.268698
321736	0.268792
323594	0.268886
325462	0.26898
327341	0.269074
329230	0.269168
331131	0.269262
333043	0.269355
334965	0.269449
336899	0.269543
338844	0.269636
340800	0.26973
342768	0.269823
344747	0.269917
346737	0.27001
348739	0.270104
350752	0.270197
352777	0.27029
354813	0.270384
356862	0.270477
358922	0.27057
360994	0.270663
363078	0.270756
365174	0.270849
367282	0.270942
369403	0.271035
371535	0.271128
373680	0.27122
375837	0.271313
378007	0.271406
380189	0.271498
382384	0.271591
384592	0.271684
386812	0.271776
389045	0.271869
391291	0.271961
393550	0.272053
395822	0.272146
398107	0.272238
400405	0.27233
402717	0.272422
405042	0.272514
407380	0.272606
409732	0.272698
412098	0.27279
414477	0.272882
416869	0.272974
419276	0.273066
421697	0.273158
424131	0.273249
426580	0.273341
429042	0.273433
431519	0.273524
434010	0.273616
436516	0.273707
439036	0.273799
441570	0.27389
444120	0.273981
446684	0.274073
449262	0.274164
451856	0.274255
454465	0.274346
457088	0.274437
459727	0.274528
462381	0.274619
465050	0.27471
467735	0.274801
470435	0.274892
473151	0.274983
475883	0.275074
478630	0.275164
481393	0.275255
484172	0.275345
486968	0.275436
489779	0.275526
492606	0.275617
495450	0.275707
498310	0.275798
501187	0.275888
504081	0.275978
506991	0.276068
509918	0.276158
512861	0.276249
515822	0.276339
518800	0.276429
521795	0.276518
524807	0.276608
527837	0.276698
530884	0.276788
533949	0.276878
537032	0.276967
540132	0.277057
543250	0.277147
546387	0.277236
549541	0.277326
552713	0.277415
555904	0.277504
559114	0.277594
562341	0.277683
565588	0.277772
568853	0.277861
572137	0.277951
575440	0.27804
578762	0.278129
582103	0.278218
585464	0.278306
588844	0.278395
592243	0.278484
595662	0.278573
599101	0.278662
602560	0.27875
606038	0.278839
609537	0.278927
613056	0.279016
616595	0.279104
620155	0.279193
623735	0.279281
627336	0.279369
630957	0.279458
634600	0.279546
638263	0.279634
641948	0.279722
645654	0.27981
649382	0.279898
653131	0.279986
656901	0.280074
660693	0.280162
664508	0.28025
668344	0.280337
672202	0.280425
676083	0.280513
679986	0.2806
683912	0.280688
687860	0.280775
691831	0.280863
695825	0.28095
699842	0.281037
703882	0.281125
707946	0.281212
712033	0.281299
716143	0.281386
720278	0.281473
724436	0.28156
728618	0.281647
732825	0.281734
737055	0.281821
741310	0.281907
745590	0.281994
749894	0.282081
754223	0.282168
758578	0.282254
762957	0.282341
767361	0.282427
771792	0.282513
776247	0.2826
780728	0.282686
785236	0.282772
789769	0.282859
794328	0.282945
798914	0.283031
803526	0.283117
808165	0.283203
812831	0.283289
817523	0.283375
822243	0.28346
826990	0.283546
831764	0.283632
836566	0.283718
841395	0.283803
846253	0.283889
851138	0.283974
856052	0.28406
860994	0.284145
865964	0.28423
870964	0.284316
875992	0.284401
881049	0.284486
886135	0.284571
891251	0.284656
896396	0.284741
901571	0.284826
906776	0.284911
912011	0.284996
917276	0.285081
922571	0.285165
927897	0.28525
933254	0.285335
938642	0.285419
944061	0.285504
949511	0.285588
954993	0.285673
960506	0.285757
966051	0.285841
971628	0.285925
977237	0.28601
982879	0.286094
988553	0.286178
994260	0.286262
1e+06	0.286346
1.00577e+06	0.28643
1.01158e+06	0.286513
1.01742e+06	0.286597
1.02329e+06	0.286681
1.0292e+06	0.286765
1.03514e+06	0.286848
1.04112e+06	0.286932
1.04713e+06	0.287015
1.05317e+06	0.287099
1.05925e+06	0.287182
1.06537e+06	0.287266
1.07152e+06	0.287349
1.07771e+06	0.287432
1.08393e+06	0.287515
1.09018e+06	0.287598
1.09648e+06	0.287681
1.10281e+06	0.287764
1.10917e+06	0.287847
1.11558e+06	0.28793
1.12202e+06	0.288013
1.1285e+06	0.288096
1.13501e+06	0.288178
1.14156e+06	0.288261
1.14815e+06	0.288344
1.15478e+06	0.288426
1.16145e+06	0.288509
1.16815e+06	0.288591
1.1749e+06	0.288674
1.18168e+06	0.288756
1.1885e+06	0.288838
1.19536e+06	0.28892
1.20226e+06	0.289002
1.20921e+06	0.289085
1.21619e+06	0.289167
1.22321e+06	0.289249
1.23027e+06	0.28933
1.23737e+06	0.289412
1.24451e+06	0.289494
1.2517e+06	0.289576
1.25893e+06	0.289657
1.26619e+06	0.289739
1.2735e+06	0.289821
1.28086e+06	0.289902
1.28825e+06	0.289984
1.29569e+06	0.290065
1.30317e+06	0.290146
1.31069e+06	0.290227
1.31826e+06	0.290309
1.32587e+06	0.29039
1.33352e+06	0.290471
1.34122e+06	0.290552
1.34896e+06	0.290633
1.35675e+06	0.290714
1.36458e+06	0.290795
1.37246e+06	0.290875
1.38038e+06	0.290956
1.38835e+06	0.291037
1.39637e+06	0.291117
1.40443e+06	0.291198
1.41254e+06	0.291278
1.42069e+06	0.291359
1.42889e+06	0.291439
1.43714e+06	0.291519
1.44544e+06	0.2916
1.45378e+06	0.29168
1.46218e+06	0.29176
1.47062e+06	0.29184
1.47911e+06	0.29192
1.48765e+06	0.292
1.49624e+06	0.29208
1.50487e+06	0.29216
1.51356e+06	0.292239
1.5223e+06	0.292319
1.53109e+06	0.292399
1.53993e+06	0.292478
1.54882e+06	0.292558
1.55776e+06	0.292637
1.56675e+06	0.292717
1.5758e+06	0.292796
1.58489e+06	0.292875
1.59404e+06	0.292954
1.60325e+06	0.293034
1.6125e+06	0.293113
1.62181e+06	0.293192
1.63117e+06	0.293271
1.64059e+06	0.29335
1.65006e+06	0.293428
1.65959e+06	0.293507
1.66917e+06	0.293586
1.6788e+06	0.293664
1.6885e+06	0.293743
1.69824e+06	0.293822
1.70805e+06	0.2939
1.71791e+06	0.293978
1.72783e+06	0.294057
1.7378e+06	0.294135
1.74783e+06	0.294213
1.75792e+06	0.294291
1.76807e+06	0.294369
1.77828e+06	0.294447
1.78855e+06	0.294525
1.79887e+06	0.294603
1.80926e+06	0.294681
1.8197e+06	0.294759
1.83021e+06	0.294837
1.84077e+06	0.294914
1.8514e+06	0.294992
1.86209e+06	0.295069
1.87284e+06	0.295147
1.88365e+06	0.295224
1.89452e+06	0.295302
1.90546e+06	0.295379
1.91646e+06	0.295456
1.92752e+06	0.295533
1.93865e+06	0.29561
1.94984e+06	0.295687
1.9611e+06	0.295764
1.97242e+06	0.295841
1.98381e+06	0.295918
1.99526e+06	0.295995
2.00678e+06	0.296071
2.01837e+06	0.296148
2.03002e+06	0.296224
2.04174e+06	0.296301
2.05353e+06	0.296377
2.06538e+06	0.296454
2.0773e+06	0.29653
2.0893e+06	0.296606
2.10136e+06	0.296682
2.11349e+06	0.296759
2.12569e+06	0.296835
2.13796e+06	0.296911
2.1503e+06	0.296986
2.16272e+06	0.297062
2.1752e+06	0.297138
2.18776e+06	0.297214
2.20039e+06	0.29729
2.21309e+06	0.297365
2.22587e+06	0.297441
2.23872e+06	0.297516
2.25165e+06	0.297592
2.26464e+06	0.297667
2.27772e+06	0.297742
2.29087e+06	0.297817
2.30409e+06	0.297893
2.31739e+06	0.297968
2.33077e+06	0.298043
2.34423e+06	0.298118
2.35776e+06	0.298192
2.37137e+06	0.298267
2.38506e+06	0.298342
2.39883e+06	0.298417
2.41268e+06	0.298491
2.42661e+06	0.298566
2.44062e+06	0.29864
2.45471e+06	0.298715
2.46888e+06	0.298789
2.48313e+06	0.298864
2.49747e+06	0.298938
2.51189e+06	0.299012
2.52639e+06	0.299086
2.54097e+06	0.29916
2.55564e+06	0.299234
2.5704e+06	0.299308
2.58523e+06	0.299382
2.60016e+06	0.299456
2.61517e+06	0.299529
2.63027e+06	0.299603
2.64545e+06	0.299677
2.66073e+06	0.29975
2.67609e+06	0.299824
2.69153e+06	0.299897
2.70707e+06	0.29997
2.7227e+06	0.300044
2.73842e+06	0.300117
2.75423e+06	0.30019
2.77013e+06	0.300263
2.78612e+06	0.300336
2.80221e+06	0.300409
2.81838e+06	0.300482
2.83465e+06	0.300555
2.85102e+06	0.300627
2.86748e+06	0.3007
2.88403e+06	0.300773
2.90068e+06	0.300845
2.91743e+06	0.300918
2.93427e+06	0.30099
2.95121e+06	0.301063
2.96825e+06	0.301135
2.98538e+06	0.301207
3.00262e+06	0.301279
3.01995e+06	0.301351
3.03739e+06	0.301423
3.05492e+06	0.301495
3.07256e+06	0.301567
3.0903e+06	0.301639
3.10814e+06	0.301711
3.12608e+06	0.301783
3.14413e+06	0.301854
3.16228e+06	0.301926
3.18053e+06	0.301997
3.1989e+06	0.302069
3.21736e+06	0.30214
3.23594e+06	0.302212
3.25462e+06	0.302283
3.27341e+06	0.302354
3.2923e+06	0.302425
3.31131e+06	0.302496
3.33043e+06	0.302567
3.34965e+06	0.302638
3.36899e+06	0.302709
3.38844e+06	0.30278
3.408e+06	0.302851
3.42768e+06	0.302921
3.44747e+06	0.302992
3.46737e+06	0.303063
3.48739e+06	0.303133
3.50752e+06	0.303204
3.52777e+06	0.303274
3.54813e+06	0.303344
3.56862e+06	0.303414
3.58922e+06	0.303485
3.60994e+06	0.303555
3.63078e+06	0.303625
3.65174e+06	0.303695
3.67282e+06	0.303765
3.69403e+06	0.303835
3.71535e+06	0.303904
3.7368e+06	0.303974
3.75837e+06	0.304044
3.78007e+06	0.304113
3.80189e+06	0.304183
3.82384e+06	0.304252
3.84592e+06	0.304322
3.86812e+06	0.304391
3.89045e+06	0.304461
3.91291e+06	0.30453
3.9355e+06	0.304599
3.95822e+06	0.304668
3.98107e+06	0.304724
4.00405e+06	0.304712
4.02717e+06	0.3047
4.05042e+06	0.304688
4.0738e+06	0.304676
4.09732e+06	0.304665
4.12098e+06	0.304653
4.14477e+06	0.304642
4.16869e+06	0.304631
4.19276e+06	0.30462
4.21697e+06	0.304609
4.24131e+06	0.304598
4.2658e+06	0.304587
4.29042e+06	0.304577
4.31519e+06	0.304566
4.3401e+06	0.304556
4.36516e+06	0.304546
4.39036e+06	0.304536
4.4157e+06	0.304526
4.4412e+06	0.304516
4.46684e+06	0.304506
4.49262e+06	0.304496
4.51856e+06	0.304487
4.54465e+06	0.304477
4.57088e+06	0.304468
4.59727e+06	0.304459
4.62381e+06	0.30445
4.6505e+06	0.304441
4.67735e+06	0.304432
4.70435e+06	0.304423
4.73151e+06	0.304414
4.75883e+06	0.304406
4.7863e+06	0.304397
4.81393e+06	0.304389
4.84172e+06	0.304381
4.86968e+06	0.304373
4.89779e+06	0.304364
4.92606e+06	0.304356
4.9545e+06	0.304348
4.9831e+06	0.304341
5.01187e+06	0.304333
5.04081e+06	0.304325
5.06991e+06	0.304318
5.09918e+06	0.30431
5.12861e+06	0.304303
5.15822e+06	0.304295
5.188e+06	0.304288
5.21795e+06	0.304281
5.24807e+06	0.304274
5.27837e+06	0.304267
5.30884e+06	0.30426
5.33949e+06	0.304253
5.37032e+06	0.304247
5.40132e+06	0.30424
5.4325e+06	0.304233
5.46387e+06	0.304227
5.49541e+06	0.30422
5.52713e+06	0.304214
5.55904e+06	0.304208
5.59114e+06	0.304201
5.62341e+06	0.304195
5.65588e+06	0.304189
5.68853e+06	0.304183
5.72137e+06	0.304177
5.7544e+06	0.304171
5.78762e+06	0.304166
5.82103e+06	0.30416
5.85464e+06	0.304154
5.88844e+06	0.304149
5.92243e+06	0.304143
5.95662e+06	0.304138
5.99101e+06	0.304132
6.0256e+06	0.304127
6.06038e+06	0.304121
6.09537e+06	0.304116
6.13056e+06	0.304111
6.16595e+06	0.304106
6.20155e+06	0.304101
6.23735e+06	0.304096
6.27336e+06	0.304091
6.30957e+06	0.304086
6.346e+06	0.304081
6.38263e+06	0.304076
6.41948e+06	0.304072
6.45654e+06	0.304067
6.49382e+06	0.304062
6.53131e+06	0.304058
6.56901e+06	0.304053
6.60693e+06	0.304049
6.64508e+06	0.304044
6.68344e+06	0.30404
6.72202e+06	0.304036
6.76083e+06	0.304032
6.79986e+06	0.304027
6.83912e+06	0.304023
6.8786e+06	0.304019
6.91831e+06	0.304015
6.95825e+06	0.304011
6.99842e+06	0.304007
7.03882e+06	0.304003
7.07946e+06	0.303999
7.12033e+06	0.303995
7.16143e+06	0.303992
7.20278e+06	0.303988
7.24436e+06	0.303984
7.28618e+06	0.30398
7.32825e+06	0.303977
7.37055e+06	0.303973
7.4131e+06	0.30397
7.4559e+06	0.303966
7.49894e+06	0.303963
7.54223e+06	0.303959
7.58578e+06	0.303956
7.62957e+06	0.303953
7.67361e+06	0.303949
7.71792e+06	0.303946
7.76247e+06	0.303943
7.80728e+06	0.30394
7.85236e+06	0.303936
7.89769e+06	0.303933
7.94328e+06	0.30393
7.98914e+06	0.303927
8.03526e+06	0.303924
8.08165e+06	0.303921
8.12831e+06	0.303918
8.17523e+06	0.303915
8.22243e+06	0.303912
8.2699e+06	0.30391
8.31764e+06	0.303907
8.36566e+06	0.303904
8.41395e+06	0.303901
8.46253e+06	0.303899
8.51138e+06	0.303896
8.56052e+06	0.303893
8.60994e+06	0.303891
8.65964e+06	0.303888
8.70964e+06	0.303885
8.75992e+06	0.303883
8.81049e+06	0.30388
8.86135e+06	0.303878
8.91251e+06	0.303875
8.96396e+06	0.303873
9.01571e+06	0.303871
9.06776e+06	0.303868
9.12011e+06	0.303866
9.17276e+06	0.303864
9.22571e+06	0.303861
9.27897e+06	0.303859
9.33254e+06	0.303857
9.38642e+06	0.303855
9.44061e+06	0.303852
9.49511e+06	0.30385
9.54993e+06	0.303848
9.60506e+06	0.303846
9.66051e+06	0.303844
9.71628e+06	0.303842
9.77237e+06	0.30384
9.82879e+06	0.303838
9.88553e+06	0.303836
9.9426e+06	0.303834
1e+07	0.303832
