Stopping power dEdx from Ionisation for F19[0.0] Z = 9 in Water, process name: ionIoni
E [MeV]	dEdx [MeV/mm]
0.001	23.191
0.00100577	23.2583
0.00101158	23.3257
0.00101742	23.3933
0.00102329	23.4612
0.0010292	23.5292
0.00103514	23.5974
0.00104112	23.6658
0.00104713	23.7344
0.00105317	23.8032
0.00105925	23.8722
0.00106537	23.9414
0.00107152	24.0108
0.00107771	24.0804
0.00108393	24.1502
0.00109018	24.2202
0.00109648	24.2904
0.00110281	24.3608
0.00110917	24.4314
0.00111558	24.5022
0.00112202	24.5733
0.0011285	24.6445
0.00113501	24.7159
0.00114156	24.7875
0.00114815	24.8594
0.00115478	24.9314
0.00116145	25.0037
0.00116815	25.0761
0.0011749	25.1488
0.00118168	25.2217
0.0011885	25.2948
0.00119536	25.3681
0.00120226	25.4416
0.00120921	25.5153
0.00121619	25.5893
0.00122321	25.6634
0.00123027	25.7378
0.00123737	25.8123
0.00124451	25.8871
0.0012517	25.9621
0.00125893	26.0374
0.00126619	26.1128
0.0012735	26.1885
0.00128086	26.2644
0.00128825	26.3404
0.00129569	26.4168
0.00130317	26.4933
0.00131069	26.5701
0.00131826	26.647
0.00132587	26.7242
0.00133352	26.8017
0.00134122	26.8793
0.00134896	26.9572
0.00135675	27.0353
0.00136458	27.1136
0.00137246	27.1921
0.00138038	27.2709
0.00138835	27.3499
0.00139637	27.4291
0.00140443	27.5086
0.00141254	27.5882
0.00142069	27.6682
0.00142889	27.7483
0.00143714	27.8287
0.00144544	27.9093
0.00145378	27.9901
0.00146218	28.0712
0.00147062	28.1525
0.00147911	28.234
0.00148765	28.3158
0.00149624	28.3978
0.00150487	28.4801
0.00151356	28.5625
0.0015223	28.6453
0.00153109	28.7282
0.00153993	28.8114
0.00154882	28.8949
0.00155776	28.9785
0.00156675	29.0624
0.0015758	29.1466
0.00158489	29.231
0.00159404	29.3157
0.00160325	29.4005
0.0016125	29.4857
0.00162181	29.5711
0.00163117	29.6567
0.00164059	29.7426
0.00165006	29.8287
0.00165959	29.9151
0.00166917	30.0017
0.0016788	30.0885
0.0016885	30.1757
0.00169824	30.263
0.00170805	30.3507
0.00171791	30.4385
0.00172783	30.5267
0.0017378	30.615
0.00174783	30.7037
0.00175792	30.7926
0.00176807	30.8817
0.00177828	30.9711
0.00178855	31.0608
0.00179887	31.1507
0.00180926	31.2409
0.0018197	31.3313
0.00183021	31.422
0.00184077	31.513
0.0018514	31.6042
0.00186209	31.6957
0.00187284	31.7874
0.00188365	31.8795
0.00189452	31.9717
0.00190546	32.0643
0.00191646	32.1571
0.00192752	32.2502
0.00193865	32.3435
0.00194984	32.4372
0.0019611	32.531
0.00197242	32.6252
0.00198381	32.7196
0.00199526	32.8143
0.00200678	32.9093
0.00201837	33.0046
0.00203002	33.1001
0.00204174	33.1959
0.00205353	33.292
0.00206538	33.3883
0.0020773	33.4849
0.0020893	33.5818
0.00210136	33.679
0.00211349	33.7765
0.00212569	33.8743
0.00213796	33.9723
0.0021503	34.0706
0.00216272	34.1692
0.0021752	34.2681
0.00218776	34.3672
0.00220039	34.4667
0.00221309	34.5664
0.00222587	34.6665
0.00223872	34.7668
0.00225165	34.8674
0.00226464	34.9683
0.00227772	35.0694
0.00229087	35.1709
0.00230409	35.2727
0.00231739	35.3748
0.00233077	35.4771
0.00234423	35.5798
0.00235776	35.6827
0.00237137	35.7859
0.00238506	35.8895
0.00239883	35.9933
0.00241268	36.0975
0.00242661	36.2019
0.00244062	36.3066
0.00245471	36.4117
0.00246888	36.517
0.00248313	36.6227
0.00249747	36.7286
0.00251189	36.8349
0.00252639	36.9415
0.00254097	37.0483
0.00255564	37.1555
0.0025704	37.263
0.00258523	37.3708
0.00260016	37.4789
0.00261517	37.5873
0.00263027	37.6961
0.00264545	37.8051
0.00266073	37.9145
0.00267609	38.0241
0.00269153	38.1341
0.00270707	38.2444
0.0027227	38.3551
0.00273842	38.466
0.00275423	38.5773
0.00277013	38.6889
0.00278612	38.8008
0.00280221	38.913
0.00281838	39.0256
0.00283465	39.1384
0.00285102	39.2516
0.00286748	39.3652
0.00288403	39.479
0.00290068	39.5932
0.00291743	39.7077
0.00293427	39.8226
0.00295121	39.9377
0.00296825	40.0533
0.00298538	40.1691
0.00300262	40.2853
0.00301995	40.4018
0.00303739	40.5186
0.00305492	40.6358
0.00307256	40.7533
0.0030903	40.8712
0.00310814	40.9894
0.00312608	41.1079
0.00314413	41.2268
0.00316228	41.346
0.00318053	41.4656
0.0031989	41.5855
0.00321736	41.7058
0.00323594	41.8264
0.00325462	41.9473
0.00327341	42.0686
0.0032923	42.1903
0.00331131	42.3123
0.00333043	42.4346
0.00334965	42.5573
0.00336899	42.6804
0.00338844	42.8038
0.003408	42.9276
0.00342768	43.0517
0.00344747	43.1762
0.00346737	43.301
0.00348739	43.4262
0.00350752	43.5518
0.00352777	43.6777
0.00354813	43.804
0.00356862	43.9306
0.00358922	44.0577
0.00360994	44.185
0.00363078	44.3128
0.00365174	44.4409
0.00367282	44.5694
0.00369403	44.6983
0.00371535	44.8275
0.0037368	44.9571
0.00375837	45.0871
0.00378007	45.2174
0.00380189	45.3481
0.00382384	45.4792
0.00384592	45.6107
0.00386812	45.7426
0.00389045	45.8748
0.00391291	46.0074
0.0039355	46.1404
0.00395822	46.2738
0.00398107	46.4076
0.00400405	46.5418
0.00402717	46.6763
0.00405042	46.8112
0.0040738	46.9465
0.00409732	47.0823
0.00412098	47.2184
0.00414477	47.3549
0.00416869	47.4917
0.00419276	47.629
0.00421697	47.7667
0.00424131	47.9048
0.0042658	48.0432
0.00429042	48.1821
0.00431519	48.3214
0.0043401	48.4611
0.00436516	48.6011
0.00439036	48.7416
0.0044157	48.8825
0.0044412	49.0238
0.00446684	49.1655
0.00449262	49.3076
0.00451856	49.4501
0.00454465	49.593
0.00457088	49.7364
0.00459727	49.8801
0.00462381	50.0243
0.0046505	50.1689
0.00467735	50.3139
0.00470435	50.4593
0.00473151	50.6051
0.00475883	50.7514
0.0047863	50.898
0.00481393	51.0451
0.00484172	51.1927
0.00486968	51.3406
0.00489779	51.489
0.00492606	51.6378
0.0049545	51.787
0.0049831	51.9367
0.00501187	52.0868
0.00504081	52.2373
0.00506991	52.3883
0.00509918	52.5397
0.00512861	52.6915
0.00515822	52.8438
0.005188	52.9965
0.00521795	53.1496
0.00524807	53.3032
0.00527837	53.4572
0.00530884	53.6117
0.00533949	53.7666
0.00537032	53.922
0.00540132	54.0778
0.0054325	54.2341
0.00546387	54.5268
0.00549541	54.684
0.00552713	54.8416
0.00555904	54.9997
0.00559114	55.1582
0.00562341	55.3172
0.00565588	55.4767
0.00568853	55.6366
0.00572137	55.7969
0.0057544	55.9578
0.00578762	56.1191
0.00582103	56.2808
0.00585464	56.443
0.00588844	56.6057
0.00592243	56.7689
0.00595662	56.9325
0.00599101	57.0966
0.0060256	57.2612
0.00606038	57.4262
0.00609537	57.5918
0.00613056	57.7578
0.00616595	57.9242
0.00620155	58.0912
0.00623735	58.2586
0.00627336	58.4266
0.00630957	58.595
0.006346	58.7639
0.00638263	58.9332
0.00641948	59.1031
0.00645654	59.2735
0.00649382	59.4443
0.00653131	59.6157
0.00656901	59.7875
0.00660693	59.9598
0.00664508	60.1326
0.00668344	60.306
0.00672202	60.4798
0.00676083	60.6541
0.00679986	60.829
0.00683912	61.0043
0.0068786	61.1801
0.00691831	61.3565
0.00695825	61.5333
0.00699842	61.7107
0.00703882	61.8886
0.00707946	62.0669
0.00712033	62.2458
0.00716143	62.4253
0.00720278	62.6052
0.00724436	62.7856
0.00728618	62.9666
0.00732825	63.1481
0.00737055	63.3301
0.0074131	63.5127
0.0074559	63.6957
0.00749894	63.8793
0.00754223	64.0635
0.00758578	64.2481
0.00762957	64.4333
0.00767361	64.619
0.00771792	64.8053
0.00776247	64.9921
0.00780728	65.1794
0.00785236	65.3673
0.00789769	65.5557
0.00794328	65.7446
0.00798914	65.9341
0.00803526	66.1242
0.00808165	66.3148
0.00812831	66.5059
0.00817523	66.6976
0.00822243	66.8899
0.0082699	67.0827
0.00831764	67.276
0.00836566	67.4699
0.00841395	67.6644
0.00846253	67.8594
0.00851138	68.055
0.00856052	68.2512
0.00860994	68.4479
0.00865964	68.6452
0.00870964	68.8431
0.00875992	69.0415
0.00881049	69.2405
0.00886135	69.4401
0.00891251	69.6403
0.00896396	69.841
0.00901571	70.0423
0.00906776	70.2442
0.00912011	70.4466
0.00917276	70.6497
0.00922571	70.8533
0.00927897	71.0576
0.00933254	71.2624
0.00938642	71.4678
0.00944061	71.6738
0.00949511	71.8804
0.00954993	72.0876
0.00960506	72.2953
0.00966051	72.5037
0.00971628	72.7127
0.00977237	72.9223
0.00982879	73.1325
0.00988553	73.3433
0.0099426	73.5547
0.01	73.7667
0.0100577	73.9793
0.0101158	74.1926
0.0101742	74.4064
0.0102329	74.6209
0.010292	74.836
0.0103514	75.0517
0.0104112	75.268
0.0104713	75.4849
0.0105317	75.7025
0.0105925	75.9207
0.0106537	76.1396
0.0107152	76.359
0.0107771	76.5791
0.0108393	76.7998
0.0109018	77.0212
0.0109648	77.2432
0.0110281	77.4659
0.0110917	77.6891
0.0111558	77.9131
0.0112202	78.1376
0.011285	78.3629
0.0113501	78.5887
0.0114156	78.8153
0.0114815	79.0424
0.0115478	79.2703
0.0116145	79.4988
0.0116815	79.7279
0.011749	79.9577
0.0118168	80.1882
0.011885	80.4193
0.0119536	80.6511
0.0120226	80.8836
0.0120921	81.1167
0.0121619	81.3505
0.0122321	81.585
0.0123027	81.8202
0.0123737	82.056
0.0124451	82.2925
0.012517	82.5297
0.0125893	82.7676
0.0126619	83.0062
0.012735	83.2454
0.0128086	83.4854
0.0128825	83.726
0.0129569	83.9673
0.0130317	84.2094
0.0131069	84.4521
0.0131826	84.6955
0.0132587	84.9396
0.0133352	85.1845
0.0134122	85.43
0.0134896	85.6762
0.0135675	85.9232
0.0136458	86.1708
0.0137246	86.4192
0.0138038	86.6683
0.0138835	86.9181
0.0139637	87.1687
0.0140443	87.4199
0.0141254	87.6719
0.0142069	87.9246
0.0142889	88.178
0.0143714	88.4322
0.0144544	88.6871
0.0145378	88.9427
0.0146218	89.1991
0.0147062	89.4562
0.0147911	89.714
0.0148765	89.9726
0.0149624	90.2319
0.0150487	90.492
0.0151356	90.7529
0.015223	91.0144
0.0153109	91.2768
0.0153993	91.5399
0.0154882	91.8037
0.0155776	92.0683
0.0156675	92.3337
0.015758	92.5999
0.0158489	92.8668
0.0159404	93.1344
0.0160325	93.4029
0.016125	93.6721
0.0162181	93.9421
0.0163117	94.2129
0.0164059	94.4844
0.0165006	94.7568
0.0165959	95.0299
0.0166917	95.3038
0.016788	95.5785
0.016885	95.854
0.0169824	96.1303
0.0170805	96.4074
0.0171791	96.6853
0.0172783	96.964
0.017378	97.2434
0.0174783	97.5237
0.0175792	97.8048
0.0176807	98.0867
0.0177828	98.3695
0.0178855	98.653
0.0179887	98.9374
0.0180926	99.2225
0.018197	99.5085
0.0183021	99.7954
0.0184077	100.083
0.018514	100.371
0.0186209	100.661
0.0187284	100.951
0.0188365	101.242
0.0189452	101.534
0.0190546	101.826
0.0191646	102.12
0.0192752	102.414
0.0193865	102.709
0.0194984	103.005
0.019611	103.302
0.0197242	103.6
0.0198381	103.899
0.0199526	104.198
0.0200678	104.499
0.0201837	104.8
0.0203002	105.102
0.0204174	105.405
0.0205353	105.709
0.0206538	106.013
0.020773	106.319
0.020893	106.625
0.0210136	106.933
0.0211349	107.241
0.0212569	107.55
0.0213796	107.86
0.021503	108.171
0.0216272	108.483
0.021752	108.795
0.0218776	109.109
0.0220039	109.423
0.0221309	109.739
0.0222587	110.055
0.0223872	110.372
0.0225165	110.69
0.0226464	111.01
0.0227772	111.33
0.0229087	111.65
0.0230409	111.972
0.0231739	112.295
0.0233077	112.619
0.0234423	112.943
0.0235776	113.269
0.0237137	113.595
0.0238506	113.923
0.0239883	114.251
0.0241268	114.58
0.0242661	114.911
0.0244062	115.242
0.0245471	115.574
0.0246888	115.907
0.0248313	116.241
0.0249747	116.576
0.0251189	116.912
0.0252639	117.249
0.0254097	117.587
0.0255564	117.926
0.025704	118.266
0.0258523	118.607
0.0260016	118.949
0.0261517	119.292
0.0263027	119.636
0.0264545	119.98
0.0266073	120.326
0.0267609	120.673
0.0269153	121.021
0.0270707	121.37
0.027227	121.72
0.0273842	122.07
0.0275423	122.422
0.0277013	122.775
0.0278612	123.129
0.0280221	123.484
0.0281838	123.84
0.0283465	124.197
0.0285102	124.555
0.0286748	124.914
0.0288403	125.274
0.0290068	125.635
0.0291743	125.997
0.0293427	126.36
0.0295121	126.724
0.0296825	127.09
0.0298538	127.456
0.0300262	127.823
0.0301995	128.192
0.0303739	128.561
0.0305492	128.932
0.0307256	129.304
0.030903	129.676
0.0310814	130.05
0.0312608	130.425
0.0314413	130.801
0.0316228	131.178
0.0318053	131.556
0.031989	131.935
0.0321736	132.315
0.0323594	132.697
0.0325462	133.079
0.0327341	133.463
0.032923	133.848
0.0331131	134.233
0.0333043	134.62
0.0334965	135.008
0.0336899	135.397
0.0338844	135.788
0.03408	136.179
0.0342768	136.572
0.0344747	136.965
0.0346737	137.36
0.0348739	137.756
0.0350752	138.153
0.0352777	138.551
0.0354813	138.951
0.0356862	139.351
0.0358922	139.753
0.0360994	140.156
0.0363078	140.56
0.0365174	140.965
0.0367282	141.371
0.0369403	141.778
0.0371535	142.187
0.037368	142.597
0.0375837	143.008
0.0378007	143.42
0.0380189	143.834
0.0382384	144.248
0.0384592	144.664
0.0386812	145.081
0.0389045	145.499
0.0391291	145.918
0.039355	146.339
0.0395822	146.761
0.0398107	147.184
0.0400405	147.608
0.0402717	148.034
0.0405042	148.46
0.040738	148.888
0.0409732	149.317
0.0412098	149.748
0.0414477	150.179
0.0416869	150.612
0.0419276	151.046
0.0421697	151.482
0.0424131	151.918
0.042658	152.356
0.0429042	152.795
0.0431519	153.236
0.043401	153.678
0.0436516	154.12
0.0439036	154.565
0.044157	155.01
0.044412	155.457
0.0446684	155.905
0.0449262	156.354
0.0451856	156.805
0.0454465	157.257
0.0457088	157.71
0.0459727	158.165
0.0462381	158.621
0.046505	159.078
0.0467735	159.537
0.0470435	159.996
0.0473151	160.458
0.0475883	160.92
0.047863	161.384
0.0481393	161.849
0.0484172	162.316
0.0486968	162.783
0.0489779	163.253
0.0492606	163.723
0.049545	164.195
0.049831	164.668
0.0501187	165.143
0.0504081	165.619
0.0506991	166.096
0.0509918	166.575
0.0512861	167.055
0.0515822	167.537
0.05188	168.02
0.0521795	168.504
0.0524807	168.99
0.0527837	169.477
0.0530884	169.965
0.0533949	170.455
0.0537032	170.947
0.0540132	171.439
0.054325	171.933
0.0546387	172.429
0.0549541	172.926
0.0552713	173.424
0.0555904	173.924
0.0559114	174.426
0.0562341	174.928
0.0565588	175.433
0.0568853	175.938
0.0572137	176.445
0.057544	176.954
0.0578762	177.464
0.0582103	177.976
0.0585464	178.489
0.0588844	179.003
0.0592243	179.519
0.0595662	180.036
0.0599101	180.555
0.060256	181.076
0.0606038	181.598
0.0609537	182.121
0.0613056	182.646
0.0616595	183.173
0.0620155	183.7
0.0623735	184.23
0.0627336	184.761
0.0630957	185.294
0.06346	185.828
0.0638263	186.363
0.0641948	186.9
0.0645654	187.439
0.0649382	187.979
0.0653131	188.521
0.0656901	189.065
0.0660693	189.61
0.0664508	190.156
0.0668344	190.704
0.0672202	191.254
0.0676083	191.805
0.0679986	192.358
0.0683912	192.912
0.068786	193.469
0.0691831	194.026
0.0695825	194.585
0.0699842	195.146
0.0703882	195.709
0.0707946	196.273
0.0712033	196.839
0.0716143	197.406
0.0720278	197.975
0.0724436	198.546
0.0728618	199.118
0.0732825	199.692
0.0737055	200.267
0.074131	200.845
0.074559	201.424
0.0749894	202.004
0.0754223	202.586
0.0758578	203.17
0.0762957	203.756
0.0767361	204.343
0.0771792	204.932
0.0776247	205.523
0.0780728	206.115
0.0785236	206.709
0.0789769	207.305
0.0794328	207.903
0.0798914	208.502
0.0803526	209.103
0.0808165	209.706
0.0812831	210.31
0.0817523	210.916
0.0822243	211.524
0.082699	212.134
0.0831764	212.745
0.0836566	213.359
0.0841395	213.974
0.0846253	214.59
0.0851138	215.209
0.0856052	215.829
0.0860994	216.451
0.0865964	217.075
0.0870964	217.701
0.0875992	218.328
0.0881049	218.958
0.0886135	219.589
0.0891251	220.222
0.0896396	220.857
0.0901571	221.493
0.0906776	222.132
0.0912011	222.772
0.0917276	223.414
0.0922571	224.058
0.0927897	224.704
0.0933254	225.351
0.0938642	226.001
0.0944061	226.652
0.0949511	227.306
0.0954993	227.961
0.0960506	228.618
0.0966051	229.277
0.0971628	229.938
0.0977237	230.601
0.0982879	231.265
0.0988553	231.932
0.099426	232.6
0.1	233.271
0.100577	233.943
0.101158	234.617
0.101742	235.294
0.102329	235.972
0.10292	236.652
0.103514	237.334
0.104112	238.018
0.104713	238.704
0.105317	239.392
0.105925	240.082
0.106537	240.774
0.107152	241.468
0.107771	242.164
0.108393	242.862
0.109018	243.562
0.109648	244.264
0.110281	244.969
0.110917	245.675
0.111558	246.383
0.112202	247.093
0.11285	247.805
0.113501	248.519
0.114156	249.236
0.114815	249.954
0.115478	250.675
0.116145	251.397
0.116815	252.122
0.11749	252.848
0.118168	253.577
0.11885	254.308
0.119536	255.041
0.120226	255.776
0.120921	256.514
0.121619	257.253
0.122321	257.994
0.123027	258.738
0.123737	259.484
0.124451	260.232
0.12517	260.982
0.125893	261.734
0.126619	262.489
0.12735	263.245
0.128086	264.004
0.128825	264.765
0.129569	265.528
0.130317	266.293
0.131069	267.061
0.131826	267.831
0.132587	268.603
0.133352	269.377
0.134122	270.153
0.134896	270.932
0.135675	271.713
0.136458	272.496
0.137246	273.282
0.138038	274.069
0.138835	274.859
0.139637	275.651
0.140443	276.446
0.141254	277.243
0.142069	278.042
0.142889	278.843
0.143714	279.647
0.144544	280.453
0.145378	281.262
0.146218	282.072
0.147062	282.885
0.147911	283.701
0.148765	284.518
0.149624	285.338
0.150487	286.161
0.151356	286.986
0.15223	287.813
0.153109	288.643
0.153993	289.475
0.154882	290.309
0.155776	291.146
0.156675	291.985
0.15758	292.826
0.158489	293.671
0.159404	294.517
0.160325	295.366
0.16125	296.217
0.162181	297.071
0.163117	297.927
0.164059	298.786
0.165006	299.647
0.165959	300.511
0.166917	301.377
0.16788	302.246
0.16885	303.117
0.169824	303.991
0.170805	304.867
0.171791	305.746
0.172783	306.627
0.17378	307.511
0.174783	308.397
0.175792	309.286
0.176807	310.178
0.177828	311.072
0.178855	311.968
0.179887	312.867
0.180926	313.769
0.18197	314.674
0.183021	315.581
0.184077	316.49
0.18514	317.402
0.186209	318.317
0.187284	319.235
0.188365	320.155
0.189452	321.078
0.190546	322.003
0.191646	322.931
0.192752	323.862
0.193865	324.796
0.194984	325.732
0.19611	326.671
0.197242	327.612
0.198381	328.557
0.199526	329.504
0.200678	330.453
0.201837	331.406
0.203002	332.361
0.204174	333.319
0.205353	334.28
0.206538	335.243
0.20773	336.21
0.20893	337.179
0.210136	338.151
0.211349	339.125
0.212569	340.103
0.213796	341.083
0.21503	342.066
0.216272	343.052
0.21752	344.041
0.218776	345.033
0.220039	346.027
0.221309	347.025
0.222587	348.025
0.223872	349.028
0.225165	350.034
0.226464	351.043
0.227772	352.055
0.229087	353.07
0.230409	354.087
0.231739	355.108
0.233077	356.131
0.234423	357.158
0.235776	358.187
0.237137	359.22
0.238506	360.255
0.239883	361.294
0.241268	362.335
0.242661	363.379
0.244062	364.427
0.245471	365.477
0.246888	366.531
0.248313	367.587
0.249747	368.647
0.251189	369.709
0.252639	370.775
0.254097	371.844
0.255564	372.915
0.25704	373.99
0.258523	375.068
0.260016	376.149
0.261517	377.234
0.263027	378.321
0.264545	379.411
0.266073	380.505
0.267609	381.602
0.269153	382.702
0.270707	383.805
0.27227	384.911
0.273842	386.02
0.275423	387.133
0.277013	388.249
0.278612	389.368
0.280221	390.49
0.281838	391.616
0.283465	392.745
0.285102	393.877
0.286748	395.012
0.288403	396.151
0.290068	397.292
0.291743	398.438
0.293427	399.586
0.295121	400.738
0.296825	401.893
0.298538	403.051
0.300262	404.213
0.301995	405.378
0.303739	406.547
0.305492	407.718
0.307256	408.894
0.30903	410.072
0.310814	411.254
0.312608	412.44
0.314413	413.628
0.316228	414.821
0.318053	416.016
0.31989	417.215
0.321736	418.418
0.323594	419.624
0.325462	420.834
0.327341	422.047
0.32923	423.263
0.331131	424.483
0.333043	425.707
0.334965	426.934
0.336899	428.164
0.338844	429.398
0.3408	430.636
0.342768	431.877
0.344747	433.122
0.346737	434.371
0.348739	435.623
0.350752	436.878
0.352777	438.137
0.354813	439.4
0.356862	440.667
0.358922	441.937
0.360994	443.211
0.363078	444.488
0.365174	445.769
0.367282	447.054
0.369403	448.343
0.371535	449.635
0.37368	450.931
0.375837	452.231
0.378007	453.534
0.380189	454.842
0.382384	456.153
0.384592	457.468
0.386812	458.786
0.389045	460.109
0.391291	461.435
0.39355	462.765
0.395822	464.099
0.398107	465.436
0.400405	466.778
0.402717	468.123
0.405042	469.473
0.40738	470.826
0.409732	472.183
0.412098	473.544
0.414477	474.909
0.416869	476.278
0.419276	477.651
0.421697	479.027
0.424131	480.408
0.42658	481.793
0.429042	483.182
0.431519	484.574
0.43401	485.971
0.436516	487.372
0.439036	488.777
0.44157	490.185
0.44412	491.598
0.446684	493.015
0.449262	494.436
0.451856	495.861
0.454465	497.291
0.457088	498.724
0.459727	500.162
0.462381	501.603
0.46505	503.049
0.467735	504.499
0.470435	505.953
0.473151	507.412
0.475883	508.937
0.47863	510.603
0.481393	512.277
0.484172	513.961
0.486968	515.653
0.489779	517.355
0.492606	519.066
0.49545	520.786
0.49831	522.516
0.501187	524.254
0.504081	526.002
0.506991	527.759
0.509918	529.525
0.512861	531.301
0.515822	533.085
0.5188	534.879
0.521795	536.683
0.524807	538.496
0.527837	540.318
0.530884	542.15
0.533949	543.991
0.537032	545.841
0.540132	547.701
0.54325	549.57
0.546387	551.449
0.549541	553.337
0.552713	555.235
0.555904	557.142
0.559114	559.059
0.562341	560.985
0.565588	562.921
0.568853	564.866
0.572137	566.763
0.57544	568.637
0.578762	570.521
0.582103	572.414
0.585464	574.315
0.588844	576.226
0.592243	578.145
0.595662	580.074
0.599101	582.011
0.60256	583.958
0.606038	585.913
0.609537	587.877
0.613056	589.85
0.616595	591.832
0.620155	593.823
0.623735	595.823
0.627336	597.831
0.630957	599.849
0.6346	601.875
0.638263	603.91
0.641948	605.953
0.645654	608.005
0.649382	610.066
0.653131	612.136
0.656901	614.214
0.660693	616.3
0.664508	618.395
0.668344	620.499
0.672202	622.611
0.676083	624.731
0.679986	626.859
0.683912	628.996
0.68786	631.141
0.691831	633.294
0.695825	635.455
0.699842	637.625
0.703882	639.802
0.707946	641.987
0.712033	644.179
0.716143	646.38
0.720278	648.588
0.724436	650.804
0.728618	653.027
0.732825	655.257
0.737055	657.495
0.74131	659.74
0.74559	661.992
0.749894	664.252
0.754223	666.518
0.758578	668.791
0.762957	671.054
0.767361	673.316
0.771792	675.585
0.776247	677.86
0.780728	680.142
0.785236	682.43
0.789769	684.724
0.794328	687.025
0.798914	689.332
0.803526	691.646
0.808165	693.966
0.812831	696.292
0.817523	698.625
0.822243	700.964
0.82699	703.309
0.831764	705.661
0.836566	708.018
0.841395	710.382
0.846253	712.752
0.851138	715.129
0.856052	717.511
0.860994	719.9
0.865964	722.295
0.870964	724.695
0.875992	727.102
0.881049	729.515
0.886135	731.934
0.891251	734.359
0.896396	736.79
0.901571	739.227
0.906776	741.67
0.912011	744.118
0.917276	746.573
0.922571	749.033
0.927897	751.5
0.933254	753.972
0.938642	756.45
0.944061	758.934
0.949511	761.423
0.954993	763.917
0.960506	766.417
0.966051	768.922
0.971628	771.433
0.977237	773.949
0.982879	776.472
0.988553	778.999
0.99426	781.533
1	784.072
1.00577	786.616
1.01158	789.166
1.01742	791.721
1.02329	794.282
1.0292	796.848
1.03514	799.42
1.04112	801.997
1.04713	804.58
1.05317	807.168
1.05925	809.761
1.06537	812.359
1.07152	814.963
1.07771	817.572
1.08393	820.187
1.09018	822.806
1.09648	825.431
1.10281	828.061
1.10917	830.697
1.11558	833.337
1.12202	835.983
1.1285	838.634
1.13501	841.29
1.14156	843.952
1.14815	846.618
1.15478	849.289
1.16145	851.966
1.16815	854.647
1.1749	857.333
1.18168	860.024
1.1885	862.719
1.19536	865.42
1.20226	868.124
1.20921	870.833
1.21619	873.546
1.22321	876.264
1.23027	878.985
1.23737	881.711
1.24451	884.44
1.2517	887.174
1.25893	889.911
1.26619	892.652
1.2735	895.396
1.28086	898.144
1.28825	900.895
1.29569	903.649
1.30317	906.406
1.31069	909.166
1.31826	911.93
1.32587	914.696
1.33352	917.464
1.34122	920.235
1.34896	923.009
1.35675	925.785
1.36458	928.563
1.37246	931.344
1.38038	934.128
1.38835	936.913
1.39637	939.701
1.40443	942.491
1.41254	945.283
1.42069	948.078
1.42889	950.874
1.43714	953.673
1.44544	956.473
1.45378	959.276
1.46218	962.081
1.47062	964.887
1.47911	967.696
1.48765	970.506
1.49624	973.318
1.50487	976.132
1.51356	978.948
1.5223	981.766
1.53109	984.586
1.53993	987.407
1.54882	990.23
1.55776	993.054
1.56675	995.879
1.5758	998.705
1.58489	1001.53
1.59404	1004.36
1.60325	1007.19
1.6125	1010.02
1.62181	1012.85
1.63117	1015.67
1.64059	1018.5
1.65006	1021.33
1.65959	1024.16
1.66917	1026.99
1.6788	1029.81
1.6885	1032.64
1.69824	1035.46
1.70805	1038.28
1.71791	1041.1
1.72783	1043.92
1.7378	1046.74
1.74783	1049.55
1.75792	1052.36
1.76807	1055.17
1.77828	1057.98
1.78855	1060.79
1.79887	1063.59
1.80926	1066.39
1.8197	1069.19
1.83021	1071.98
1.84077	1074.77
1.8514	1077.56
1.86209	1080.34
1.87284	1083.12
1.88365	1085.9
1.89452	1088.67
1.90546	1091.45
1.91646	1094.22
1.92752	1096.98
1.93865	1099.74
1.94984	1102.5
1.9611	1105.25
1.97242	1108
1.98381	1110.74
1.99526	1113.48
2.00678	1116.21
2.01837	1118.94
2.03002	1121.66
2.04174	1124.38
2.05353	1127.09
2.06538	1129.8
2.0773	1132.5
2.0893	1135.19
2.10136	1137.88
2.11349	1140.56
2.12569	1143.23
2.13796	1145.9
2.1503	1148.56
2.16272	1151.21
2.1752	1153.86
2.18776	1156.49
2.20039	1159.13
2.21309	1161.75
2.22587	1164.36
2.23872	1166.97
2.25165	1169.57
2.26464	1172.16
2.27772	1174.75
2.29087	1177.32
2.30409	1179.89
2.31739	1182.45
2.33077	1184.99
2.34423	1187.53
2.35776	1190.06
2.37137	1192.58
2.38506	1195.1
2.39883	1197.6
2.41268	1200.09
2.42661	1202.57
2.44062	1205.04
2.45471	1207.51
2.46888	1209.96
2.48313	1212.4
2.49747	1214.83
2.51189	1217.25
2.52639	1219.67
2.54097	1222.06
2.55564	1224.45
2.5704	1226.83
2.58523	1229.2
2.60016	1231.56
2.61517	1233.9
2.63027	1236.23
2.64545	1238.56
2.66073	1240.87
2.67609	1243.17
2.69153	1245.45
2.70707	1247.73
2.7227	1249.99
2.73842	1252.25
2.75423	1254.49
2.77013	1256.72
2.78612	1258.93
2.80221	1261.14
2.81838	1263.33
2.83465	1265.51
2.85102	1267.68
2.86748	1269.79
2.88403	1271.88
2.90068	1273.97
2.91743	1276.04
2.93427	1278.09
2.95121	1280.14
2.96825	1282.17
2.98538	1284.18
3.00262	1286.19
3.01995	1288.18
3.03739	1290.15
3.05492	1292.11
3.07256	1294.06
3.0903	1295.99
3.10814	1297.91
3.12608	1299.81
3.14413	1301.7
3.16228	1303.57
3.18053	1305.43
3.1989	1307.27
3.21736	1309.1
3.23594	1310.91
3.25462	1312.71
3.27341	1314.49
3.2923	1316.25
3.31131	1318
3.33043	1319.73
3.34965	1321.44
3.36899	1323.14
3.38844	1324.82
3.408	1326.48
3.42768	1328.13
3.44747	1329.76
3.46737	1331.37
3.48739	1332.96
3.50752	1334.54
3.52777	1336.1
3.54813	1337.65
3.56862	1339.17
3.58922	1340.68
3.60994	1342.17
3.63078	1343.64
3.65174	1345.09
3.67282	1346.53
3.69403	1347.95
3.71535	1349.35
3.7368	1350.73
3.75837	1352.09
3.78007	1353.44
3.80189	1354.77
3.82384	1356.09
3.84592	1357.4
3.86812	1358.69
3.89045	1359.96
3.91291	1361.21
3.9355	1362.44
3.95822	1363.66
3.98107	1364.85
4.00405	1366.03
4.02717	1367.19
4.05042	1368.33
4.0738	1369.45
4.09732	1370.56
4.12098	1371.64
4.14477	1372.71
4.16869	1373.76
4.19276	1374.79
4.21697	1375.8
4.24131	1376.79
4.2658	1377.76
4.29042	1378.71
4.31519	1379.65
4.3401	1380.57
4.36516	1381.47
4.39036	1382.35
4.4157	1383.21
4.4412	1384.06
4.46684	1384.88
4.49262	1385.69
4.51856	1386.48
4.54465	1387.26
4.57088	1388.01
4.59727	1388.75
4.62381	1389.48
4.6505	1390.18
4.67735	1390.87
4.70435	1391.54
4.73151	1392.2
4.75883	1392.84
4.7863	1393.47
4.81393	1394.08
4.84172	1394.67
4.86968	1395.25
4.89779	1395.82
4.92606	1396.36
4.9545	1396.9
4.9831	1397.41
5.01187	1397.91
5.04081	1398.4
5.06991	1398.86
5.09918	1399.32
5.12861	1399.75
5.15822	1400.17
5.188	1400.58
5.21795	1400.97
5.24807	1401.34
5.27837	1401.7
5.30884	1402.04
5.33949	1402.37
5.37032	1402.68
5.40132	1402.97
5.4325	1403.25
5.46387	1403.52
5.49541	1403.77
5.52713	1404
5.55904	1404.22
5.59114	1404.42
5.62341	1404.61
5.65588	1404.79
5.68853	1404.95
5.72137	1405.1
5.7544	1405.24
5.78762	1405.36
5.82103	1405.47
5.85464	1405.56
5.88844	1405.64
5.92243	1405.71
5.95662	1405.76
5.99101	1405.79
6.0256	1405.82
6.06038	1405.82
6.09537	1405.81
6.13056	1405.79
6.16595	1405.76
6.20155	1405.71
6.23735	1405.64
6.27336	1405.56
6.30957	1405.46
6.346	1405.35
6.38263	1405.23
6.41948	1405.09
6.45654	1404.94
6.49382	1404.77
6.53131	1404.59
6.56901	1404.39
6.60693	1404.18
6.64508	1403.95
6.68344	1403.71
6.72202	1403.46
6.76083	1403.19
6.79986	1402.91
6.83912	1402.61
6.8786	1402.3
6.91831	1401.98
6.95825	1401.64
6.99842	1401.29
7.03882	1400.93
7.07946	1400.55
7.12033	1400.16
7.16143	1399.75
7.20278	1399.34
7.24436	1398.91
7.28618	1398.47
7.32825	1398.01
7.37055	1397.55
7.4131	1397.07
7.4559	1396.58
7.49894	1396.08
7.54223	1395.57
7.58578	1395.05
7.62957	1394.51
7.67361	1393.96
7.71792	1393.4
7.76247	1392.83
7.80728	1392.24
7.85236	1391.65
7.89769	1391.05
7.94328	1390.43
7.98914	1389.81
8.03526	1389.17
8.08165	1388.52
8.12831	1387.87
8.17523	1387.2
8.22243	1386.52
8.2699	1385.83
8.31764	1385.13
8.36566	1384.42
8.41395	1383.69
8.46253	1382.96
8.51138	1382.22
8.56052	1381.46
8.60994	1380.7
8.65964	1379.92
8.70964	1379.13
8.75992	1378.33
8.81049	1377.53
8.86135	1376.71
8.91251	1375.87
8.96396	1375.03
9.01571	1374.18
9.06776	1373.32
9.12011	1372.44
9.17276	1371.56
9.22571	1370.67
9.27897	1369.76
9.33254	1368.84
9.38642	1367.92
9.44061	1366.98
9.49511	1366.03
9.54993	1365.08
9.60506	1364.11
9.66051	1363.14
9.71628	1362.15
9.77237	1361.15
9.82879	1360.15
9.88553	1359.13
9.9426	1358.1
10	1357.06
10.0577	1356.02
10.1158	1354.96
10.1742	1353.89
10.2329	1352.81
10.292	1351.72
10.3514	1350.63
10.4112	1349.52
10.4713	1348.4
10.5317	1347.28
10.5925	1346.14
10.6537	1344.99
10.7152	1343.84
10.7771	1342.67
10.8393	1341.5
10.9018	1340.31
10.9648	1339.12
11.0281	1337.91
11.0917	1336.7
11.1558	1335.48
11.2202	1334.25
11.285	1333.01
11.3501	1331.77
11.4156	1330.51
11.4815	1329.25
11.5478	1327.98
11.6145	1326.7
11.6815	1325.41
11.749	1324.11
11.8168	1322.8
11.885	1321.49
11.9536	1320.17
12.0226	1318.84
12.0921	1317.5
12.1619	1316.15
12.2321	1314.8
12.3027	1313.43
12.3737	1312.06
12.4451	1310.68
12.517	1309.29
12.5893	1307.89
12.6619	1306.49
12.735	1305.08
12.8086	1303.66
12.8825	1302.23
12.9569	1300.79
13.0317	1299.35
13.1069	1297.89
13.1826	1296.43
13.2587	1294.96
13.3352	1293.49
13.4122	1292
13.4896	1290.51
13.5675	1289.01
13.6458	1287.51
13.7246	1285.99
13.8038	1284.47
13.8835	1282.94
13.9637	1281.4
14.0443	1279.86
14.1254	1278.3
14.2069	1276.74
14.2889	1275.18
14.3714	1273.6
14.4544	1272.02
14.5378	1270.42
14.6218	1268.82
14.7062	1267.22
14.7911	1265.6
14.8765	1263.98
14.9624	1262.35
15.0487	1260.71
15.1356	1259.07
15.223	1257.42
15.3109	1255.75
15.3993	1254.09
15.4882	1252.41
15.5776	1250.73
15.6675	1249.04
15.758	1247.34
15.8489	1245.64
15.9404	1243.93
16.0325	1242.21
16.125	1240.48
16.2181	1238.75
16.3117	1237.01
16.4059	1235.27
16.5006	1233.52
16.5959	1231.76
16.6917	1230
16.788	1228.23
16.885	1226.45
16.9824	1224.67
17.0805	1222.89
17.1791	1221.09
17.2783	1219.3
17.378	1217.49
17.4783	1215.68
17.5792	1213.87
17.6807	1212.05
17.7828	1210.23
17.8855	1208.39
17.9887	1206.56
18.0926	1204.72
18.197	1202.87
18.3021	1201.02
18.4077	1199.16
18.514	1197.3
18.6209	1195.43
18.7284	1193.55
18.8365	1191.67
18.9452	1189.79
19.0546	1187.9
19.1646	1186
19.2752	1184.1
19.3865	1182.19
19.4984	1180.28
19.611	1178.36
19.7242	1176.43
19.8381	1174.5
19.9526	1172.57
20.0678	1170.63
20.1837	1168.68
20.3002	1166.73
20.4174	1164.78
20.5353	1162.81
20.6538	1160.85
20.773	1158.88
20.893	1156.9
21.0136	1154.92
21.1349	1152.93
21.2569	1150.94
21.3796	1148.94
21.503	1146.93
21.6272	1144.93
21.752	1142.91
21.8776	1140.9
22.0039	1138.87
22.1309	1136.85
22.2587	1134.81
22.3872	1132.78
22.5165	1130.73
22.6464	1128.69
22.7772	1126.63
22.9087	1124.58
23.0409	1122.51
23.1739	1120.45
23.3077	1118.38
23.4423	1116.3
23.5776	1114.22
23.7137	1112.14
23.8506	1110.05
23.9883	1107.95
24.1268	1105.85
24.2661	1103.75
24.4062	1101.64
24.5471	1099.53
24.6888	1097.42
24.8313	1095.3
24.9747	1093.17
25.1189	1091.04
25.2639	1088.91
25.4097	1086.77
25.5564	1084.63
25.704	1082.48
25.8523	1080.33
26.0016	1078.18
26.1517	1076.02
26.3027	1073.86
26.4545	1071.7
26.6073	1069.53
26.7609	1067.35
26.9153	1065.18
27.0707	1063
27.227	1060.81
27.3842	1058.62
27.5423	1056.43
27.7013	1054.24
27.8612	1052.04
28.0221	1049.83
28.1838	1047.63
28.3465	1045.42
28.5102	1043.21
28.6748	1041.01
28.8403	1038.8
29.0068	1036.59
29.1743	1034.38
29.3427	1032.17
29.5121	1029.95
29.6825	1027.73
29.8538	1025.51
30.0262	1023.28
30.1995	1021.05
30.3739	1018.82
30.5492	1016.59
30.7256	1014.35
30.903	1012.11
31.0814	1009.87
31.2608	1007.62
31.4413	1005.38
31.6228	1003.13
31.8053	1000.87
31.989	998.619
32.1736	996.362
32.3594	994.103
32.5462	991.841
32.7341	989.578
32.923	987.312
33.1131	985.044
33.3043	982.774
33.4965	980.502
33.6899	978.228
33.8844	975.952
34.08	973.674
34.2768	971.395
34.4747	969.113
34.6737	966.83
34.8739	964.545
35.0752	962.259
35.2777	959.971
35.4813	957.681
35.6862	955.39
35.8922	953.097
36.0994	950.803
36.3078	948.507
36.5174	946.21
36.7282	943.912
36.9403	941.612
37.1535	939.312
37.368	937.009
37.5837	934.706
37.8007	932.402
38.0189	930.095
38.2384	927.783
38.4592	925.469
38.6812	923.155
38.9045	920.839
39.1291	918.523
39.355	916.205
39.5822	913.887
39.8107	911.568
40.0405	909.248
40.2717	906.928
40.5042	904.606
40.738	902.285
40.9732	899.962
41.2098	897.639
41.4477	895.316
41.6869	892.992
41.9276	890.668
42.1697	888.344
42.4131	886.019
42.658	883.694
42.9042	881.369
43.1519	879.043
43.401	876.718
43.6516	874.392
43.9036	872.066
44.157	869.74
44.412	867.414
44.6684	865.088
44.9262	862.762
45.1856	860.436
45.4465	858.11
45.7088	855.784
45.9727	853.459
46.2381	851.133
46.505	848.807
46.7735	846.482
47.0435	844.156
47.3151	841.831
47.5883	839.506
47.863	837.18
48.1393	834.855
48.4172	832.53
48.6968	830.206
48.9779	827.881
49.2606	825.557
49.545	823.234
49.831	820.911
50.1187	818.589
50.4081	816.267
50.6991	813.946
50.9918	811.626
51.2861	809.307
51.5822	806.988
51.88	804.67
52.1795	802.354
52.4807	800.038
52.7837	797.723
53.0884	795.409
53.3949	793.096
53.7032	790.785
54.0132	788.474
54.325	786.165
54.6387	783.857
54.9541	781.55
55.2713	779.244
55.5904	776.94
55.9114	774.637
56.2341	772.335
56.5588	770.034
56.8853	767.735
57.2137	765.436
57.544	763.137
57.8762	760.839
58.2103	758.543
58.5464	756.249
58.8844	753.956
59.2243	751.665
59.5662	749.375
59.9101	747.088
60.256	744.802
60.6038	742.518
60.9537	740.236
61.3056	737.956
61.6595	735.679
62.0155	733.403
62.3735	731.129
62.7336	728.858
63.0957	726.589
63.46	724.322
63.8263	722.058
64.1948	719.796
64.5654	717.536
64.9382	715.279
65.3131	713.024
65.6901	710.771
66.0693	708.522
66.4508	706.274
66.8344	704.029
67.2202	701.787
67.6083	699.547
67.9986	697.31
68.3912	695.076
68.786	692.844
69.1831	690.614
69.5825	688.388
69.9842	686.163
70.3882	683.942
70.7946	681.723
71.2033	679.506
71.6143	677.292
72.0278	675.08
72.4436	672.871
72.8618	670.664
73.2825	668.46
73.7055	666.257
74.131	664.057
74.559	661.86
74.9894	659.664
75.4223	657.47
75.8578	655.279
76.2957	653.096
76.7361	650.919
77.1792	648.744
77.6247	646.571
78.0728	644.4
78.5236	642.231
78.9769	640.065
79.4328	637.901
79.8914	635.74
80.3526	633.581
80.8165	631.425
81.2831	629.271
81.7523	627.12
82.2243	624.972
82.699	622.827
83.1764	620.685
83.6566	618.545
84.1395	616.409
84.6253	614.276
85.1138	612.146
85.6052	610.019
86.0994	607.895
86.5964	605.775
87.0964	603.658
87.5992	601.544
88.1049	599.434
88.6135	597.327
89.1251	595.224
89.6396	593.124
90.1571	591.028
90.6776	588.935
91.2011	586.846
91.7276	584.761
92.2571	582.679
92.7897	580.601
93.3254	578.527
93.8642	576.456
94.4061	574.389
94.9511	572.326
95.4993	570.263
96.0506	568.204
96.6051	566.149
97.1628	564.098
97.7237	562.05
98.2879	560.007
98.8553	557.967
99.426	555.932
100	553.9
100.577	551.873
101.158	549.85
101.742	547.832
102.329	545.817
102.92	543.807
103.514	541.801
104.112	539.8
104.713	537.803
105.317	535.81
105.925	533.822
106.537	531.838
107.152	529.859
107.771	527.884
108.393	525.914
109.018	523.948
109.648	521.987
110.281	520.03
110.917	518.078
111.558	516.13
112.202	514.187
112.85	512.248
113.501	510.313
114.156	508.383
114.815	506.457
115.478	504.536
116.145	502.618
116.815	500.706
117.49	498.797
118.168	496.894
118.85	494.995
119.536	493.1
120.226	491.21
120.921	489.325
121.619	487.444
122.321	485.568
123.027	483.697
123.737	481.83
124.451	479.968
125.17	478.11
125.893	476.258
126.619	474.409
127.35	472.566
128.086	470.727
128.825	468.892
129.569	467.062
130.317	465.237
131.069	463.416
131.826	461.599
132.587	459.787
133.352	457.979
134.122	456.175
134.896	454.376
135.675	452.581
136.458	450.791
137.246	449.005
138.038	447.223
138.835	445.446
139.637	443.674
140.443	441.907
141.254	440.144
142.069	438.385
142.889	436.632
143.714	434.883
144.544	433.14
145.378	431.4
146.218	429.666
147.062	427.937
147.911	426.213
148.765	424.493
149.624	422.778
150.487	421.069
151.356	419.364
152.23	417.664
153.109	415.969
153.993	414.278
154.882	412.593
155.776	410.913
156.675	409.238
157.58	407.567
158.489	405.902
159.404	404.242
160.325	402.587
161.25	400.937
162.181	399.293
163.117	397.653
164.059	396.019
165.006	394.389
165.959	392.765
166.917	391.146
167.88	389.532
168.85	387.923
169.824	386.319
170.805	384.72
171.791	383.126
172.783	381.538
173.78	379.954
174.783	378.375
175.792	376.801
176.807	375.232
177.828	373.668
178.855	372.109
179.887	370.554
180.926	369.005
181.97	367.46
183.021	365.92
184.077	364.385
185.14	362.854
186.209	361.328
187.284	359.806
188.365	358.289
189.452	356.775
190.546	355.265
191.646	353.758
192.752	352.255
193.865	350.756
194.984	349.261
196.11	347.771
197.242	346.286
198.381	344.805
199.526	343.329
200.678	341.857
201.837	340.391
203.002	338.929
204.174	337.472
205.353	336.02
206.538	334.573
207.73	333.131
208.93	331.694
210.136	330.262
211.349	328.836
212.569	327.415
213.796	325.999
215.03	324.588
216.272	323.183
217.52	321.783
218.776	320.389
220.039	319
221.309	317.617
222.587	316.239
223.872	314.866
225.165	313.5
226.464	312.139
227.772	310.783
229.087	309.433
230.409	308.089
231.739	306.751
233.077	305.418
234.423	304.091
235.776	302.769
237.137	301.453
238.506	300.143
239.883	298.838
241.268	297.539
242.661	296.246
244.062	294.958
245.471	293.675
246.888	292.398
248.313	291.127
249.747	289.86
251.189	288.599
252.639	287.344
254.097	286.093
255.564	284.848
257.04	283.608
258.523	282.373
260.016	281.142
261.517	279.917
263.027	278.696
264.545	277.479
266.073	276.267
267.609	275.06
269.153	273.857
270.707	272.658
272.27	271.462
273.842	270.271
275.423	269.083
277.013	267.899
278.612	266.718
280.221	265.54
281.838	264.365
283.465	263.192
285.102	262.024
286.748	260.887
288.403	259.752
290.068	258.619
291.743	257.489
293.427	256.362
295.121	255.237
296.825	254.116
298.538	252.997
300.262	251.881
301.995	250.768
303.739	249.659
305.492	248.552
307.256	247.448
309.03	246.348
310.814	245.251
312.608	244.157
314.413	243.066
316.228	241.979
318.053	240.896
319.89	239.816
321.736	238.739
323.594	237.667
325.462	236.597
327.341	235.532
329.23	234.47
331.131	233.412
333.043	232.358
334.965	231.308
336.899	230.262
338.844	229.22
340.8	228.181
342.768	227.147
344.747	226.117
346.737	225.091
348.739	224.069
350.752	223.052
352.777	222.039
354.813	221.029
356.862	220.025
358.922	219.024
360.994	218.028
363.078	217.036
365.174	216.049
367.282	215.066
369.403	214.087
371.535	213.113
373.68	212.143
375.837	211.178
378.007	210.217
380.189	209.261
382.384	208.303
384.592	207.351
386.812	206.402
389.045	205.458
391.291	204.519
393.55	203.584
395.822	202.654
398.107	201.728
400.405	200.807
402.717	199.891
405.042	198.979
407.38	198.071
409.732	197.168
412.098	196.27
414.477	195.376
416.869	194.487
419.276	193.602
421.697	192.721
424.131	191.845
426.58	190.974
429.042	190.107
431.519	189.244
434.01	188.385
436.516	187.531
439.036	186.681
441.57	185.835
444.12	184.994
446.684	184.156
449.262	183.323
451.856	182.493
454.465	181.667
457.088	180.845
459.727	180.027
462.381	179.212
465.05	178.401
467.735	177.593
470.435	176.789
473.151	175.987
475.883	175.189
478.63	174.393
481.393	173.601
484.172	172.811
486.968	172.025
489.779	171.242
492.606	170.462
495.45	169.685
498.31	168.911
501.187	168.14
504.081	167.373
506.991	166.608
509.918	165.847
512.861	165.089
515.822	164.335
518.8	163.583
521.795	162.835
524.807	162.09
527.837	161.349
530.884	160.61
533.949	159.875
537.032	159.143
540.132	158.414
543.25	157.689
546.387	156.967
549.541	156.248
552.713	155.532
555.904	154.819
559.114	154.11
562.341	153.403
565.588	152.7
568.853	152
572.137	151.302
575.44	150.606
578.762	149.913
582.103	149.224
585.464	148.537
588.844	147.854
592.243	147.174
595.662	146.497
599.101	145.823
602.56	145.152
606.038	144.485
609.537	143.82
613.056	143.159
616.595	142.502
620.155	141.847
623.735	141.196
627.336	140.548
630.957	139.903
634.6	139.262
638.263	138.623
641.948	137.989
645.654	137.357
649.382	136.729
653.131	136.104
656.901	135.482
660.693	134.863
664.508	134.248
668.344	133.635
672.202	133.026
676.083	132.421
679.986	131.818
683.912	131.218
687.86	130.622
691.831	130.028
695.825	129.438
699.842	128.85
703.882	128.266
707.946	127.684
712.033	127.105
716.143	126.529
720.278	125.956
724.436	125.385
728.618	124.817
732.825	124.252
737.055	123.688
741.31	123.128
745.59	122.569
749.894	122.013
754.223	121.459
758.578	120.907
762.957	120.361
767.361	119.817
771.792	119.276
776.247	118.737
780.728	118.2
785.236	117.665
789.769	117.132
794.328	116.601
798.914	116.072
803.526	115.545
808.165	115.021
812.831	114.499
817.523	113.978
822.243	113.46
826.99	112.945
831.764	112.431
836.566	111.92
841.395	111.411
846.253	110.904
851.138	110.4
856.052	109.898
860.994	109.398
865.964	108.901
870.964	108.406
875.992	107.913
881.049	107.422
886.135	106.934
891.251	106.448
896.396	105.965
901.571	105.484
906.776	105.005
912.011	104.528
917.276	104.054
922.571	103.582
927.897	103.113
933.254	102.646
938.642	102.181
944.061	101.718
949.511	101.258
954.993	100.798
960.506	100.341
966.051	99.8867
971.628	99.4341
977.237	98.9838
982.879	98.5358
988.553	98.09
994.26	97.6465
1000	97.2052
1005.77	96.7663
1011.58	96.3295
1017.42	95.8951
1023.29	95.4628
1029.2	95.0329
1035.14	94.6051
1041.12	94.1796
1047.13	93.7563
1053.17	93.3352
1059.25	92.9162
1065.37	92.4995
1071.52	92.0849
1077.71	91.6724
1083.93	91.262
1090.18	90.8537
1096.48	90.4475
1102.81	90.0433
1109.17	89.641
1115.58	89.2408
1122.02	88.8424
1128.5	88.446
1135.01	88.0513
1141.56	87.6585
1148.15	87.2674
1154.78	86.8781
1161.45	86.4905
1168.15	86.1047
1174.9	85.7208
1181.68	85.3386
1188.5	84.9583
1195.36	84.5797
1202.26	84.203
1209.21	83.8281
1216.19	83.455
1223.21	83.0838
1230.27	82.7143
1237.37	82.3467
1244.51	81.9809
1251.7	81.6169
1258.93	81.2547
1266.19	80.8943
1273.5	80.5356
1280.86	80.1788
1288.25	79.8237
1295.69	79.4704
1303.17	79.1188
1310.69	78.7689
1318.26	78.4208
1325.87	78.0743
1333.52	77.7295
1341.22	77.3863
1348.96	77.0448
1356.75	76.705
1364.58	76.3668
1372.46	76.0303
1380.38	75.6955
1388.35	75.3623
1396.37	75.0308
1404.43	74.7009
1412.54	74.3728
1420.69	74.0462
1428.89	73.7213
1437.14	73.3981
1445.44	73.0764
1453.78	72.7564
1462.18	72.438
1470.62	72.1212
1479.11	71.806
1487.65	71.4923
1496.24	71.1802
1504.87	70.8696
1513.56	70.5605
1522.3	70.2529
1531.09	69.9468
1539.93	69.6422
1548.82	69.339
1557.76	69.0373
1566.75	68.7371
1575.8	68.4384
1584.89	68.1412
1594.04	67.8455
1603.25	67.5513
1612.5	67.2585
1621.81	66.9672
1631.17	66.6775
1640.59	66.3891
1650.06	66.1023
1659.59	65.8169
1669.17	65.533
1678.8	65.2505
1688.5	64.9695
1698.24	64.6898
1708.05	64.4116
1717.91	64.1348
1727.83	63.8594
1737.8	63.5853
1747.83	63.3127
1757.92	63.0414
1768.07	62.7714
1778.28	62.5028
1788.55	62.2354
1798.87	61.9694
1809.26	61.7047
1819.7	61.4413
1830.21	61.1791
1840.77	60.9054
1851.4	60.6267
1862.09	60.3495
1872.84	60.0736
1883.65	59.799
1894.52	59.5257
1905.46	59.2534
1916.46	58.9821
1927.52	58.712
1938.65	58.4432
1949.84	58.1757
1961.1	57.9095
1972.42	57.6446
1983.81	57.381
1995.26	57.1187
2006.78	56.8578
2018.37	56.5982
2030.02	56.3399
2041.74	56.083
2053.53	55.8275
2065.38	55.5734
2077.3	55.3207
2089.3	55.0693
2101.36	54.8194
2113.49	54.5708
2125.69	54.3237
2137.96	54.078
2150.3	53.8337
2162.72	53.5909
2175.2	53.3495
2187.76	53.1095
2200.39	52.871
2213.09	52.6339
2225.87	52.3982
2238.72	52.164
2251.65	51.9313
2264.64	51.6999
2277.72	51.4701
2290.87	51.2416
2304.09	51.0147
2317.39	50.7891
2330.77	50.565
2344.23	50.3423
2357.76	50.1211
2371.37	49.9012
2385.06	49.6828
2398.83	49.4658
2412.68	49.2502
2426.61	49.036
2440.62	48.8231
2454.71	48.6116
2468.88	48.4014
2483.13	48.1926
2497.47	47.9851
2511.89	47.7789
2526.39	47.574
2540.97	47.3704
2555.64	47.168
2570.4	46.9669
2585.23	46.7669
2600.16	46.5681
2615.17	46.3705
2630.27	46.174
2645.45	45.9786
2660.73	45.7843
2676.09	45.591
2691.53	45.3987
2707.07	45.2074
2722.7	45.017
2738.42	44.8275
2754.23	44.6389
2770.13	44.4511
2786.12	44.2641
2802.21	44.0777
2818.38	43.8921
2834.65	43.7071
2851.02	43.523
2867.48	43.3448
2884.03	43.1672
2900.68	42.9902
2917.43	42.8137
2934.27	42.6379
2951.21	42.4627
2968.25	42.288
2985.38	42.114
3002.62	41.9406
3019.95	41.7679
3037.39	41.5958
3054.92	41.4243
3072.56	41.2536
3090.3	41.0834
3108.14	40.914
3126.08	40.7453
3144.13	40.5772
3162.28	40.4099
3180.53	40.2433
3198.9	40.0774
3217.36	39.9122
3235.94	39.7478
3254.62	39.5841
3273.41	39.4212
3292.3	39.259
3311.31	39.0976
3330.43	38.937
3349.65	38.7771
3368.99	38.618
3388.44	38.4598
3408	38.3023
3427.68	38.1457
3447.47	37.9898
3467.37	37.8348
3487.39	37.6806
3507.52	37.5272
3527.77	37.3747
3548.13	37.223
3568.62	37.0721
3589.22	36.9221
3609.94	36.773
3630.78	36.6247
3651.74	36.4773
3672.82	36.3307
3694.03	36.185
3715.35	36.0402
3736.8	35.8962
3758.37	35.7531
3780.07	35.6109
3801.89	35.4695
3823.84	35.3282
3845.92	35.1878
3868.12	35.0482
3890.45	34.9095
3912.91	34.7717
3935.5	34.6348
3958.22	34.4987
3981.07	34.3635
4004.05	34.2293
4027.17	34.0958
4050.42	33.9633
4073.8	33.8316
4097.32	33.7008
4120.98	33.5708
4144.77	33.4418
4168.69	33.3135
4192.76	33.1861
4216.97	33.0596
4241.31	32.9339
4265.8	32.8091
4290.42	32.685
4315.19	32.5618
4340.1	32.4394
4365.16	32.3178
4390.36	32.1969
4415.7	32.0769
4441.2	31.9576
4466.84	31.839
4492.62	31.7212
4518.56	31.6041
4544.65	31.4878
4570.88	31.3721
4597.27	31.2571
4623.81	31.1427
4650.5	31.029
4677.35	30.9159
4704.35	30.8034
4731.51	30.6915
4758.83	30.5801
4786.3	30.4692
4813.93	30.3588
4841.72	30.249
4869.68	30.1398
4897.79	30.031
4926.06	29.9229
4954.5	29.8152
4983.1	29.7082
5011.87	29.6017
5040.81	29.4957
5069.91	29.3903
5099.18	29.2855
5128.61	29.1812
5158.22	29.0775
5188	28.9744
5217.95	28.8718
5248.07	28.7698
5278.37	28.6683
5308.84	28.5674
5339.49	28.4671
5370.32	28.3673
5401.32	28.2681
5432.5	28.1695
5463.87	28.0714
5495.41	27.9738
5527.13	27.8768
5559.04	27.7804
5591.14	27.6844
5623.41	27.589
5655.88	27.4942
5688.53	27.3999
5721.37	27.3059
5754.4	27.2124
5787.62	27.1194
5821.03	27.027
5854.64	26.935
5888.44	26.8436
5922.43	26.7527
5956.62	26.6624
5991.01	26.5726
6025.6	26.4834
6060.38	26.3946
6095.37	26.3065
6130.56	26.2188
6165.95	26.1317
6201.55	26.0452
6237.35	25.9592
6273.36	25.8738
6309.57	25.7888
6346	25.7045
6382.63	25.6207
6419.48	25.5374
6456.54	25.4547
6493.82	25.3725
6531.31	25.2909
6569.01	25.2098
6606.93	25.1292
6645.08	25.0492
6683.44	24.9697
6722.02	24.8907
6760.83	24.8122
6799.86	24.7343
6839.12	24.6569
6878.6	24.58
6918.31	24.5035
6958.25	24.4276
6998.42	24.3522
7038.82	24.2772
7079.46	24.2028
7120.33	24.1287
7161.43	24.0552
7202.78	23.9821
7244.36	23.9094
7286.18	23.8372
7328.25	23.7654
7370.55	23.694
7413.1	23.6229
7455.9	23.5523
7498.94	23.482
7542.23	23.4121
7585.78	23.3425
7629.57	23.2737
7673.61	23.2055
7717.92	23.1376
7762.47	23.07
7807.28	23.0028
7852.36	22.9358
7897.69	22.8693
7943.28	22.803
7989.14	22.7372
8035.26	22.6716
8081.65	22.6064
8128.31	22.5416
8175.23	22.4771
8222.43	22.413
8269.9	22.3492
8317.64	22.2858
8365.66	22.2227
8413.95	22.16
8462.53	22.0977
8511.38	22.0357
8560.52	21.9742
8609.94	21.9129
8659.64	21.8521
8709.64	21.7916
8759.92	21.7315
8810.49	21.6717
8861.35	21.6123
8912.51	21.5533
8963.96	21.4947
9015.71	21.4364
9067.76	21.3785
9120.11	21.321
9172.76	21.2638
9225.71	21.207
9278.97	21.1506
9332.54	21.0945
9386.42	21.0388
9440.61	20.9835
9495.11	20.9285
9549.93	20.8737
9605.06	20.8193
9660.51	20.7652
9716.28	20.7114
9772.37	20.658
9828.79	20.605
9885.53	20.5523
9942.6	20.5
10000	20.448
10057.7	20.3964
10115.8	20.3452
10174.2	20.2943
10232.9	20.2437
10292	20.1935
10351.4	20.1436
10411.2	20.0941
10471.3	20.0449
10531.7	19.9961
10592.5	19.9476
10653.7	19.8994
10715.2	19.8516
10777.1	19.8041
10839.3	19.7569
10901.8	19.7101
10964.8	19.6635
11028.1	19.6173
11091.7	19.5714
11155.8	19.5258
11220.2	19.4805
11285	19.4354
11350.1	19.3907
11415.6	19.3462
11481.5	19.302
11547.8	19.2581
11614.5	19.2144
11681.5	19.1711
11749	19.128
11816.8	19.0851
11885	19.0426
11953.6	19.0003
12022.6	18.9583
12092.1	18.9166
12161.9	18.8751
12232.1	18.834
12302.7	18.7931
12373.7	18.7525
12445.1	18.7121
12517	18.6721
12589.3	18.6323
12661.9	18.5927
12735	18.5535
12808.6	18.5145
12882.5	18.4758
12956.9	18.4373
13031.7	18.3991
13106.9	18.3612
13182.6	18.3235
13258.7	18.2861
13335.2	18.2489
13412.2	18.212
13489.6	18.1753
13567.5	18.1389
13645.8	18.1027
13724.6	18.0668
13803.8	18.0312
13883.5	17.9957
13963.7	17.9606
14044.3	17.9256
14125.4	17.891
14206.9	17.8566
14288.9	17.8224
14371.4	17.7885
14454.4	17.7548
14537.8	17.7214
14621.8	17.6882
14706.2	17.6552
14791.1	17.6225
14876.5	17.5901
14962.4	17.5578
15048.7	17.5259
15135.6	17.4941
15223	17.4626
15310.9	17.4313
15399.3	17.4002
15488.2	17.3694
15577.6	17.3388
15667.5	17.3084
15758	17.2782
15848.9	17.2483
15940.4	17.2186
16032.5	17.1891
16125	17.1598
16218.1	17.1307
16311.7	17.1019
16405.9	17.0733
16500.6	17.0449
16595.9	17.0167
16691.7	16.9887
16788	16.961
16885	16.9334
16982.4	16.9061
17080.5	16.8789
17179.1	16.8519
17278.3	16.8252
17378	16.7986
17478.3	16.7722
17579.2	16.746
17680.7	16.7199
17782.8	16.6941
17885.5	16.6684
17988.7	16.6428
18092.6	16.6174
18197	16.5922
18302.1	16.5671
18407.7	16.5422
18514	16.5173
18620.9	16.4926
18728.4	16.4681
18836.5	16.4436
18945.2	16.4192
19054.6	16.3943
19164.6	16.3691
19275.2	16.344
19386.5	16.3191
19498.4	16.2944
19611	16.2699
19724.2	16.2456
19838.1	16.2214
19952.6	16.1974
20067.8	16.1736
20183.7	16.15
20300.2	16.1266
20417.4	16.1033
20535.3	16.0802
20653.8	16.0573
20773	16.0346
20893	16.012
21013.6	15.9896
21134.9	15.9674
21256.9	15.9453
21379.6	15.9235
21503	15.9017
21627.2	15.8802
21752	15.8588
21877.6	15.8376
22003.9	15.8165
22130.9	15.7956
22258.7	15.7749
22387.2	15.7543
22516.5	15.7339
22646.4	15.7137
22777.2	15.6936
22908.7	15.6737
23040.9	15.6539
23173.9	15.6343
23307.7	15.6148
23442.3	15.5955
23577.6	15.5763
23713.7	15.5573
23850.6	15.5385
23988.3	15.5198
24126.8	15.5012
24266.1	15.4828
24406.2	15.4645
24547.1	15.4464
24688.8	15.4285
24831.3	15.4106
24974.7	15.393
25118.9	15.3754
25263.9	15.358
25409.7	15.3408
25556.4	15.3237
25704	15.3067
25852.3	15.2899
26001.6	15.2732
26151.7	15.2566
26302.7	15.2402
26454.5	15.224
26607.3	15.2078
26760.9	15.1918
26915.3	15.1759
27070.7	15.1602
27227	15.1446
27384.2	15.1291
27542.3	15.1138
27701.3	15.0985
27861.2	15.0835
28022.1	15.0685
28183.8	15.0537
28346.5	15.039
28510.2	15.0244
28674.8	15.0099
28840.3	14.9956
29006.8	14.9814
29174.3	14.9673
29342.7	14.9533
29512.1	14.9395
29682.5	14.9258
29853.8	14.9122
30026.2	14.8987
30199.5	14.8853
30373.9	14.8721
30549.2	14.859
30725.6	14.8459
30903	14.8331
31081.4	14.8203
31260.8	14.8076
31441.3	14.7951
31622.8	14.7826
31805.3	14.7703
31989	14.7581
32173.6	14.746
32359.4	14.734
32546.2	14.7221
32734.1	14.7103
32923	14.6986
33113.1	14.6871
33304.3	14.6756
33496.5	14.6642
33689.9	14.653
33884.4	14.6419
34080	14.6308
34276.8	14.6199
34474.7	14.609
34673.7	14.5983
34873.9	14.5877
35075.2	14.5772
35277.7	14.5667
35481.3	14.5564
35686.2	14.5462
35892.2	14.536
36099.4	14.526
36307.8	14.516
36517.4	14.5062
36728.2	14.4965
36940.3	14.4868
37153.5	14.4772
37368	14.4678
37583.7	14.4584
37800.7	14.4491
38018.9	14.4399
38238.4	14.4308
38459.2	14.4218
38681.2	14.4129
38904.5	14.4041
39129.1	14.3953
39355	14.3867
39582.2	14.3781
39810.7	14.3696
40040.5	14.3612
40271.7	14.3529
40504.2	14.3447
40738	14.3366
40973.2	14.3285
41209.8	14.3205
41447.7	14.3126
41686.9	14.3048
41927.6	14.2971
42169.7	14.2895
42413.1	14.2819
42658	14.2744
42904.2	14.267
43151.9	14.2597
43401	14.2524
43651.6	14.2453
43903.6	14.2382
44157	14.2312
44412	14.2242
44668.4	14.2174
44926.2	14.2106
45185.6	14.2038
45446.5	14.1972
45708.8	14.1906
45972.7	14.1841
46238.1	14.1777
46505	14.1714
46773.5	14.1651
47043.5	14.1589
47315.1	14.1527
47588.3	14.1467
47863	14.1407
48139.3	14.1347
48417.2	14.1289
48696.8	14.1231
48977.9	14.1173
49260.6	14.1117
49545	14.1061
49831	14.1006
50118.7	14.0951
50408.1	14.0897
50699.1	14.0844
50991.8	14.0791
51286.1	14.0739
51582.2	14.0687
51880	14.0636
52179.5	14.0586
52480.7	14.0537
52783.7	14.0488
53088.4	14.0439
53394.9	14.0391
53703.2	14.0344
54013.2	14.0298
54325	14.0252
54638.7	14.0206
54954.1	14.0161
55271.3	14.0117
55590.4	14.0073
55911.4	14.003
56234.1	13.9987
56558.8	13.9945
56885.3	13.9904
57213.7	13.9863
57544	13.9822
57876.2	13.9783
58210.3	13.9743
58546.4	13.9704
58884.4	13.9666
59224.3	13.9628
59566.2	13.9591
59910.1	13.9554
60256	13.9518
60603.8	13.9482
60953.7	13.9447
61305.6	13.9412
61659.5	13.9378
62015.5	13.9344
62373.5	13.9311
62733.6	13.9278
63095.7	13.9246
63460	13.9214
63826.3	13.9182
64194.8	13.9151
64565.4	13.9121
64938.2	13.9091
65313.1	13.9061
65690.1	13.9032
66069.3	13.9003
66450.8	13.8975
66834.4	13.8947
67220.2	13.892
67608.3	13.8893
67998.6	13.8866
68391.2	13.884
68786	13.8815
69183.1	13.8789
69582.5	13.8764
69984.2	13.874
70388.2	13.8716
70794.6	13.8692
71203.3	13.8669
71614.3	13.8646
72027.8	13.8624
72443.6	13.8601
72861.8	13.858
73282.5	13.8558
73705.5	13.8537
74131	13.8517
74559	13.8496
74989.4	13.8476
75422.3	13.8457
75857.8	13.8438
76295.7	13.8419
76736.1	13.84
77179.2	13.8382
77624.7	13.8365
78072.8	13.8347
78523.6	13.833
78976.9	13.8313
79432.8	13.8297
79891.4	13.8281
80352.6	13.8265
80816.5	13.8249
81283.1	13.8234
81752.3	13.8219
82224.3	13.8205
82699	13.8191
83176.4	13.8177
83656.6	13.8163
84139.5	13.815
84625.3	13.8137
85113.8	13.8124
85605.2	13.8112
86099.4	13.81
86596.4	13.8088
87096.4	13.8076
87599.2	13.8065
88104.9	13.8054
88613.5	13.8043
89125.1	13.8033
89639.6	13.8022
90157.1	13.8012
90677.6	13.8003
91201.1	13.7993
91727.6	13.7984
92257.1	13.7975
92789.7	13.7967
93325.4	13.7958
93864.2	13.795
94406.1	13.7942
94951.1	13.7934
95499.3	13.7927
96050.6	13.792
96605.1	13.7913
97162.8	13.7906
97723.7	13.79
98287.9	13.7893
98855.3	13.7887
99426	13.7881
100000	13.7876
100577	13.787
101158	13.7865
101742	13.786
102329	13.7855
102920	13.7851
103514	13.7847
104112	13.7842
104713	13.7838
105317	13.7835
105925	13.7831
106537	13.7828
107152	13.7824
107771	13.7821
108393	13.7819
109018	13.7816
109648	13.7814
110281	13.7811
110917	13.7809
111558	13.7807
112202	13.7805
112850	13.7804
113501	13.7802
114156	13.7801
114815	13.78
115478	13.7799
116145	13.7798
116815	13.7798
117490	13.7797
118168	13.7797
118850	13.7797
119536	13.7797
120226	13.7797
120921	13.7797
121619	13.7798
122321	13.7798
123027	13.7799
123737	13.78
124451	13.7801
125170	13.7802
125893	13.7803
126619	13.7805
127350	13.7806
128086	13.7808
128825	13.781
129569	13.7812
130317	13.7814
131069	13.7816
131826	13.7818
132587	13.782
133352	13.7823
134122	13.7825
134896	13.7828
135675	13.7831
136458	13.7834
137246	13.7837
138038	13.784
138835	13.7843
139637	13.7847
140443	13.785
141254	13.7854
142069	13.7857
142889	13.7861
143714	13.7865
144544	13.7869
145378	13.7873
146218	13.7877
147062	13.7881
147911	13.7885
148765	13.789
149624	13.7894
150487	13.7899
151356	13.7903
152230	13.7908
153109	13.7913
153993	13.7918
154882	13.7923
155776	13.7928
156675	13.7933
157580	13.7938
158489	13.7943
159404	13.7948
160325	13.7954
161250	13.7959
162181	13.7964
163117	13.797
164059	13.7976
165006	13.7981
165959	13.7987
166917	13.7993
167880	13.7999
168850	13.8005
169824	13.801
170805	13.8016
171791	13.8023
172783	13.8029
173780	13.8035
174783	13.8041
175792	13.8047
176807	13.8054
177828	13.806
178855	13.8066
179887	13.8073
180926	13.8079
181970	13.8086
183021	13.8092
184077	13.8099
185140	13.8106
186209	13.8112
187284	13.8119
188365	13.8126
189452	13.8132
190546	13.8139
191646	13.8146
192752	13.8153
193865	13.816
194984	13.8167
196110	13.8174
197242	13.8181
198381	13.8188
199526	13.8195
200678	13.8202
201837	13.8209
203002	13.8216
204174	13.8223
205353	13.823
206538	13.8238
207730	13.8245
208930	13.8252
210136	13.8259
211349	13.8267
212569	13.8274
213796	13.8281
215030	13.8288
216272	13.8296
217520	13.8303
218776	13.831
220039	13.8318
221309	13.8325
222587	13.8333
223872	13.834
225165	13.8347
226464	13.8355
227772	13.8362
229087	13.837
230409	13.8377
231739	13.8384
233077	13.8392
234423	13.8399
235776	13.8407
237137	13.8414
238506	13.8422
239883	13.8429
241268	13.8437
242661	13.8444
244062	13.8451
245471	13.8459
246888	13.8466
248313	13.8474
249747	13.8481
251189	13.8489
252639	13.8496
254097	13.8504
255564	13.8511
257040	13.8518
258523	13.8526
260016	13.8533
261517	13.8541
263027	13.8548
264545	13.8555
266073	13.8563
267609	13.857
269153	13.8578
270707	13.8585
272270	13.8592
273842	13.86
275423	13.8607
277013	13.8614
278612	13.8621
280221	13.8629
281838	13.8636
283465	13.8643
285102	13.8651
286748	13.8658
288403	13.8665
290068	13.8672
291743	13.8679
293427	13.8686
295121	13.8694
296825	13.8701
298538	13.8708
300262	13.8715
301995	13.8722
303739	13.8729
305492	13.8736
307256	13.8743
309030	13.875
310814	13.8757
312608	13.8764
314413	13.8771
316228	13.8778
318053	13.8785
319890	13.8792
321736	13.8799
323594	13.8805
325462	13.8812
327341	13.8819
329230	13.8826
331131	13.8832
333043	13.8839
334965	13.8846
336899	13.8853
338844	13.8859
340800	13.8866
342768	13.8872
344747	13.8879
346737	13.8885
348739	13.8892
350752	13.8898
352777	13.8905
354813	13.8911
356862	13.8918
358922	13.8924
360994	13.893
363078	13.8937
365174	13.8943
367282	13.8949
369403	13.8956
371535	13.8962
373680	13.8968
375837	13.8974
378007	13.898
380189	13.8986
382384	13.8992
384592	13.8998
386812	13.9004
389045	13.901
391291	13.9016
393550	13.9022
395822	13.9028
398107	13.9034
400405	13.904
402717	13.9046
405042	13.9051
407380	13.9057
409732	13.9063
412098	13.9068
414477	13.9074
416869	13.908
419276	13.9085
421697	13.9091
424131	13.9096
426580	13.9102
429042	13.9107
431519	13.9113
434010	13.9118
436516	13.9123
439036	13.9129
441570	13.9134
444120	13.9139
446684	13.9144
449262	13.915
451856	13.9155
454465	13.916
457088	13.9165
459727	13.917
462381	13.9175
465050	13.918
467735	13.9185
470435	13.919
473151	13.9195
475883	13.92
478630	13.9205
481393	13.9209
484172	13.9214
486968	13.9219
489779	13.9223
492606	13.9228
495450	13.9233
498310	13.9237
501187	13.9242
504081	13.9246
506991	13.9251
509918	13.9255
512861	13.926
515822	13.9264
518800	13.9268
521795	13.9273
524807	13.9277
527837	13.9281
530884	13.9285
533949	13.929
537032	13.9294
540132	13.9298
543250	13.9302
546387	13.9306
549541	13.931
552713	13.9314
555904	13.9318
559114	13.9322
562341	13.9326
565588	13.933
568853	13.9333
572137	13.9337
575440	13.9341
578762	13.9345
582103	13.9348
585464	13.9352
588844	13.9356
592243	13.9359
595662	13.9363
599101	13.9366
602560	13.937
606038	13.9373
609537	13.9376
613056	13.938
616595	13.9383
620155	13.9386
623735	13.939
627336	13.9393
630957	13.9396
634600	13.9399
638263	13.9403
641948	13.9406
645654	13.9409
649382	13.9412
653131	13.9415
656901	13.9418
660693	13.9421
664508	13.9424
668344	13.9427
672202	13.9429
676083	13.9432
679986	13.9435
683912	13.9438
687860	13.944
691831	13.9443
695825	13.9446
699842	13.9448
703882	13.9451
707946	13.9454
712033	13.9456
716143	13.9459
720278	13.9461
724436	13.9464
728618	13.9466
732825	13.9468
737055	13.9471
741310	13.9473
745590	13.9475
749894	13.9478
754223	13.948
758578	13.9482
762957	13.9484
767361	13.9486
771792	13.9489
776247	13.9491
780728	13.9493
785236	13.9495
789769	13.9497
794328	13.9499
798914	13.9501
803526	13.9503
808165	13.9505
812831	13.9506
817523	13.9508
822243	13.951
826990	13.9512
831764	13.9514
836566	13.9515
841395	13.9517
846253	13.9519
851138	13.952
856052	13.9522
860994	13.9524
865964	13.9525
870964	13.9527
875992	13.9528
881049	13.953
886135	13.9531
891251	13.9533
896396	13.9534
901571	13.9535
906776	13.9537
912011	13.9538
917276	13.9539
922571	13.9541
927897	13.9542
933254	13.9543
938642	13.9544
944061	13.9546
949511	13.9547
954993	13.9548
960506	13.9549
966051	13.955
971628	13.9551
977237	13.9552
982879	13.9553
988553	13.9554
994260	13.9555
1e+06	13.9556
1.00577e+06	13.9557
1.01158e+06	13.9558
1.01742e+06	13.9559
1.02329e+06	13.956
1.0292e+06	13.9561
1.03514e+06	13.9562
1.04112e+06	13.9562
1.04713e+06	13.9563
1.05317e+06	13.9564
1.05925e+06	13.9565
1.06537e+06	13.9565
1.07152e+06	13.9566
1.07771e+06	13.9567
1.08393e+06	13.9568
1.09018e+06	13.9568
1.09648e+06	13.9569
1.10281e+06	13.9569
1.10917e+06	13.957
1.11558e+06	13.9571
1.12202e+06	13.9571
1.1285e+06	13.9572
1.13501e+06	13.9572
1.14156e+06	13.9573
1.14815e+06	13.9573
1.15478e+06	13.9574
1.16145e+06	13.9574
1.16815e+06	13.9575
1.1749e+06	13.9575
1.18168e+06	13.9575
1.1885e+06	13.9576
1.19536e+06	13.9576
1.20226e+06	13.9576
1.20921e+06	13.9577
1.21619e+06	13.9577
1.22321e+06	13.9577
1.23027e+06	13.9578
1.23737e+06	13.9578
1.24451e+06	13.9578
1.2517e+06	13.9579
1.25893e+06	13.9579
1.26619e+06	13.9579
1.2735e+06	13.9579
1.28086e+06	13.9579
1.28825e+06	13.958
1.29569e+06	13.958
1.30317e+06	13.958
1.31069e+06	13.958
1.31826e+06	13.958
1.32587e+06	13.958
1.33352e+06	13.958
1.34122e+06	13.958
1.34896e+06	13.958
1.35675e+06	13.9581
1.36458e+06	13.9581
1.37246e+06	13.9581
1.38038e+06	13.9581
1.38835e+06	13.9581
1.39637e+06	13.9581
1.40443e+06	13.9581
1.41254e+06	13.9581
1.42069e+06	13.9581
1.42889e+06	13.9581
1.43714e+06	13.9581
1.44544e+06	13.9581
1.45378e+06	13.958
1.46218e+06	13.958
1.47062e+06	13.958
1.47911e+06	13.958
1.48765e+06	13.958
1.49624e+06	13.958
1.50487e+06	13.958
1.51356e+06	13.958
1.5223e+06	13.958
1.53109e+06	13.958
1.53993e+06	13.9579
1.54882e+06	13.9579
1.55776e+06	13.9579
1.56675e+06	13.9579
1.5758e+06	13.9579
1.58489e+06	13.9579
1.59404e+06	13.9578
1.60325e+06	13.9578
1.6125e+06	13.9578
1.62181e+06	13.9578
1.63117e+06	13.9578
1.64059e+06	13.9577
1.65006e+06	13.9577
1.65959e+06	13.9577
1.66917e+06	13.9577
1.6788e+06	13.9577
1.6885e+06	13.9576
1.69824e+06	13.9576
1.70805e+06	13.9576
1.71791e+06	13.9576
1.72783e+06	13.9576
1.7378e+06	13.9575
1.74783e+06	13.9575
1.75792e+06	13.9575
1.76807e+06	13.9575
1.77828e+06	13.9574
1.78855e+06	13.9574
1.79887e+06	13.9574
1.80926e+06	13.9574
1.8197e+06	13.9573
1.83021e+06	13.9573
1.84077e+06	13.9573
1.8514e+06	13.9573
1.86209e+06	13.9573
1.87284e+06	13.9572
1.88365e+06	13.9572
1.89452e+06	13.9572
1.90546e+06	13.9572
1.91646e+06	13.9571
1.92752e+06	13.9571
1.93865e+06	13.9571
1.94984e+06	13.9571
1.9611e+06	13.9571
1.97242e+06	13.957
1.98381e+06	13.957
1.99526e+06	13.957
2.00678e+06	13.957
2.01837e+06	13.9569
2.03002e+06	13.9569
2.04174e+06	13.9569
2.05353e+06	13.9569
2.06538e+06	13.9569
2.0773e+06	13.9568
2.0893e+06	13.9568
2.10136e+06	13.9568
2.11349e+06	13.9568
2.12569e+06	13.9568
2.13796e+06	13.9567
2.1503e+06	13.9567
2.16272e+06	13.9567
2.1752e+06	13.9567
2.18776e+06	13.9567
2.20039e+06	13.9567
2.21309e+06	13.9566
2.22587e+06	13.9566
2.23872e+06	13.9566
2.25165e+06	13.9566
2.26464e+06	13.9566
2.27772e+06	13.9566
2.29087e+06	13.9565
2.30409e+06	13.9565
2.31739e+06	13.9565
2.33077e+06	13.9565
2.34423e+06	13.9565
2.35776e+06	13.9565
2.37137e+06	13.9564
2.38506e+06	13.9564
2.39883e+06	13.9564
2.41268e+06	13.9564
2.42661e+06	13.9564
2.44062e+06	13.9564
2.45471e+06	13.9563
2.46888e+06	13.9563
2.48313e+06	13.9563
2.49747e+06	13.9563
2.51189e+06	13.9563
2.52639e+06	13.9563
2.54097e+06	13.9563
2.55564e+06	13.9562
2.5704e+06	13.9562
2.58523e+06	13.9562
2.60016e+06	13.9562
2.61517e+06	13.9562
2.63027e+06	13.9562
2.64545e+06	13.9562
2.66073e+06	13.9561
2.67609e+06	13.9561
2.69153e+06	13.9561
2.70707e+06	13.9561
2.7227e+06	13.9561
2.73842e+06	13.9561
2.75423e+06	13.9561
2.77013e+06	13.956
2.78612e+06	13.956
2.80221e+06	13.956
2.81838e+06	13.956
2.83465e+06	13.956
2.85102e+06	13.956
2.86748e+06	13.956
2.88403e+06	13.956
2.90068e+06	13.956
2.91743e+06	13.9559
2.93427e+06	13.9559
2.95121e+06	13.9559
2.96825e+06	13.9559
2.98538e+06	13.9559
3.00262e+06	13.9559
3.01995e+06	13.9559
3.03739e+06	13.9559
3.05492e+06	13.9559
3.07256e+06	13.9558
3.0903e+06	13.9558
3.10814e+06	13.9558
3.12608e+06	13.9558
3.14413e+06	13.9558
3.16228e+06	13.9558
3.18053e+06	13.9558
3.1989e+06	13.9558
3.21736e+06	13.9558
3.23594e+06	13.9557
3.25462e+06	13.9557
3.27341e+06	13.9557
3.2923e+06	13.9557
3.31131e+06	13.9557
3.33043e+06	13.9557
3.34965e+06	13.9557
3.36899e+06	13.9557
3.38844e+06	13.9557
3.408e+06	13.9557
3.42768e+06	13.9556
3.44747e+06	13.9556
3.46737e+06	13.9556
3.48739e+06	13.9556
3.50752e+06	13.9556
3.52777e+06	13.9556
3.54813e+06	13.9556
3.56862e+06	13.9556
3.58922e+06	13.9556
3.60994e+06	13.9556
3.63078e+06	13.9556
3.65174e+06	13.9556
3.67282e+06	13.9555
3.69403e+06	13.9555
3.71535e+06	13.9555
3.7368e+06	13.9555
3.75837e+06	13.9555
3.78007e+06	13.9555
3.80189e+06	13.9555
3.82384e+06	13.9555
3.84592e+06	13.9555
3.86812e+06	13.9555
3.89045e+06	13.9555
3.91291e+06	13.9555
3.9355e+06	13.9555
3.95822e+06	13.9554
3.98107e+06	13.9554
4.00405e+06	13.9554
4.02717e+06	13.9554
4.05042e+06	13.9554
4.0738e+06	13.9554
4.09732e+06	13.9554
4.12098e+06	13.9554
4.14477e+06	13.9554
4.16869e+06	13.9554
4.19276e+06	13.9554
4.21697e+06	13.9554
4.24131e+06	13.9554
4.2658e+06	13.9554
4.29042e+06	13.9553
4.31519e+06	13.9553
4.3401e+06	13.9553
4.36516e+06	13.9553
4.39036e+06	13.9553
4.4157e+06	13.9553
4.4412e+06	13.9553
4.46684e+06	13.9553
4.49262e+06	13.9553
4.51856e+06	13.9553
4.54465e+06	13.9553
4.57088e+06	13.9553
4.59727e+06	13.9553
4.62381e+06	13.9553
4.6505e+06	13.9553
4.67735e+06	13.9553
4.70435e+06	13.9552
4.73151e+06	13.9552
4.75883e+06	13.9552
4.7863e+06	13.9552
4.81393e+06	13.9552
4.84172e+06	13.9552
4.86968e+06	13.9552
4.89779e+06	13.9552
4.92606e+06	13.9552
4.9545e+06	13.9552
4.9831e+06	13.9552
5.01187e+06	13.9552
5.04081e+06	13.9552
5.06991e+06	13.9552
5.09918e+06	13.9552
5.12861e+06	13.9552
5.15822e+06	13.9552
5.188e+06	13.9552
5.21795e+06	13.9551
5.24807e+06	13.9551
5.27837e+06	13.9551
5.30884e+06	13.9551
5.33949e+06	13.9551
5.37032e+06	13.9551
5.40132e+06	13.9551
5.4325e+06	13.9551
5.46387e+06	13.9551
5.49541e+06	13.9551
5.52713e+06	13.9551
5.55904e+06	13.9551
5.59114e+06	13.9551
5.62341e+06	13.9551
5.65588e+06	13.9551
5.68853e+06	13.9551
5.72137e+06	13.9551
5.7544e+06	13.9551
5.78762e+06	13.9551
5.82103e+06	13.9551
5.85464e+06	13.9551
5.88844e+06	13.955
5.92243e+06	13.955
5.95662e+06	13.955
5.99101e+06	13.955
6.0256e+06	13.955
6.06038e+06	13.955
6.09537e+06	13.955
6.13056e+06	13.955
6.16595e+06	13.955
6.20155e+06	13.955
6.23735e+06	13.955
6.27336e+06	13.955
6.30957e+06	13.955
6.346e+06	13.955
6.38263e+06	13.955
6.41948e+06	13.955
6.45654e+06	13.955
6.49382e+06	13.955
6.53131e+06	13.955
6.56901e+06	13.955
6.60693e+06	13.955
6.64508e+06	13.955
6.68344e+06	13.955
6.72202e+06	13.955
6.76083e+06	13.955
6.79986e+06	13.955
6.83912e+06	13.9549
6.8786e+06	13.9549
6.91831e+06	13.9549
6.95825e+06	13.9549
6.99842e+06	13.9549
7.03882e+06	13.9549
7.07946e+06	13.9549
7.12033e+06	13.9549
7.16143e+06	13.9549
7.20278e+06	13.9549
7.24436e+06	13.9549
7.28618e+06	13.9549
7.32825e+06	13.9549
7.37055e+06	13.9549
7.4131e+06	13.9549
7.4559e+06	13.9549
7.49894e+06	13.9549
7.54223e+06	13.9549
7.58578e+06	13.9549
7.62957e+06	13.9549
7.67361e+06	13.9549
7.71792e+06	13.9549
7.76247e+06	13.9549
7.80728e+06	13.9549
7.85236e+06	13.9549
7.89769e+06	13.9549
7.94328e+06	13.9549
7.98914e+06	13.9549
8.03526e+06	13.9549
8.08165e+06	13.9549
8.12831e+06	13.9549
8.17523e+06	13.9548
8.22243e+06	13.9548
8.2699e+06	13.9548
8.31764e+06	13.9548
8.36566e+06	13.9548
8.41395e+06	13.9548
8.46253e+06	13.9548
8.51138e+06	13.9548
8.56052e+06	13.9548
8.60994e+06	13.9548
8.65964e+06	13.9548
8.70964e+06	13.9548
8.75992e+06	13.9548
8.81049e+06	13.9548
8.86135e+06	13.9548
8.91251e+06	13.9548
8.96396e+06	13.9548
9.01571e+06	13.9548
9.06776e+06	13.9548
9.12011e+06	13.9548
9.17276e+06	13.9548
9.22571e+06	13.9548
9.27897e+06	13.9548
9.33254e+06	13.9548
9.38642e+06	13.9548
9.44061e+06	13.9548
9.49511e+06	13.9548
9.54993e+06	13.9548
9.60506e+06	13.9548
9.66051e+06	13.9548
9.71628e+06	13.9548
9.77237e+06	13.9548
9.82879e+06	13.9548
9.88553e+06	13.9548
9.9426e+06	13.9548
1e+07	13.9548
