Stopping power dEdx from Ionisation for F19[0.0] Z = 9 in G4_Si, process name: ionIoni
E [MeV]	dEdx [MeV/mm]
0.001	31.8219
0.00100577	31.9144
0.00101158	32.0071
0.00101742	32.1001
0.00102329	32.1934
0.0010292	32.2869
0.00103514	32.3807
0.00104112	32.4748
0.00104713	32.5691
0.00105317	32.6637
0.00105925	32.7586
0.00106537	32.8538
0.00107152	32.9492
0.00107771	33.0449
0.00108393	33.1409
0.00109018	33.2372
0.00109648	33.3337
0.00110281	33.4306
0.00110917	33.5277
0.00111558	33.625
0.00112202	33.7227
0.0011285	33.8206
0.00113501	33.9189
0.00114156	34.0174
0.00114815	34.1162
0.00115478	34.2153
0.00116145	34.3146
0.00116815	34.4143
0.0011749	34.5142
0.00118168	34.6144
0.0011885	34.7149
0.00119536	34.8157
0.00120226	34.9168
0.00120921	35.0182
0.00121619	35.1199
0.00122321	35.2219
0.00123027	35.3241
0.00123737	35.4267
0.00124451	35.5295
0.0012517	35.6327
0.00125893	35.7361
0.00126619	35.8399
0.0012735	35.9439
0.00128086	36.0483
0.00128825	36.1529
0.00129569	36.2579
0.00130317	36.3631
0.00131069	36.4687
0.00131826	36.5745
0.00132587	36.6807
0.00133352	36.7872
0.00134122	36.8939
0.00134896	37.001
0.00135675	37.1084
0.00136458	37.2161
0.00137246	37.3241
0.00138038	37.4325
0.00138835	37.5411
0.00139637	37.65
0.00140443	37.7593
0.00141254	37.8689
0.00142069	37.9788
0.00142889	38.089
0.00143714	38.1995
0.00144544	38.3104
0.00145378	38.4215
0.00146218	38.533
0.00147062	38.6448
0.00147911	38.757
0.00148765	38.8694
0.00149624	38.9822
0.00150487	39.0953
0.00151356	39.2087
0.0015223	39.3225
0.00153109	39.4366
0.00153993	39.551
0.00154882	39.6657
0.00155776	39.7808
0.00156675	39.8962
0.0015758	40.0119
0.00158489	40.128
0.00159404	40.2444
0.00160325	40.3612
0.0016125	40.4782
0.00162181	40.5956
0.00163117	40.7134
0.00164059	40.8315
0.00165006	40.9499
0.00165959	41.0687
0.00166917	41.1878
0.0016788	41.3073
0.0016885	41.4271
0.00169824	41.5472
0.00170805	41.6677
0.00171791	41.7886
0.00172783	41.9098
0.0017378	42.0313
0.00174783	42.1532
0.00175792	42.2754
0.00176807	42.398
0.00177828	42.521
0.00178855	42.6443
0.00179887	42.7679
0.00180926	42.892
0.0018197	43.0163
0.00183021	43.1411
0.00184077	43.2662
0.0018514	43.3916
0.00186209	43.5174
0.00187284	43.6436
0.00188365	43.7701
0.00189452	43.897
0.00190546	44.0243
0.00191646	44.1519
0.00192752	44.2799
0.00193865	44.4083
0.00194984	44.5371
0.0019611	44.6662
0.00197242	44.7957
0.00198381	44.9255
0.00199526	45.0558
0.00200678	45.1864
0.00201837	45.3173
0.00203002	45.4487
0.00204174	45.5805
0.00205353	45.7126
0.00206538	45.8451
0.0020773	45.978
0.0020893	46.1112
0.00210136	46.2449
0.00211349	46.3789
0.00212569	46.5133
0.00213796	46.6481
0.0021503	46.7833
0.00216272	46.9189
0.0021752	47.0549
0.00218776	47.1913
0.00220039	47.3281
0.00221309	47.4652
0.00222587	47.6028
0.00223872	47.7407
0.00225165	47.8791
0.00226464	48.0178
0.00227772	48.157
0.00229087	48.2965
0.00230409	48.4365
0.00231739	48.5768
0.00233077	48.7176
0.00234423	48.8587
0.00235776	49.0003
0.00237137	49.1423
0.00238506	49.2847
0.00239883	49.4275
0.00241268	49.5707
0.00242661	49.7143
0.00244062	49.8583
0.00245471	50.0028
0.00246888	50.1477
0.00248313	50.2929
0.00249747	50.4387
0.00251189	50.5848
0.00252639	50.7313
0.00254097	50.8783
0.00255564	51.0257
0.0025704	51.1735
0.00258523	51.3217
0.00260016	51.4704
0.00261517	51.6195
0.00263027	51.769
0.00264545	51.919
0.00266073	52.0694
0.00267609	52.2202
0.00269153	52.3715
0.00270707	52.5232
0.0027227	52.6753
0.00273842	52.8279
0.00275423	52.9809
0.00277013	53.1343
0.00278612	53.2882
0.00280221	53.4426
0.00281838	53.5974
0.00283465	53.7526
0.00285102	53.9083
0.00286748	54.0644
0.00288403	54.221
0.00290068	54.378
0.00291743	54.5355
0.00293427	54.6934
0.00295121	54.8518
0.00296825	55.0106
0.00298538	55.1699
0.00300262	55.3297
0.00301995	55.4899
0.00303739	55.6506
0.00305492	55.8118
0.00307256	55.9734
0.0030903	56.1354
0.00310814	56.298
0.00312608	56.461
0.00314413	56.6245
0.00316228	56.7884
0.00318053	56.9529
0.0031989	57.1178
0.00321736	57.2831
0.00323594	57.449
0.00325462	57.6153
0.00327341	57.7821
0.0032923	57.9494
0.00331131	58.1172
0.00333043	58.2855
0.00334965	58.4542
0.00336899	58.6234
0.00338844	58.7932
0.003408	58.9634
0.00342768	59.1341
0.00344747	59.3052
0.00346737	59.4769
0.00348739	59.6491
0.00350752	59.8218
0.00352777	59.9949
0.00354813	60.1686
0.00356862	60.3428
0.00358922	60.5175
0.00360994	60.6926
0.00363078	60.8683
0.00365174	61.0445
0.00367282	61.2212
0.00369403	61.3984
0.00371535	61.5761
0.0037368	61.7543
0.00375837	61.9331
0.00378007	62.1123
0.00380189	62.2921
0.00382384	62.4724
0.00384592	62.6532
0.00386812	62.8345
0.00389045	63.0164
0.00391291	63.1988
0.0039355	63.3817
0.00395822	63.5651
0.00398107	63.7491
0.00400405	63.9336
0.00402717	64.1186
0.00405042	64.3041
0.0040738	64.4902
0.00409732	64.6769
0.00412098	64.864
0.00414477	65.0517
0.00416869	65.24
0.00419276	65.4288
0.00421697	65.6181
0.00424131	65.808
0.0042658	65.9984
0.00429042	66.1894
0.00431519	66.3809
0.0043401	66.573
0.00436516	66.7656
0.00439036	66.9588
0.0044157	67.1525
0.0044412	67.3468
0.00446684	67.5417
0.00449262	67.7371
0.00451856	67.9331
0.00454465	68.1296
0.00457088	68.3268
0.00459727	68.5244
0.00462381	68.7227
0.0046505	68.9215
0.00467735	69.1209
0.00470435	69.3209
0.00473151	69.5215
0.00475883	69.7226
0.0047863	69.9243
0.00481393	70.1266
0.00484172	70.3295
0.00486968	70.5329
0.00489779	70.737
0.00492606	70.9416
0.0049545	71.1468
0.0049831	71.3526
0.00501187	71.559
0.00504081	71.766
0.00506991	71.9736
0.00509918	72.1818
0.00512861	72.3906
0.00515822	72.6
0.005188	72.81
0.00521795	73.0206
0.00524807	73.2318
0.00527837	73.4437
0.00530884	73.6561
0.00533949	73.8691
0.00537032	74.0828
0.00540132	74.2971
0.0054325	74.512
0.00546387	74.7275
0.00549541	74.9436
0.00552713	75.1604
0.00555904	75.3778
0.00559114	75.5958
0.00562341	75.8144
0.00565588	76.0337
0.00568853	76.2536
0.00572137	76.4741
0.0057544	76.6953
0.00578762	76.9171
0.00582103	77.1395
0.00585464	77.3626
0.00588844	77.5863
0.00592243	77.8107
0.00595662	78.0357
0.00599101	78.2614
0.0060256	78.4877
0.00606038	78.7147
0.00609537	78.9423
0.00613056	79.1706
0.00616595	79.3996
0.00620155	79.6292
0.00623735	79.8594
0.00627336	80.0904
0.00630957	80.3219
0.006346	80.5542
0.00638263	80.7871
0.00641948	81.0207
0.00645654	81.255
0.00649382	81.49
0.00653131	81.7256
0.00656901	81.9619
0.00660693	82.1989
0.00664508	82.4365
0.00668344	82.6749
0.00672202	82.9139
0.00676083	83.1537
0.00679986	83.3941
0.00683912	83.6352
0.0068786	83.877
0.00691831	84.1195
0.00695825	84.3627
0.00699842	84.6066
0.00703882	84.8512
0.00707946	85.0966
0.00712033	85.3426
0.00716143	85.5893
0.00720278	85.8368
0.00724436	86.0849
0.00728618	86.3338
0.00732825	86.5834
0.00737055	86.8337
0.0074131	87.0847
0.0074559	87.3365
0.00749894	87.5889
0.00754223	87.8421
0.00758578	88.0961
0.00762957	88.3507
0.00767361	88.6061
0.00771792	88.8623
0.00776247	89.1192
0.00780728	89.3768
0.00785236	89.6351
0.00789769	89.8942
0.00794328	90.1541
0.00798914	90.4147
0.00803526	90.676
0.00808165	90.9381
0.00812831	91.201
0.00817523	91.4646
0.00822243	91.729
0.0082699	91.9941
0.00831764	92.26
0.00836566	92.5267
0.00841395	92.7942
0.00846253	93.0624
0.00851138	93.3313
0.00856052	93.6011
0.00860994	93.8716
0.00865964	94.143
0.00870964	94.415
0.00875992	94.6879
0.00881049	94.9616
0.00886135	95.2361
0.00891251	95.5113
0.00896396	95.7873
0.00901571	96.0642
0.00906776	96.3418
0.00912011	96.6203
0.00917276	96.8995
0.00922571	97.1795
0.00927897	97.4604
0.00933254	97.742
0.00938642	98.0245
0.00944061	98.3078
0.00949511	98.5919
0.00954993	98.8768
0.00960506	99.1626
0.00966051	99.4491
0.00971628	99.7365
0.00977237	100.025
0.00982879	100.314
0.00988553	100.604
0.0099426	100.894
0.01	101.186
0.0100577	101.478
0.0101158	101.772
0.0101742	102.066
0.0102329	102.361
0.010292	102.914
0.0103514	103.21
0.0104112	103.508
0.0104713	103.806
0.0105317	104.105
0.0105925	104.405
0.0106537	104.706
0.0107152	105.008
0.0107771	105.311
0.0108393	105.614
0.0109018	105.919
0.0109648	106.224
0.0110281	106.53
0.0110917	106.837
0.0111558	107.145
0.0112202	107.454
0.011285	107.764
0.0113501	108.074
0.0114156	108.386
0.0114815	108.698
0.0115478	109.012
0.0116145	109.326
0.0116815	109.641
0.011749	109.957
0.0118168	110.274
0.011885	110.592
0.0119536	110.911
0.0120226	111.23
0.0120921	111.551
0.0121619	111.872
0.0122321	112.195
0.0123027	112.518
0.0123737	112.843
0.0124451	113.168
0.012517	113.494
0.0125893	113.821
0.0126619	114.149
0.012735	114.478
0.0128086	114.808
0.0128825	115.139
0.0129569	115.471
0.0130317	115.804
0.0131069	116.138
0.0131826	116.472
0.0132587	116.808
0.0133352	117.145
0.0134122	117.482
0.0134896	117.821
0.0135675	118.161
0.0136458	118.501
0.0137246	118.843
0.0138038	119.185
0.0138835	119.529
0.0139637	119.873
0.0140443	120.219
0.0141254	120.565
0.0142069	120.913
0.0142889	121.262
0.0143714	121.611
0.0144544	121.962
0.0145378	122.313
0.0146218	122.666
0.0147062	123.019
0.0147911	123.374
0.0148765	123.729
0.0149624	124.086
0.0150487	124.444
0.0151356	124.802
0.015223	125.162
0.0153109	125.523
0.0153993	125.885
0.0154882	126.248
0.0155776	126.611
0.0156675	126.976
0.015758	127.342
0.0158489	127.709
0.0159404	128.078
0.0160325	128.447
0.016125	128.817
0.0162181	129.188
0.0163117	129.561
0.0164059	129.934
0.0165006	130.309
0.0165959	130.684
0.0166917	131.061
0.016788	131.439
0.016885	131.817
0.0169824	132.197
0.0170805	132.578
0.0171791	132.961
0.0172783	133.344
0.017378	133.728
0.0174783	134.114
0.0175792	134.5
0.0176807	134.888
0.0177828	135.277
0.0178855	135.667
0.0179887	136.058
0.0180926	136.45
0.018197	136.843
0.0183021	137.238
0.0184077	137.633
0.018514	138.03
0.0186209	138.428
0.0187284	138.827
0.0188365	139.227
0.0189452	139.628
0.0190546	140.031
0.0191646	140.434
0.0192752	140.839
0.0193865	141.245
0.0194984	141.652
0.019611	142.06
0.0197242	142.47
0.0198381	142.881
0.0199526	143.292
0.0200678	143.705
0.0201837	144.12
0.0203002	144.535
0.0204174	144.952
0.0205353	145.369
0.0206538	145.788
0.020773	146.209
0.020893	146.63
0.0210136	147.053
0.0211349	147.477
0.0212569	147.902
0.0213796	148.328
0.021503	148.755
0.0216272	149.184
0.021752	149.614
0.0218776	150.046
0.0220039	150.478
0.0221309	150.912
0.0222587	151.347
0.0223872	151.783
0.0225165	152.22
0.0226464	152.659
0.0227772	153.099
0.0229087	153.541
0.0230409	153.983
0.0231739	154.427
0.0233077	154.872
0.0234423	155.318
0.0235776	155.766
0.0237137	156.215
0.0238506	156.665
0.0239883	157.117
0.0241268	157.57
0.0242661	158.024
0.0244062	158.479
0.0245471	158.936
0.0246888	159.394
0.0248313	159.854
0.0249747	160.315
0.0251189	160.777
0.0252639	161.24
0.0254097	161.705
0.0255564	162.171
0.025704	162.638
0.0258523	163.107
0.0260016	163.577
0.0261517	164.049
0.0263027	164.522
0.0264545	164.996
0.0266073	165.471
0.0267609	165.948
0.0269153	166.427
0.0270707	166.906
0.027227	167.387
0.0273842	167.87
0.0275423	168.354
0.0277013	168.839
0.0278612	169.326
0.0280221	169.814
0.0281838	170.303
0.0283465	170.794
0.0285102	171.286
0.0286748	171.78
0.0288403	172.275
0.0290068	172.772
0.0291743	173.27
0.0293427	173.769
0.0295121	174.27
0.0296825	174.772
0.0298538	175.276
0.0300262	175.781
0.0301995	176.288
0.0303739	176.796
0.0305492	177.306
0.0307256	177.817
0.030903	178.329
0.0310814	178.843
0.0312608	179.359
0.0314413	179.876
0.0316228	180.394
0.0318053	180.914
0.031989	181.436
0.0321736	181.959
0.0323594	182.483
0.0325462	183.009
0.0327341	183.537
0.032923	184.066
0.0331131	184.596
0.0333043	185.128
0.0334965	185.662
0.0336899	186.197
0.0338844	186.734
0.03408	187.272
0.0342768	187.812
0.0344747	188.353
0.0346737	188.896
0.0348739	189.441
0.0350752	189.987
0.0352777	190.534
0.0354813	191.083
0.0356862	191.634
0.0358922	192.187
0.0360994	192.741
0.0363078	193.296
0.0365174	193.853
0.0367282	194.412
0.0369403	194.972
0.0371535	195.534
0.037368	196.098
0.0375837	196.663
0.0378007	197.23
0.0380189	197.799
0.0382384	198.369
0.0384592	198.94
0.0386812	199.514
0.0389045	200.089
0.0391291	200.666
0.039355	201.244
0.0395822	201.824
0.0398107	202.406
0.0400405	202.989
0.0402717	203.574
0.0405042	204.161
0.040738	204.75
0.0409732	205.34
0.0412098	205.932
0.0414477	206.525
0.0416869	207.12
0.0419276	207.717
0.0421697	208.316
0.0424131	208.917
0.042658	209.519
0.0429042	210.123
0.0431519	210.728
0.043401	211.336
0.0436516	211.945
0.0439036	212.556
0.044157	213.168
0.044412	213.783
0.0446684	214.399
0.0449262	215.017
0.0451856	215.637
0.0454465	216.258
0.0457088	216.882
0.0459727	217.507
0.0462381	218.134
0.046505	218.763
0.0467735	219.393
0.0470435	220.025
0.0473151	220.66
0.0475883	221.296
0.047863	221.934
0.0481393	222.573
0.0484172	223.215
0.0486968	223.858
0.0489779	224.503
0.0492606	225.151
0.049545	225.8
0.049831	226.45
0.0501187	227.103
0.0504081	227.758
0.0506991	228.414
0.0509918	229.073
0.0512861	229.733
0.0515822	230.395
0.05188	231.059
0.0521795	231.725
0.0524807	232.393
0.0527837	233.063
0.0530884	233.735
0.0533949	234.408
0.0537032	235.084
0.0540132	235.762
0.054325	236.441
0.0546387	237.123
0.0549541	237.806
0.0552713	238.492
0.0555904	239.179
0.0559114	239.868
0.0562341	240.56
0.0565588	241.253
0.0568853	241.949
0.0572137	242.646
0.057544	243.345
0.0578762	244.047
0.0582103	244.75
0.0585464	245.456
0.0588844	246.163
0.0592243	246.873
0.0595662	247.584
0.0599101	248.298
0.060256	249.014
0.0606038	249.731
0.0609537	250.451
0.0613056	251.173
0.0616595	251.897
0.0620155	252.623
0.0623735	253.351
0.0627336	254.081
0.0630957	254.814
0.06346	255.548
0.0638263	256.285
0.0641948	257.024
0.0645654	257.764
0.0649382	258.507
0.0653131	259.253
0.0656901	260
0.0660693	260.749
0.0664508	261.501
0.0668344	262.255
0.0672202	263.01
0.0676083	263.769
0.0679986	264.529
0.0683912	265.291
0.068786	266.056
0.0691831	266.823
0.0695825	267.592
0.0699842	268.363
0.0703882	269.137
0.0707946	269.913
0.0712033	270.69
0.0716143	271.471
0.0720278	272.253
0.0724436	273.038
0.0728618	273.825
0.0732825	274.614
0.0737055	275.406
0.074131	276.2
0.074559	276.996
0.0749894	277.794
0.0754223	278.595
0.0758578	279.398
0.0762957	280.203
0.0767361	281.011
0.0771792	281.821
0.0776247	282.633
0.0780728	283.448
0.0785236	284.265
0.0789769	285.084
0.0794328	285.906
0.0798914	286.73
0.0803526	287.556
0.0808165	288.385
0.0812831	289.216
0.0817523	290.05
0.0822243	290.886
0.082699	291.725
0.0831764	292.565
0.0836566	293.409
0.0841395	294.254
0.0846253	295.103
0.0851138	295.953
0.0856052	296.806
0.0860994	297.662
0.0865964	298.52
0.0870964	299.38
0.0875992	300.243
0.0881049	301.108
0.0886135	301.976
0.0891251	302.847
0.0896396	303.72
0.0901571	304.595
0.0906776	305.473
0.0912011	306.354
0.0917276	307.237
0.0922571	308.122
0.0927897	309.01
0.0933254	309.901
0.0938642	310.794
0.0944061	311.69
0.0949511	312.589
0.0954993	313.49
0.0960506	314.393
0.0966051	315.299
0.0971628	316.208
0.0977237	317.12
0.0982879	318.034
0.0988553	318.95
0.099426	319.87
0.1	320.792
0.100577	321.716
0.101158	322.644
0.101742	323.574
0.102329	324.506
0.10292	325.442
0.103514	326.38
0.104112	327.32
0.104713	328.264
0.105317	329.21
0.105925	330.159
0.106537	331.111
0.107152	332.065
0.107771	333.022
0.108393	333.982
0.109018	334.945
0.109648	335.91
0.110281	336.878
0.110917	337.849
0.111558	338.823
0.112202	339.8
0.11285	340.779
0.113501	341.761
0.114156	342.746
0.114815	343.734
0.115478	344.725
0.116145	345.719
0.116815	346.715
0.11749	347.715
0.118168	348.717
0.11885	349.722
0.119536	350.73
0.120226	351.741
0.120921	352.755
0.121619	353.772
0.122321	354.791
0.123027	355.814
0.123737	356.84
0.124451	357.868
0.12517	358.9
0.125893	359.934
0.126619	360.972
0.12735	362.012
0.128086	363.055
0.128825	364.102
0.129569	365.151
0.130317	366.204
0.131069	367.259
0.131826	368.318
0.132587	369.38
0.133352	370.444
0.134122	371.512
0.134896	372.583
0.135675	373.657
0.136458	374.734
0.137246	375.814
0.138038	376.897
0.138835	377.984
0.139637	379.073
0.140443	380.166
0.141254	381.262
0.142069	382.36
0.142889	383.463
0.143714	384.568
0.144544	385.676
0.145378	386.788
0.146218	387.903
0.147062	389.021
0.147911	390.142
0.148765	391.267
0.149624	392.395
0.150487	393.526
0.151356	394.66
0.15223	395.797
0.153109	396.938
0.153993	398.082
0.154882	399.23
0.155776	400.381
0.156675	401.535
0.15758	402.692
0.158489	403.853
0.159404	405.017
0.160325	406.184
0.16125	407.355
0.162181	408.529
0.163117	409.707
0.164059	410.888
0.165006	412.072
0.165959	413.26
0.166917	414.451
0.16788	415.645
0.16885	416.843
0.169824	418.045
0.170805	419.25
0.171791	420.458
0.172783	421.67
0.17378	422.886
0.174783	424.105
0.175792	425.327
0.176807	426.553
0.177828	427.782
0.178855	429.016
0.179887	430.252
0.180926	431.492
0.18197	432.736
0.183021	433.983
0.184077	435.234
0.18514	436.489
0.186209	437.747
0.187284	439.009
0.188365	440.274
0.189452	441.543
0.190546	442.816
0.191646	444.092
0.192752	445.372
0.193865	446.656
0.194984	447.943
0.19611	449.234
0.197242	450.529
0.198381	451.828
0.199526	453.13
0.200678	454.436
0.201837	455.746
0.203002	457.06
0.204174	458.377
0.205353	459.698
0.206538	461.023
0.20773	462.352
0.20893	463.685
0.210136	465.021
0.211349	466.362
0.212569	467.706
0.213796	469.054
0.21503	470.406
0.216272	471.762
0.21752	473.122
0.218776	474.486
0.220039	475.853
0.221309	477.225
0.222587	478.6
0.223872	479.98
0.225165	481.363
0.226464	482.751
0.227772	484.142
0.229087	485.538
0.230409	486.937
0.231739	488.341
0.233077	489.748
0.234423	491.16
0.235776	492.576
0.237137	493.996
0.238506	495.419
0.239883	496.847
0.241268	498.279
0.242661	499.716
0.244062	501.156
0.245471	502.601
0.246888	504.049
0.248313	505.502
0.249747	506.959
0.251189	508.42
0.252639	509.886
0.254097	511.356
0.255564	512.83
0.25704	514.308
0.258523	515.79
0.260016	517.277
0.261517	518.768
0.263027	520.263
0.264545	521.763
0.266073	523.267
0.267609	524.775
0.269153	526.287
0.270707	527.804
0.27227	529.326
0.273842	530.851
0.275423	532.382
0.277013	533.916
0.278612	535.455
0.280221	536.998
0.281838	538.546
0.283465	540.099
0.285102	541.655
0.286748	543.217
0.288403	544.782
0.290068	546.353
0.291743	547.927
0.293427	549.507
0.295121	551.091
0.296825	552.679
0.298538	554.272
0.300262	555.87
0.301995	557.472
0.303739	559.079
0.305492	560.69
0.307256	562.306
0.30903	563.927
0.310814	565.553
0.312608	567.183
0.314413	568.818
0.316228	570.457
0.318053	572.101
0.31989	573.75
0.321736	575.404
0.323594	577.063
0.325462	578.726
0.327341	580.394
0.32923	582.067
0.331131	583.745
0.333043	585.427
0.334965	587.115
0.336899	588.807
0.338844	590.504
0.3408	592.206
0.342768	593.913
0.344747	595.625
0.346737	597.342
0.348739	599.064
0.350752	600.79
0.352777	602.522
0.354813	604.259
0.356862	606.001
0.358922	607.747
0.360994	609.499
0.363078	611.256
0.365174	613.018
0.367282	614.785
0.369403	616.557
0.371535	618.334
0.37368	620.116
0.375837	621.904
0.378007	623.696
0.380189	625.494
0.382384	627.297
0.384592	629.105
0.386812	630.918
0.389045	632.737
0.391291	634.56
0.39355	636.39
0.395822	638.224
0.398107	640.063
0.400405	641.908
0.402717	643.759
0.405042	645.614
0.40738	647.475
0.409732	649.341
0.412098	651.213
0.414477	653.09
0.416869	654.972
0.419276	656.86
0.421697	658.754
0.424131	660.652
0.42658	662.557
0.429042	664.466
0.431519	666.382
0.43401	668.302
0.436516	670.229
0.439036	672.161
0.44157	674.098
0.44412	676.041
0.446684	677.99
0.449262	679.944
0.451856	681.904
0.454465	683.869
0.457088	685.84
0.459727	687.817
0.462381	689.8
0.46505	691.788
0.467735	693.782
0.470435	695.782
0.473151	697.787
0.475883	699.89
0.47863	702.194
0.481393	704.511
0.484172	706.84
0.486968	709.182
0.489779	711.537
0.492606	713.905
0.49545	716.285
0.49831	718.678
0.501187	721.084
0.504081	723.503
0.506991	725.935
0.509918	728.38
0.512861	730.838
0.515822	733.31
0.5188	735.794
0.521795	738.292
0.524807	740.803
0.527837	743.327
0.530884	745.865
0.533949	748.417
0.537032	750.981
0.540132	753.56
0.54325	756.152
0.546387	758.757
0.549541	761.376
0.552713	764.01
0.555904	766.656
0.559114	769.317
0.562341	771.991
0.565588	774.68
0.568853	777.382
0.572137	780.049
0.57544	782.702
0.578762	785.369
0.582103	788.049
0.585464	790.744
0.588844	793.452
0.592243	796.174
0.595662	798.91
0.599101	801.659
0.60256	804.423
0.606038	807.2
0.609537	809.992
0.613056	812.798
0.616595	815.617
0.620155	818.451
0.623735	821.299
0.627336	824.161
0.630957	827.037
0.6346	829.928
0.638263	832.833
0.641948	835.752
0.645654	838.685
0.649382	841.633
0.653131	844.595
0.656901	847.572
0.660693	850.562
0.664508	853.568
0.668344	856.588
0.672202	859.622
0.676083	862.671
0.679986	865.734
0.683912	868.812
0.68786	871.905
0.691831	875.012
0.695825	878.133
0.699842	881.27
0.703882	884.421
0.707946	887.586
0.712033	890.766
0.716143	893.961
0.720278	897.17
0.724436	900.394
0.728618	903.633
0.732825	906.886
0.737055	910.154
0.74131	913.437
0.74559	916.734
0.749894	920.046
0.754223	923.373
0.758578	926.714
0.762957	930.056
0.767361	933.405
0.771792	936.769
0.776247	940.148
0.780728	943.54
0.785236	946.947
0.789769	950.367
0.794328	953.802
0.798914	957.25
0.803526	960.712
0.808165	964.188
0.812831	967.677
0.817523	971.18
0.822243	974.696
0.82699	978.225
0.831764	981.767
0.836566	985.322
0.841395	988.89
0.846253	992.47
0.851138	996.063
0.856052	999.668
0.860994	1003.28
0.865964	1006.91
0.870964	1010.55
0.875992	1014.21
0.881049	1017.87
0.886135	1021.55
0.891251	1025.23
0.896396	1028.93
0.901571	1032.63
0.906776	1036.35
0.912011	1040.08
0.917276	1043.82
0.922571	1047.56
0.927897	1051.32
0.933254	1055.08
0.938642	1058.86
0.944061	1062.64
0.949511	1066.43
0.954993	1070.23
0.960506	1074.03
0.966051	1077.85
0.971628	1081.67
0.977237	1085.49
0.982879	1089.33
0.988553	1093.17
0.99426	1097.01
1	1100.87
1.00577	1104.73
1.01158	1108.59
1.01742	1112.46
1.02329	1116.34
1.0292	1120.22
1.03514	1124.1
1.04112	1127.99
1.04713	1131.89
1.05317	1135.78
1.05925	1139.68
1.06537	1143.59
1.07152	1147.49
1.07771	1151.4
1.08393	1155.32
1.09018	1159.23
1.09648	1163.15
1.10281	1167.06
1.10917	1170.98
1.11558	1174.9
1.12202	1178.82
1.1285	1182.73
1.13501	1186.65
1.14156	1190.57
1.14815	1194.48
1.15478	1198.4
1.16145	1202.31
1.16815	1206.22
1.1749	1210.13
1.18168	1214.03
1.1885	1217.94
1.19536	1221.84
1.20226	1225.73
1.20921	1229.63
1.21619	1233.52
1.22321	1237.41
1.23027	1241.29
1.23737	1245.17
1.24451	1249.05
1.2517	1252.92
1.25893	1256.79
1.26619	1260.65
1.2735	1264.51
1.28086	1268.36
1.28825	1272.21
1.29569	1276.05
1.30317	1279.89
1.31069	1283.72
1.31826	1287.54
1.32587	1291.36
1.33352	1295.17
1.34122	1298.98
1.34896	1302.77
1.35675	1306.56
1.36458	1310.35
1.37246	1314.12
1.38038	1317.89
1.38835	1321.65
1.39637	1325.41
1.40443	1329.15
1.41254	1332.89
1.42069	1336.62
1.42889	1340.35
1.43714	1344.06
1.44544	1347.77
1.45378	1351.46
1.46218	1355.15
1.47062	1358.83
1.47911	1362.51
1.48765	1366.17
1.49624	1369.82
1.50487	1373.47
1.51356	1377.11
1.5223	1380.74
1.53109	1384.36
1.53993	1387.97
1.54882	1391.57
1.55776	1395.16
1.56675	1398.75
1.5758	1402.32
1.58489	1405.88
1.59404	1409.44
1.60325	1412.98
1.6125	1416.52
1.62181	1420.04
1.63117	1423.56
1.64059	1427.07
1.65006	1430.56
1.65959	1434.05
1.66917	1437.52
1.6788	1440.99
1.6885	1444.45
1.69824	1447.89
1.70805	1451.33
1.71791	1454.75
1.72783	1458.17
1.7378	1461.57
1.74783	1464.97
1.75792	1468.36
1.76807	1471.73
1.77828	1475.1
1.78855	1478.45
1.79887	1481.8
1.80926	1485.13
1.8197	1488.46
1.83021	1491.77
1.84077	1495.08
1.8514	1498.38
1.86209	1501.66
1.87284	1504.94
1.88365	1508.21
1.89452	1511.47
1.90546	1514.72
1.91646	1517.97
1.92752	1521.21
1.93865	1524.44
1.94984	1527.66
1.9611	1530.87
1.97242	1534.07
1.98381	1537.26
1.99526	1540.44
2.00678	1543.61
2.01837	1546.77
2.03002	1549.92
2.04174	1553.06
2.05353	1556.19
2.06538	1559.3
2.0773	1562.41
2.0893	1565.51
2.10136	1568.59
2.11349	1571.66
2.12569	1574.72
2.13796	1577.77
2.1503	1580.81
2.16272	1583.84
2.1752	1586.86
2.18776	1589.86
2.20039	1592.85
2.21309	1595.83
2.22587	1598.8
2.23872	1601.75
2.25165	1604.69
2.26464	1607.63
2.27772	1610.54
2.29087	1613.45
2.30409	1616.34
2.31739	1619.22
2.33077	1622.09
2.34423	1624.95
2.35776	1627.79
2.37137	1630.62
2.38506	1633.44
2.39883	1636.25
2.41268	1639.04
2.42661	1641.82
2.44062	1644.59
2.45471	1647.35
2.46888	1650.09
2.48313	1652.82
2.49747	1655.54
2.51189	1658.25
2.52639	1660.94
2.54097	1663.63
2.55564	1666.3
2.5704	1668.96
2.58523	1671.61
2.60016	1674.25
2.61517	1676.87
2.63027	1679.49
2.64545	1682.1
2.66073	1684.69
2.67609	1687.27
2.69153	1689.85
2.70707	1692.41
2.7227	1694.97
2.73842	1697.51
2.75423	1700.05
2.77013	1702.58
2.78612	1705.1
2.80221	1707.61
2.81838	1710.11
2.83465	1712.61
2.85102	1715.1
2.86748	1717.52
2.88403	1719.93
2.90068	1722.34
2.91743	1724.74
2.93427	1727.13
2.95121	1729.51
2.96825	1731.89
2.98538	1734.26
3.00262	1736.62
3.01995	1738.97
3.03739	1741.31
3.05492	1743.65
3.07256	1745.98
3.0903	1748.3
3.10814	1750.61
3.12608	1752.91
3.14413	1755.21
3.16228	1757.49
3.18053	1759.77
3.1989	1762.04
3.21736	1764.29
3.23594	1766.54
3.25462	1768.78
3.27341	1771.01
3.2923	1773.23
3.31131	1775.44
3.33043	1777.64
3.34965	1779.83
3.36899	1782.01
3.38844	1784.18
3.408	1786.33
3.42768	1788.48
3.44747	1790.62
3.46737	1792.75
3.48739	1794.86
3.50752	1796.97
3.52777	1799.06
3.54813	1801.15
3.56862	1803.22
3.58922	1805.28
3.60994	1807.33
3.63078	1809.37
3.65174	1811.4
3.67282	1813.42
3.69403	1815.42
3.71535	1817.42
3.7368	1819.4
3.75837	1821.37
3.78007	1823.33
3.80189	1825.28
3.82384	1827.23
3.84592	1829.17
3.86812	1831.1
3.89045	1833.01
3.91291	1834.92
3.9355	1836.81
3.95822	1838.69
3.98107	1840.56
4.00405	1842.42
4.02717	1844.26
4.05042	1846.09
4.0738	1847.92
4.09732	1849.73
4.12098	1851.52
4.14477	1853.31
4.16869	1855.08
4.19276	1856.84
4.21697	1858.59
4.24131	1860.33
4.2658	1862.06
4.29042	1863.77
4.31519	1865.48
4.3401	1867.17
4.36516	1868.85
4.39036	1870.51
4.4157	1872.17
4.4412	1873.81
4.46684	1875.45
4.49262	1877.07
4.51856	1878.68
4.54465	1880.28
4.57088	1881.87
4.59727	1883.44
4.62381	1885.01
4.6505	1886.57
4.67735	1888.11
4.70435	1889.65
4.73151	1891.17
4.75883	1892.69
4.7863	1894.2
4.81393	1895.69
4.84172	1897.18
4.86968	1898.66
4.89779	1900.13
4.92606	1901.58
4.9545	1903.03
4.9831	1904.47
5.01187	1905.89
5.04081	1907.31
5.06991	1908.71
5.09918	1910.11
5.12861	1911.49
5.15822	1912.86
5.188	1914.22
5.21795	1915.57
5.24807	1916.91
5.27837	1918.24
5.30884	1919.56
5.33949	1920.86
5.37032	1922.16
5.40132	1923.44
5.4325	1924.71
5.46387	1925.97
5.49541	1927.22
5.52713	1928.45
5.55904	1929.68
5.59114	1930.89
5.62341	1932.09
5.65588	1933.28
5.68853	1934.46
5.72137	1935.63
5.7544	1936.78
5.78762	1937.93
5.82103	1939.06
5.85464	1940.18
5.88844	1941.29
5.92243	1942.39
5.95662	1943.47
5.99101	1944.54
6.0256	1945.6
6.06038	1946.65
6.09537	1947.68
6.13056	1948.7
6.16595	1949.71
6.20155	1950.7
6.23735	1951.68
6.27336	1952.64
6.30957	1953.6
6.346	1954.54
6.38263	1955.46
6.41948	1956.37
6.45654	1957.27
6.49382	1958.15
6.53131	1959.02
6.56901	1959.88
6.60693	1960.72
6.64508	1961.55
6.68344	1962.36
6.72202	1963.16
6.76083	1963.94
6.79986	1964.71
6.83912	1965.47
6.8786	1966.21
6.91831	1966.93
6.95825	1967.65
6.99842	1968.34
7.03882	1969.03
7.07946	1969.7
7.12033	1970.35
7.16143	1970.99
7.20278	1971.62
7.24436	1972.23
7.28618	1972.82
7.32825	1973.41
7.37055	1973.97
7.4131	1974.53
7.4559	1975.07
7.49894	1975.59
7.54223	1976.1
7.58578	1976.6
7.62957	1977.08
7.67361	1977.53
7.71792	1977.98
7.76247	1978.4
7.80728	1978.82
7.85236	1979.22
7.89769	1979.6
7.94328	1979.97
7.98914	1980.33
8.03526	1980.67
8.08165	1980.99
8.12831	1981.3
8.17523	1981.6
8.22243	1981.88
8.2699	1982.14
8.31764	1982.39
8.36566	1982.62
8.41395	1982.84
8.46253	1983.04
8.51138	1983.22
8.56052	1983.39
8.60994	1983.54
8.65964	1983.67
8.70964	1983.79
8.75992	1983.89
8.81049	1983.97
8.86135	1984.04
8.91251	1984.09
8.96396	1984.12
9.01571	1984.14
9.06776	1984.13
9.12011	1984.12
9.17276	1984.08
9.22571	1984.03
9.27897	1983.95
9.33254	1983.86
9.38642	1983.76
9.44061	1983.63
9.49511	1983.49
9.54993	1983.33
9.60506	1983.16
9.66051	1982.97
9.71628	1982.76
9.77237	1982.53
9.82879	1982.28
9.88553	1982.02
9.9426	1981.73
10	1981.43
10.0577	1981.11
10.1158	1980.77
10.1742	1980.42
10.2329	1980.04
10.292	1979.65
10.3514	1979.23
10.4112	1978.8
10.4713	1978.35
10.5317	1977.88
10.5925	1977.4
10.6537	1976.89
10.7152	1976.37
10.7771	1975.82
10.8393	1975.26
10.9018	1974.68
10.9648	1974.08
11.0281	1973.47
11.0917	1972.83
11.1558	1972.18
11.2202	1971.5
11.285	1970.81
11.3501	1970.1
11.4156	1969.38
11.4815	1968.63
11.5478	1967.87
11.6145	1967.09
11.6815	1966.29
11.749	1965.47
11.8168	1964.64
11.885	1963.78
11.9536	1962.91
12.0226	1962.02
12.0921	1961.11
12.1619	1960.19
12.2321	1959.24
12.3027	1958.28
12.3737	1957.29
12.4451	1956.29
12.517	1955.27
12.5893	1954.24
12.6619	1953.18
12.735	1952.11
12.8086	1951.02
12.8825	1949.91
12.9569	1948.78
13.0317	1947.63
13.1069	1946.47
13.1826	1945.28
13.2587	1944.08
13.3352	1942.87
13.4122	1941.63
13.4896	1940.38
13.5675	1939.11
13.6458	1937.82
13.7246	1936.51
13.8038	1935.19
13.8835	1933.85
13.9637	1932.49
14.0443	1931.11
14.1254	1929.72
14.2069	1928.3
14.2889	1926.87
14.3714	1925.43
14.4544	1923.96
14.5378	1922.48
14.6218	1920.98
14.7062	1919.47
14.7911	1917.94
14.8765	1916.39
14.9624	1914.82
15.0487	1913.24
15.1356	1911.64
15.223	1910.03
15.3109	1908.39
15.3993	1906.75
15.4882	1905.08
15.5776	1903.4
15.6675	1901.71
15.758	1899.99
15.8489	1898.26
15.9404	1896.52
16.0325	1894.76
16.125	1892.98
16.2181	1891.19
16.3117	1889.38
16.4059	1887.55
16.5006	1885.71
16.5959	1883.86
16.6917	1881.99
16.788	1880.1
16.885	1878.2
16.9824	1876.28
17.0805	1874.34
17.1791	1872.4
17.2783	1870.43
17.378	1868.45
17.4783	1866.46
17.5792	1864.45
17.6807	1862.43
17.7828	1860.39
17.8855	1858.34
17.9887	1856.27
18.0926	1854.19
18.197	1852.1
18.3021	1849.99
18.4077	1847.87
18.514	1845.74
18.6209	1843.59
18.7284	1841.43
18.8365	1839.26
18.9452	1837.07
19.0546	1834.87
19.1646	1832.67
19.2752	1830.44
19.3865	1828.21
19.4984	1825.97
19.611	1823.71
19.7242	1821.44
19.8381	1819.16
19.9526	1816.86
20.0678	1814.56
20.1837	1812.24
20.3002	1809.91
20.4174	1807.56
20.5353	1805.21
20.6538	1802.84
20.773	1800.46
20.893	1798.07
21.0136	1795.67
21.1349	1793.25
21.2569	1790.82
21.3796	1788.38
21.503	1785.93
21.6272	1783.47
21.752	1780.99
21.8776	1778.5
22.0039	1776
22.1309	1773.49
22.2587	1770.96
22.3872	1768.43
22.5165	1765.88
22.6464	1763.32
22.7772	1760.75
22.9087	1758.16
23.0409	1755.57
23.1739	1752.96
23.3077	1750.34
23.4423	1747.71
23.5776	1745.07
23.7137	1742.42
23.8506	1739.76
23.9883	1737.08
24.1268	1734.39
24.2661	1731.7
24.4062	1728.99
24.5471	1726.27
24.6888	1723.54
24.8313	1720.8
24.9747	1718.05
25.1189	1715.28
25.2639	1712.51
25.4097	1709.73
25.5564	1706.93
25.704	1704.13
25.8523	1701.32
26.0016	1698.49
26.1517	1695.66
26.3027	1692.82
26.4545	1689.97
26.6073	1687.11
26.7609	1684.24
26.9153	1681.36
27.0707	1678.47
27.227	1675.57
27.3842	1672.67
27.5423	1669.76
27.7013	1666.84
27.8612	1663.91
28.0221	1660.97
28.1838	1658.03
28.3465	1655.08
28.5102	1652.12
28.6748	1649.16
28.8403	1646.19
29.0068	1643.22
29.1743	1640.24
29.3427	1637.26
29.5121	1634.26
29.6825	1631.26
29.8538	1628.26
30.0262	1625.25
30.1995	1622.23
30.3739	1619.21
30.5492	1616.17
30.7256	1613.14
30.903	1610.1
31.0814	1607.05
31.2608	1603.99
31.4413	1600.93
31.6228	1597.87
31.8053	1594.79
31.989	1591.71
32.1736	1588.63
32.3594	1585.54
32.5462	1582.45
32.7341	1579.34
32.923	1576.24
33.1131	1573.13
33.3043	1570.01
33.4965	1566.88
33.6899	1563.76
33.8844	1560.62
34.08	1557.48
34.2768	1554.34
34.4747	1551.19
34.6737	1548.04
34.8739	1544.88
35.0752	1541.71
35.2777	1538.54
35.4813	1535.37
35.6862	1532.19
35.8922	1529.01
36.0994	1525.82
36.3078	1522.62
36.5174	1519.43
36.7282	1516.22
36.9403	1513.02
37.1535	1509.81
37.368	1506.59
37.5837	1503.37
37.8007	1500.15
38.0189	1496.92
38.2384	1493.68
38.4592	1490.44
38.6812	1487.19
38.9045	1483.94
39.1291	1480.68
39.355	1477.42
39.5822	1474.16
39.8107	1470.89
40.0405	1467.62
40.2717	1464.35
40.5042	1461.07
40.738	1457.79
40.9732	1454.51
41.2098	1451.22
41.4477	1447.93
41.6869	1444.63
41.9276	1441.34
42.1697	1438.04
42.4131	1434.73
42.658	1431.42
42.9042	1428.12
43.1519	1424.8
43.401	1421.49
43.6516	1418.17
43.9036	1414.85
44.157	1411.53
44.412	1408.2
44.6684	1404.87
44.9262	1401.54
45.1856	1398.21
45.4465	1394.87
45.7088	1391.53
45.9727	1388.19
46.2381	1384.85
46.505	1381.5
46.7735	1378.16
47.0435	1374.81
47.3151	1371.46
47.5883	1368.11
47.863	1364.75
48.1393	1361.39
48.4172	1358.03
48.6968	1354.67
48.9779	1351.31
49.2606	1347.95
49.545	1344.58
49.831	1341.21
50.1187	1337.85
50.4081	1334.48
50.6991	1331.11
50.9918	1327.73
51.2861	1324.36
51.5822	1320.99
51.88	1317.61
52.1795	1314.24
52.4807	1310.86
52.7837	1307.48
53.0884	1304.1
53.3949	1300.72
53.7032	1297.34
54.0132	1293.96
54.325	1290.58
54.6387	1287.2
54.9541	1283.82
55.2713	1280.44
55.5904	1277.05
55.9114	1273.67
56.2341	1270.29
56.5588	1266.91
56.8853	1263.52
57.2137	1260.14
57.544	1256.75
57.8762	1253.36
58.2103	1249.97
58.5464	1246.59
58.8844	1243.2
59.2243	1239.81
59.5662	1236.43
59.9101	1233.04
60.256	1229.65
60.6038	1226.27
60.9537	1222.89
61.3056	1219.5
61.6595	1216.12
62.0155	1212.74
62.3735	1209.36
62.7336	1205.98
63.0957	1202.6
63.46	1199.22
63.8263	1195.84
64.1948	1192.47
64.5654	1189.1
64.9382	1185.72
65.3131	1182.35
65.6901	1178.98
66.0693	1175.61
66.4508	1172.25
66.8344	1168.88
67.2202	1165.52
67.6083	1162.16
67.9986	1158.8
68.3912	1155.44
68.786	1152.08
69.1831	1148.73
69.5825	1145.38
69.9842	1142.03
70.3882	1138.68
70.7946	1135.33
71.2033	1131.98
71.6143	1128.64
72.0278	1125.3
72.4436	1121.96
72.8618	1118.62
73.2825	1115.28
73.7055	1111.95
74.131	1108.62
74.559	1105.28
74.9894	1101.95
75.4223	1098.63
75.8578	1095.3
76.2957	1091.98
76.7361	1088.67
77.1792	1085.36
77.6247	1082.06
78.0728	1078.75
78.5236	1075.45
78.9769	1072.15
79.4328	1068.85
79.8914	1065.55
80.3526	1062.26
80.8165	1058.96
81.2831	1055.67
81.7523	1052.39
82.2243	1049.1
82.699	1045.82
83.1764	1042.54
83.6566	1039.27
84.1395	1035.99
84.6253	1032.73
85.1138	1029.46
85.6052	1026.2
86.0994	1022.94
86.5964	1019.68
87.0964	1016.43
87.5992	1013.18
88.1049	1009.93
88.6135	1006.69
89.1251	1003.45
89.6396	1000.22
90.1571	996.986
90.6776	993.76
91.2011	990.537
91.7276	987.318
92.2571	984.103
92.7897	980.893
93.3254	977.686
93.8642	974.483
94.4061	971.285
94.9511	968.091
95.4993	964.897
96.0506	961.706
96.6051	958.52
97.1628	955.339
97.7237	952.162
98.2879	948.989
98.8553	945.821
99.426	942.657
100	939.499
100.577	936.345
101.158	933.195
101.742	930.051
102.329	926.912
102.92	923.777
103.514	920.648
104.112	917.523
104.713	914.404
105.317	911.29
105.925	908.181
106.537	905.076
107.152	901.978
107.771	898.884
108.393	895.795
109.018	892.711
109.648	889.633
110.281	886.56
110.917	883.492
111.558	880.428
112.202	877.37
112.85	874.317
113.501	871.269
114.156	868.225
114.815	865.187
115.478	862.153
116.145	859.124
116.815	856.1
117.49	853.082
118.168	850.068
118.85	847.06
119.536	844.058
120.226	841.06
120.921	838.069
121.619	835.082
122.321	832.102
123.027	829.127
123.737	826.158
124.451	823.194
125.17	820.237
125.893	817.285
126.619	814.339
127.35	811.399
128.086	808.465
128.825	805.536
129.569	802.614
130.317	799.698
131.069	796.787
131.826	793.882
132.587	790.984
133.352	788.091
134.122	785.204
134.896	782.323
135.675	779.448
136.458	776.579
137.246	773.716
138.038	770.86
138.835	768.01
139.637	765.166
140.443	762.328
141.254	759.497
142.069	756.672
142.889	753.853
143.714	751.041
144.544	748.236
145.378	745.436
146.218	742.644
147.062	739.858
147.911	737.078
148.765	734.304
149.624	731.538
150.487	728.777
151.356	726.023
152.23	723.275
153.109	720.534
153.993	717.799
154.882	715.07
155.776	712.348
156.675	709.633
157.58	706.924
158.489	704.222
159.404	701.526
160.325	698.838
161.25	696.156
162.181	693.481
163.117	690.813
164.059	688.152
165.006	685.498
165.959	682.851
166.917	680.211
167.88	677.577
168.85	674.951
169.824	672.332
170.805	669.72
171.791	667.115
172.783	664.516
173.78	661.925
174.783	659.341
175.792	656.763
176.807	654.193
177.828	651.629
178.855	649.073
179.887	646.523
180.926	643.98
181.97	641.444
183.021	638.914
184.077	636.391
185.14	633.874
186.209	631.364
187.284	628.861
188.365	626.363
189.452	623.872
190.546	621.384
191.646	618.901
192.752	616.423
193.865	613.952
194.984	611.487
196.11	609.028
197.242	606.576
198.381	604.131
199.526	601.692
200.678	599.26
201.837	596.835
203.002	594.417
204.174	592.006
205.353	589.603
206.538	587.206
207.73	584.817
208.93	582.436
210.136	580.062
211.349	577.695
212.569	575.336
213.796	572.985
215.03	570.642
216.272	568.307
217.52	565.98
218.776	563.66
220.039	561.349
221.309	559.046
222.587	556.751
223.872	554.464
225.165	552.186
226.464	549.915
227.772	547.653
229.087	545.4
230.409	543.155
231.739	540.918
233.077	538.689
234.423	536.469
235.776	534.257
237.137	532.054
238.506	529.859
239.883	527.672
241.268	525.494
242.661	523.324
244.062	521.162
245.471	519.009
246.888	516.863
248.313	514.726
249.747	512.597
251.189	510.475
252.639	508.362
254.097	506.256
255.564	504.158
257.04	502.068
258.523	499.985
260.016	497.909
261.517	495.841
263.027	493.78
264.545	491.725
266.073	489.678
267.609	487.636
269.153	485.602
270.707	483.573
272.27	481.55
273.842	479.533
275.423	477.522
277.013	475.516
278.612	473.514
280.221	471.518
281.838	469.526
283.465	467.538
285.102	465.557
286.748	463.623
288.403	461.694
290.068	459.769
291.743	457.847
293.427	455.93
295.121	454.017
296.825	452.109
298.538	450.204
300.262	448.305
301.995	446.41
303.739	444.52
305.492	442.634
307.256	440.754
309.03	438.878
310.814	437.008
312.608	435.142
314.413	433.282
316.228	431.428
318.053	429.579
319.89	427.735
321.736	425.897
323.594	424.064
325.462	422.238
327.341	420.417
329.23	418.602
331.131	416.793
333.043	414.99
334.965	413.194
336.899	411.403
338.844	409.619
340.8	407.841
342.768	406.07
344.747	404.305
346.737	402.546
348.739	400.795
350.752	399.049
352.777	397.311
354.813	395.579
356.862	393.854
358.922	392.136
360.994	390.425
363.078	388.721
365.174	387.024
367.282	385.334
369.403	383.65
371.535	381.974
373.68	380.305
375.837	378.643
378.007	376.988
380.189	375.34
382.384	373.69
384.592	372.048
386.812	370.412
389.045	368.784
391.291	367.163
393.55	365.55
395.822	363.943
398.107	362.344
400.405	360.752
402.717	359.168
405.042	357.591
407.38	356.021
409.732	354.458
412.098	352.903
414.477	351.355
416.869	349.814
419.276	348.28
421.697	346.754
424.131	345.235
426.58	343.723
429.042	342.218
431.519	340.72
434.01	339.229
436.516	337.745
439.036	336.268
441.57	334.798
444.12	333.335
446.684	331.878
449.262	330.427
451.856	328.983
454.465	327.545
457.088	326.114
459.727	324.688
462.381	323.268
465.05	321.855
467.735	320.446
470.435	319.043
473.151	317.646
475.883	316.253
478.63	314.865
481.393	313.482
484.172	312.104
486.968	310.731
489.779	309.364
492.606	308.001
495.45	306.644
498.31	305.292
501.187	303.945
504.081	302.603
506.991	301.267
509.918	299.936
512.861	298.61
515.822	297.29
518.8	295.975
521.795	294.666
524.807	293.362
527.837	292.063
530.884	290.77
533.949	289.482
537.032	288.199
540.132	286.922
543.25	285.65
546.387	284.384
549.541	283.123
552.713	281.867
555.904	280.616
559.114	279.371
562.341	278.131
565.588	276.896
568.853	275.666
572.137	274.439
575.44	273.217
578.762	272
582.103	270.787
585.464	269.58
588.844	268.378
592.243	267.182
595.662	265.99
599.101	264.804
602.56	263.623
606.038	262.448
609.537	261.278
613.056	260.113
616.595	258.954
620.155	257.8
623.735	256.652
627.336	255.509
630.957	254.371
634.6	253.239
638.263	252.113
641.948	250.992
645.654	249.876
649.382	248.766
653.131	247.662
656.901	246.562
660.693	245.469
664.508	244.38
668.344	243.297
672.202	242.22
676.083	241.147
679.986	240.08
683.912	239.019
687.86	237.962
691.831	236.911
695.825	235.864
699.842	234.823
703.882	233.786
707.946	232.755
712.033	231.728
716.143	230.706
720.278	229.688
724.436	228.675
728.618	227.667
732.825	226.663
737.055	225.663
741.31	224.667
745.59	223.675
749.894	222.686
754.223	221.702
758.578	220.721
762.957	219.748
767.361	218.782
771.792	217.82
776.247	216.86
780.728	215.905
785.236	214.952
789.769	214.004
794.328	213.059
798.914	212.117
803.526	211.179
808.165	210.245
812.831	209.315
817.523	208.388
822.243	207.466
826.99	206.547
831.764	205.632
836.566	204.72
841.395	203.813
846.253	202.91
851.138	202.01
856.052	201.115
860.994	200.223
865.964	199.336
870.964	198.452
875.992	197.573
881.049	196.698
886.135	195.826
891.251	194.959
896.396	194.096
901.571	193.236
906.776	192.381
912.011	191.53
917.276	190.683
922.571	189.84
927.897	189.001
933.254	188.165
938.642	187.334
944.061	186.507
949.511	185.684
954.993	184.863
960.506	184.045
966.051	183.232
971.628	182.422
977.237	181.616
982.879	180.814
988.553	180.017
994.26	179.223
1000	178.433
1005.77	177.647
1011.58	176.864
1017.42	176.086
1023.29	175.312
1029.2	174.542
1035.14	173.775
1041.12	173.012
1047.13	172.254
1053.17	171.498
1059.25	170.747
1065.37	170
1071.52	169.256
1077.71	168.516
1083.93	167.78
1090.18	167.047
1096.48	166.318
1102.81	165.592
1109.17	164.87
1115.58	164.151
1122.02	163.435
1128.5	162.723
1135.01	162.014
1141.56	161.308
1148.15	160.604
1154.78	159.904
1161.45	159.207
1168.15	158.514
1174.9	157.823
1181.68	157.135
1188.5	156.451
1195.36	155.769
1202.26	155.091
1209.21	154.416
1216.19	153.744
1223.21	153.076
1230.27	152.41
1237.37	151.748
1244.51	151.088
1251.7	150.432
1258.93	149.779
1266.19	149.129
1273.5	148.483
1280.86	147.839
1288.25	147.199
1295.69	146.561
1303.17	145.927
1310.69	145.296
1318.26	144.667
1325.87	144.042
1333.52	143.42
1341.22	142.8
1348.96	142.183
1356.75	141.57
1364.58	140.959
1372.46	140.351
1380.38	139.747
1388.35	139.145
1396.37	138.546
1404.43	137.95
1412.54	137.357
1420.69	136.766
1428.89	136.179
1437.14	135.595
1445.44	135.013
1453.78	134.435
1462.18	133.859
1470.62	133.286
1479.11	132.715
1487.65	132.148
1496.24	131.583
1504.87	131.021
1513.56	130.462
1522.3	129.905
1531.09	129.351
1539.93	128.799
1548.82	128.25
1557.76	127.704
1566.75	127.16
1575.8	126.619
1584.89	126.08
1594.04	125.544
1603.25	125.011
1612.5	124.48
1621.81	123.952
1631.17	123.427
1640.59	122.904
1650.06	122.384
1659.59	121.867
1669.17	121.352
1678.8	120.839
1688.5	120.329
1698.24	119.822
1708.05	119.317
1717.91	118.815
1727.83	118.315
1737.8	117.817
1747.83	117.323
1757.92	116.83
1768.07	116.34
1778.28	115.852
1788.55	115.367
1798.87	114.884
1809.26	114.403
1819.7	113.925
1830.21	113.448
1840.77	112.974
1851.4	112.502
1862.09	112.033
1872.84	111.565
1883.65	111.099
1894.52	110.635
1905.46	110.173
1916.46	109.712
1927.52	109.253
1938.65	108.796
1949.84	108.341
1961.1	107.888
1972.42	107.436
1983.81	106.987
1995.26	106.54
2006.78	106.095
2018.37	105.652
2030.02	105.211
2041.74	104.772
2053.53	104.336
2065.38	103.901
2077.3	103.469
2089.3	103.039
2101.36	102.611
2113.49	102.185
2125.69	101.762
2137.96	101.341
2150.3	100.922
2162.72	100.505
2175.2	100.091
2187.76	99.6789
2200.39	99.2691
2213.09	98.8616
2225.87	98.4565
2238.72	98.0537
2251.65	97.6531
2264.64	97.255
2277.72	96.8591
2290.87	96.4656
2304.09	96.0743
2317.39	95.6855
2330.77	95.2989
2344.23	94.9146
2357.76	94.5327
2371.37	94.153
2385.06	93.7756
2398.83	93.4005
2412.68	93.0277
2426.61	92.6571
2440.62	92.2888
2454.71	91.9226
2468.88	91.5587
2483.13	91.1969
2497.47	90.8372
2511.89	90.4797
2526.39	90.1243
2540.97	89.7709
2555.64	89.4195
2570.4	89.0702
2585.23	88.7228
2600.16	88.3772
2615.17	88.0336
2630.27	87.6918
2645.45	87.3517
2660.73	87.0134
2676.09	86.6767
2691.53	86.3417
2707.07	86.0082
2722.7	85.6663
2738.42	85.309
2754.23	84.9533
2770.13	84.5992
2786.12	84.2465
2802.21	83.8952
2818.38	83.5452
2834.65	83.1964
2851.02	82.8494
2867.48	82.5131
2884.03	82.1779
2900.68	81.8438
2917.43	81.5109
2934.27	81.1791
2951.21	80.8485
2968.25	80.519
2985.38	80.1907
3002.62	79.8637
3019.95	79.5378
3037.39	79.2132
3054.92	78.8899
3072.56	78.5678
3090.3	78.2471
3108.14	77.9276
3126.08	77.6094
3144.13	77.2926
3162.28	76.9771
3180.53	76.6629
3198.9	76.3502
3217.36	76.0388
3235.94	75.7288
3254.62	75.4203
3273.41	75.1131
3292.3	74.8074
3311.31	74.5032
3330.43	74.2004
3349.65	73.8991
3368.99	73.5993
3388.44	73.301
3408	73.0042
3427.68	72.7089
3447.47	72.4151
3467.37	72.1229
3487.39	71.8323
3507.52	71.5432
3527.77	71.2557
3548.13	70.9697
3568.62	70.6854
3589.22	70.4026
3609.94	70.1215
3630.78	69.8419
3651.74	69.564
3672.82	69.2877
3694.03	69.013
3715.35	68.7399
3736.8	68.4685
3758.37	68.1987
3780.07	67.9306
3801.89	67.6639
3823.84	67.3975
3845.92	67.1327
3868.12	66.8695
3890.45	66.608
3912.91	66.3481
3935.5	66.0899
3958.22	65.8333
3981.07	65.5783
4004.05	65.325
4027.17	65.0733
4050.42	64.8232
4073.8	64.5748
4097.32	64.328
4120.98	64.0828
4144.77	63.8392
4168.69	63.5972
4192.76	63.3568
4216.97	63.118
4241.31	62.8808
4265.8	62.6451
4290.42	62.4109
4315.19	62.1783
4340.1	61.9472
4365.16	61.7175
4390.36	61.4894
4415.7	61.2626
4441.2	61.0374
4466.84	60.8135
4492.62	60.591
4518.56	60.3699
4544.65	60.15
4570.88	59.9315
4597.27	59.7143
4623.81	59.4983
4650.5	59.2834
4677.35	59.0698
4704.35	58.8573
4731.51	58.6458
4758.83	58.4354
4786.3	58.2259
4813.93	58.0174
4841.72	57.81
4869.68	57.6036
4897.79	57.3982
4926.06	57.1939
4954.5	56.9906
4983.1	56.7883
5011.87	56.5871
5040.81	56.387
5069.91	56.1879
5099.18	55.9899
5128.61	55.7929
5158.22	55.597
5188	55.4021
5217.95	55.2084
5248.07	55.0156
5278.37	54.824
5308.84	54.6334
5339.49	54.4438
5370.32	54.2554
5401.32	54.0679
5432.5	53.8816
5463.87	53.6962
5495.41	53.5119
5527.13	53.3287
5559.04	53.1464
5591.14	52.9652
5623.41	52.785
5655.88	52.6058
5688.53	52.4276
5721.37	52.2501
5754.4	52.0735
5787.62	51.8978
5821.03	51.7232
5854.64	51.5495
5888.44	51.3768
5922.43	51.2052
5956.62	51.0345
5991.01	50.8649
6025.6	50.6963
6060.38	50.5287
6095.37	50.3621
6130.56	50.1966
6165.95	50.0321
6201.55	49.8686
6237.35	49.7061
6273.36	49.5447
6309.57	49.3843
6346	49.2249
6382.63	49.0666
6419.48	48.9093
6456.54	48.753
6493.82	48.5977
6531.31	48.4434
6569.01	48.2902
6606.93	48.138
6645.08	47.9867
6683.44	47.8365
6722.02	47.6873
6760.83	47.539
6799.86	47.3917
6839.12	47.2454
6878.6	47.1
6918.31	46.9556
6958.25	46.8121
6998.42	46.6696
7038.82	46.5279
7079.46	46.3872
7120.33	46.2473
7161.43	46.1083
7202.78	45.9701
7244.36	45.8327
7286.18	45.6962
7328.25	45.5605
7370.55	45.4255
7413.1	45.2912
7455.9	45.1577
7498.94	45.0249
7542.23	44.8927
7585.78	44.7612
7629.57	44.6312
7673.61	44.5022
7717.92	44.3739
7762.47	44.2461
7807.28	44.119
7852.36	43.9926
7897.69	43.8667
7943.28	43.7416
7989.14	43.617
8035.26	43.4932
8081.65	43.37
8128.31	43.2474
8175.23	43.1256
8222.43	43.0044
8269.9	42.8838
8317.64	42.764
8365.66	42.6449
8413.95	42.5264
8462.53	42.4086
8511.38	42.2916
8560.52	42.1752
8609.94	42.0595
8659.64	41.9445
8709.64	41.8302
8759.92	41.7166
8810.49	41.6038
8861.35	41.4916
8912.51	41.3801
8963.96	41.2693
9015.71	41.1592
9067.76	41.0499
9120.11	40.9412
9172.76	40.8332
9225.71	40.7259
9278.97	40.6193
9332.54	40.5134
9386.42	40.4082
9440.61	40.3036
9495.11	40.1998
9549.93	40.0963
9605.06	39.9935
9660.51	39.8914
9716.28	39.7899
9772.37	39.6891
9828.79	39.589
9885.53	39.4895
9942.6	39.3908
10000	39.2926
10057.7	39.1952
10115.8	39.0984
10174.2	39.0023
10232.9	38.9069
10292	38.8121
10351.4	38.718
10411.2	38.6245
10471.3	38.5317
10531.7	38.4395
10592.5	38.348
10653.7	38.2571
10715.2	38.1668
10777.1	38.0772
10839.3	37.9882
10901.8	37.8997
10964.8	37.8119
11028.1	37.7247
11091.7	37.638
11155.8	37.5519
11220.2	37.4664
11285	37.3814
11350.1	37.297
11415.6	37.2131
11481.5	37.1296
11547.8	37.0467
11614.5	36.9644
11681.5	36.8825
11749	36.8011
11816.8	36.7203
11885	36.64
11953.6	36.5602
12022.6	36.481
12092.1	36.4023
12161.9	36.3241
12232.1	36.2464
12302.7	36.1692
12373.7	36.0926
12445.1	36.0165
12517	35.9409
12589.3	35.8658
12661.9	35.7912
12735	35.7172
12808.6	35.6436
12882.5	35.5706
12956.9	35.4981
13031.7	35.4261
13106.9	35.3545
13182.6	35.2835
13258.7	35.213
13335.2	35.1429
13412.2	35.0733
13489.6	35.0042
13567.5	34.9355
13645.8	34.8674
13724.6	34.7997
13803.8	34.7325
13883.5	34.6658
13963.7	34.5996
14044.3	34.5338
14125.4	34.4685
14206.9	34.4037
14288.9	34.3394
14371.4	34.2755
14454.4	34.2121
14537.8	34.1491
14621.8	34.0867
14706.2	34.0246
14791.1	33.9631
14876.5	33.9019
14962.4	33.8413
15048.7	33.781
15135.6	33.7212
15223	33.6618
15310.9	33.6029
15399.3	33.5443
15488.2	33.4862
15577.6	33.4285
15667.5	33.3713
15758	33.3144
15848.9	33.258
15940.4	33.202
16032.5	33.1464
16125	33.0912
16218.1	33.0364
16311.7	32.9821
16405.9	32.9281
16500.6	32.8745
16595.9	32.8214
16691.7	32.7686
16788	32.7162
16885	32.6642
16982.4	32.6126
17080.5	32.5614
17179.1	32.5105
17278.3	32.46
17378	32.4098
17478.3	32.36
17579.2	32.3106
17680.7	32.2614
17782.8	32.2126
17885.5	32.1642
17988.7	32.116
18092.6	32.0681
18197	32.0205
18302.1	31.9732
18407.7	31.9261
18514	31.8793
18620.9	31.8328
18728.4	31.7864
18836.5	31.7403
18945.2	31.6944
19054.6	31.6479
19164.6	31.6011
19275.2	31.5545
19386.5	31.5083
19498.4	31.4625
19611	31.417
19724.2	31.3719
19838.1	31.3272
19952.6	31.2827
20067.8	31.2387
20183.7	31.1949
20300.2	31.1515
20417.4	31.1085
20535.3	31.0658
20653.8	31.0234
20773	30.9813
20893	30.9396
21013.6	30.8982
21134.9	30.8572
21256.9	30.8164
21379.6	30.776
21503	30.7359
21627.2	30.6962
21752	30.6567
21877.6	30.6176
22003.9	30.5788
22130.9	30.5403
22258.7	30.5021
22387.2	30.4642
22516.5	30.4267
22646.4	30.3894
22777.2	30.3524
22908.7	30.3158
23040.9	30.2794
23173.9	30.2434
23307.7	30.2076
23442.3	30.1722
23577.6	30.137
23713.7	30.1022
23850.6	30.0676
23988.3	30.0333
24126.8	29.9993
24266.1	29.9656
24406.2	29.9322
24547.1	29.899
24688.8	29.8662
24831.3	29.8336
24974.7	29.8013
25118.9	29.7692
25263.9	29.7375
25409.7	29.706
25556.4	29.6748
25704	29.6439
25852.3	29.6132
26001.6	29.5828
26151.7	29.5527
26302.7	29.5228
26454.5	29.4932
26607.3	29.4639
26760.9	29.4348
26915.3	29.406
27070.7	29.3774
27227	29.3491
27384.2	29.321
27542.3	29.2932
27701.3	29.2657
27861.2	29.2384
28022.1	29.2113
28183.8	29.1845
28346.5	29.1579
28510.2	29.1316
28674.8	29.1055
28840.3	29.0797
29006.8	29.0541
29174.3	29.0287
29342.7	29.0036
29512.1	28.9787
29682.5	28.954
29853.8	28.9296
30026.2	28.9054
30199.5	28.8814
30373.9	28.8577
30549.2	28.8342
30725.6	28.8109
30903	28.7878
31081.4	28.765
31260.8	28.7424
31441.3	28.72
31622.8	28.6978
31805.3	28.6758
31989	28.6541
32173.6	28.6326
32359.4	28.6112
32546.2	28.5901
32734.1	28.5692
32923	28.5485
33113.1	28.5281
33304.3	28.5078
33496.5	28.4877
33689.9	28.4678
33884.4	28.4482
34080	28.4287
34276.8	28.4095
34474.7	28.3904
34673.7	28.3715
34873.9	28.3529
35075.2	28.3344
35277.7	28.3161
35481.3	28.298
35686.2	28.2801
35892.2	28.2624
36099.4	28.2449
36307.8	28.2276
36517.4	28.2104
36728.2	28.1935
36940.3	28.1767
37153.5	28.1601
37368	28.1437
37583.7	28.1275
37800.7	28.1115
38018.9	28.0956
38238.4	28.0799
38459.2	28.0644
38681.2	28.0491
38904.5	28.0339
39129.1	28.0189
39355	28.0041
39582.2	27.9894
39810.7	27.975
40040.5	27.9606
40271.7	27.9465
40504.2	27.9325
40738	27.9187
40973.2	27.9051
41209.8	27.8916
41447.7	27.8782
41686.9	27.8651
41927.6	27.8521
42169.7	27.8392
42413.1	27.8265
42658	27.814
42904.2	27.8016
43151.9	27.7894
43401	27.7773
43651.6	27.7654
43903.6	27.7536
44157	27.742
44412	27.7306
44668.4	27.7192
44926.2	27.7081
45185.6	27.697
45446.5	27.6861
45708.8	27.6754
45972.7	27.6648
46238.1	27.6543
46505	27.644
46773.5	27.6338
47043.5	27.6238
47315.1	27.6139
47588.3	27.6041
47863	27.5945
48139.3	27.585
48417.2	27.5757
48696.8	27.5664
48977.9	27.5573
49260.6	27.5484
49545	27.5396
49831	27.5309
50118.7	27.5223
50408.1	27.5138
50699.1	27.5055
50991.8	27.4973
51286.1	27.4892
51582.2	27.4813
51880	27.4735
52179.5	27.4658
52480.7	27.4582
52783.7	27.4507
53088.4	27.4434
53394.9	27.4361
53703.2	27.429
54013.2	27.422
54325	27.4152
54638.7	27.4084
54954.1	27.4017
55271.3	27.3952
55590.4	27.3888
55911.4	27.3825
56234.1	27.3763
56558.8	27.3702
56885.3	27.3642
57213.7	27.3583
57544	27.3525
57876.2	27.3469
58210.3	27.3413
58546.4	27.3359
58884.4	27.3305
59224.3	27.3253
59566.2	27.3201
59910.1	27.3151
60256	27.3101
60603.8	27.3053
60953.7	27.3006
61305.6	27.2959
61659.5	27.2914
62015.5	27.2869
62373.5	27.2825
62733.6	27.2783
63095.7	27.2741
63460	27.27
63826.3	27.266
64194.8	27.2622
64565.4	27.2584
64938.2	27.2546
65313.1	27.251
65690.1	27.2475
66069.3	27.2441
66450.8	27.2407
66834.4	27.2374
67220.2	27.2342
67608.3	27.2311
67998.6	27.2281
68391.2	27.2252
68786	27.2224
69183.1	27.2196
69582.5	27.2169
69984.2	27.2143
70388.2	27.2118
70794.6	27.2093
71203.3	27.207
71614.3	27.2047
72027.8	27.2025
72443.6	27.2003
72861.8	27.1983
73282.5	27.1963
73705.5	27.1944
74131	27.1926
74559	27.1908
74989.4	27.1891
75422.3	27.1875
75857.8	27.186
76295.7	27.1845
76736.1	27.1831
77179.2	27.1818
77624.7	27.1805
78072.8	27.1793
78523.6	27.1782
78976.9	27.1771
79432.8	27.1761
79891.4	27.1752
80352.6	27.1743
80816.5	27.1735
81283.1	27.1728
81752.3	27.1721
82224.3	27.1715
82699	27.171
83176.4	27.1705
83656.6	27.1701
84139.5	27.1697
84625.3	27.1694
85113.8	27.1692
85605.2	27.169
86099.4	27.1689
86596.4	27.1688
87096.4	27.1688
87599.2	27.1688
88104.9	27.1689
88613.5	27.1691
89125.1	27.1693
89639.6	27.1696
90157.1	27.1699
90677.6	27.1703
91201.1	27.1707
91727.6	27.1712
92257.1	27.1717
92789.7	27.1723
93325.4	27.1729
93864.2	27.1736
94406.1	27.1743
94951.1	27.1751
95499.3	27.1759
96050.6	27.1768
96605.1	27.1777
97162.8	27.1787
97723.7	27.1797
98287.9	27.1808
98855.3	27.1819
99426	27.183
100000	27.1842
100577	27.1854
101158	27.1867
101742	27.1881
102329	27.1894
102920	27.1908
103514	27.1923
104112	27.1938
104713	27.1953
105317	27.1969
105925	27.1985
106537	27.2002
107152	27.2019
107771	27.2036
108393	27.2054
109018	27.2072
109648	27.209
110281	27.2109
110917	27.2128
111558	27.2147
112202	27.2167
112850	27.2188
113501	27.2208
114156	27.2229
114815	27.225
115478	27.2272
116145	27.2294
116815	27.2316
117490	27.2339
118168	27.2362
118850	27.2385
119536	27.2408
120226	27.2432
120921	27.2456
121619	27.2481
122321	27.2505
123027	27.253
123737	27.2555
124451	27.2581
125170	27.2607
125893	27.2633
126619	27.2659
127350	27.2686
128086	27.2713
128825	27.274
129569	27.2768
130317	27.2795
131069	27.2823
131826	27.2851
132587	27.288
133352	27.2908
134122	27.2937
134896	27.2966
135675	27.2996
136458	27.3025
137246	27.3055
138038	27.3085
138835	27.3116
139637	27.3146
140443	27.3177
141254	27.3208
142069	27.3239
142889	27.327
143714	27.3301
144544	27.3333
145378	27.3365
146218	27.3397
147062	27.3429
147911	27.3462
148765	27.3494
149624	27.3527
150487	27.356
151356	27.3593
152230	27.3626
153109	27.366
153993	27.3693
154882	27.3727
155776	27.3761
156675	27.3795
157580	27.383
158489	27.3864
159404	27.3898
160325	27.3933
161250	27.3968
162181	27.4003
163117	27.4038
164059	27.4073
165006	27.4109
165959	27.4144
166917	27.418
167880	27.4215
168850	27.4251
169824	27.4287
170805	27.4323
171791	27.4359
172783	27.4396
173780	27.4432
174783	27.4469
175792	27.4505
176807	27.4542
177828	27.4579
178855	27.4616
179887	27.4653
180926	27.469
181970	27.4727
183021	27.4764
184077	27.4802
185140	27.4839
186209	27.4877
187284	27.4914
188365	27.4952
189452	27.499
190546	27.5028
191646	27.5065
192752	27.5103
193865	27.5141
194984	27.518
196110	27.5218
197242	27.5256
198381	27.5294
199526	27.5333
200678	27.5371
201837	27.5409
203002	27.5448
204174	27.5486
205353	27.5525
206538	27.5564
207730	27.5602
208930	27.5641
210136	27.568
211349	27.5719
212569	27.5757
213796	27.5796
215030	27.5835
216272	27.5874
217520	27.5913
218776	27.5952
220039	27.5991
221309	27.603
222587	27.6069
223872	27.6108
225165	27.6147
226464	27.6187
227772	27.6226
229087	27.6265
230409	27.6304
231739	27.6343
233077	27.6382
234423	27.6422
235776	27.6461
237137	27.65
238506	27.6539
239883	27.6579
241268	27.6618
242661	27.6657
244062	27.6696
245471	27.6736
246888	27.6775
248313	27.6814
249747	27.6853
251189	27.6892
252639	27.6932
254097	27.6971
255564	27.701
257040	27.7049
258523	27.7088
260016	27.7128
261517	27.7167
263027	27.7206
264545	27.7245
266073	27.7284
267609	27.7323
269153	27.7362
270707	27.7401
272270	27.744
273842	27.7479
275423	27.7518
277013	27.7557
278612	27.7596
280221	27.7635
281838	27.7673
283465	27.7712
285102	27.7751
286748	27.779
288403	27.7828
290068	27.7867
291743	27.7906
293427	27.7944
295121	27.7983
296825	27.8021
298538	27.806
300262	27.8098
301995	27.8136
303739	27.8175
305492	27.8213
307256	27.8251
309030	27.8289
310814	27.8328
312608	27.8366
314413	27.8404
316228	27.8442
318053	27.848
319890	27.8518
321736	27.8555
323594	27.8593
325462	27.8631
327341	27.8669
329230	27.8706
331131	27.8744
333043	27.8781
334965	27.8819
336899	27.8856
338844	27.8894
340800	27.8931
342768	27.8968
344747	27.9005
346737	27.9042
348739	27.9079
350752	27.9116
352777	27.9153
354813	27.919
356862	27.9227
358922	27.9264
360994	27.93
363078	27.9337
365174	27.9373
367282	27.941
369403	27.9446
371535	27.9482
373680	27.9519
375837	27.9555
378007	27.9591
380189	27.9627
382384	27.9663
384592	27.9699
386812	27.9735
389045	27.977
391291	27.9806
393550	27.9842
395822	27.9877
398107	27.9913
400405	27.9948
402717	27.9983
405042	28.0018
407380	28.0054
409732	28.0089
412098	28.0124
414477	28.0158
416869	28.0193
419276	28.0228
421697	28.0263
424131	28.0297
426580	28.0332
429042	28.0366
431519	28.04
434010	28.0435
436516	28.0469
439036	28.0503
441570	28.0537
444120	28.0571
446684	28.0605
449262	28.0638
451856	28.0672
454465	28.0706
457088	28.0739
459727	28.0772
462381	28.0806
465050	28.0839
467735	28.0872
470435	28.0905
473151	28.0938
475883	28.0971
478630	28.1004
481393	28.1036
484172	28.1069
486968	28.1102
489779	28.1134
492606	28.1166
495450	28.1199
498310	28.1231
501187	28.1263
504081	28.1295
506991	28.1327
509918	28.1358
512861	28.139
515822	28.1422
518800	28.1453
521795	28.1485
524807	28.1516
527837	28.1547
530884	28.1578
533949	28.1609
537032	28.164
540132	28.1671
543250	28.1702
546387	28.1733
549541	28.1763
552713	28.1794
555904	28.1824
559114	28.1855
562341	28.1885
565588	28.1915
568853	28.1945
572137	28.1975
575440	28.2005
578762	28.2034
582103	28.2064
585464	28.2094
588844	28.2123
592243	28.2152
595662	28.2182
599101	28.2211
602560	28.224
606038	28.2269
609537	28.2298
613056	28.2326
616595	28.2355
620155	28.2384
623735	28.2412
627336	28.2441
630957	28.2469
634600	28.2497
638263	28.2525
641948	28.2553
645654	28.2581
649382	28.2609
653131	28.2637
656901	28.2664
660693	28.2692
664508	28.2719
668344	28.2746
672202	28.2774
676083	28.2801
679986	28.2828
683912	28.2855
687860	28.2882
691831	28.2908
695825	28.2935
699842	28.2961
703882	28.2988
707946	28.3014
712033	28.304
716143	28.3067
720278	28.3093
724436	28.3119
728618	28.3144
732825	28.317
737055	28.3196
741310	28.3221
745590	28.3247
749894	28.3272
754223	28.3298
758578	28.3323
762957	28.3348
767361	28.3373
771792	28.3398
776247	28.3422
780728	28.3447
785236	28.3472
789769	28.3496
794328	28.3521
798914	28.3545
803526	28.3569
808165	28.3593
812831	28.3617
817523	28.3641
822243	28.3665
826990	28.3689
831764	28.3712
836566	28.3736
841395	28.3759
846253	28.3782
851138	28.3806
856052	28.3829
860994	28.3852
865964	28.3875
870964	28.3898
875992	28.392
881049	28.3943
886135	28.3966
891251	28.3988
896396	28.401
901571	28.4033
906776	28.4055
912011	28.4077
917276	28.4099
922571	28.4121
927897	28.4143
933254	28.4164
938642	28.4186
944061	28.4207
949511	28.4229
954993	28.425
960506	28.4271
966051	28.4292
971628	28.4313
977237	28.4334
982879	28.4355
988553	28.4376
994260	28.4397
1e+06	28.4417
1.00577e+06	28.4438
1.01158e+06	28.4458
1.01742e+06	28.4478
1.02329e+06	28.4498
1.0292e+06	28.4518
1.03514e+06	28.4538
1.04112e+06	28.4558
1.04713e+06	28.4578
1.05317e+06	28.4598
1.05925e+06	28.4618
1.06537e+06	28.4637
1.07152e+06	28.4656
1.07771e+06	28.4676
1.08393e+06	28.4695
1.09018e+06	28.4714
1.09648e+06	28.4733
1.10281e+06	28.4752
1.10917e+06	28.4771
1.11558e+06	28.479
1.12202e+06	28.4809
1.1285e+06	28.4827
1.13501e+06	28.4846
1.14156e+06	28.4864
1.14815e+06	28.4883
1.15478e+06	28.4901
1.16145e+06	28.4919
1.16815e+06	28.4937
1.1749e+06	28.4955
1.18168e+06	28.4973
1.1885e+06	28.4991
1.19536e+06	28.5008
1.20226e+06	28.5026
1.20921e+06	28.5044
1.21619e+06	28.5061
1.22321e+06	28.5078
1.23027e+06	28.5096
1.23737e+06	28.5113
1.24451e+06	28.513
1.2517e+06	28.5147
1.25893e+06	28.5164
1.26619e+06	28.5181
1.2735e+06	28.5198
1.28086e+06	28.5214
1.28825e+06	28.5231
1.29569e+06	28.5247
1.30317e+06	28.5264
1.31069e+06	28.528
1.31826e+06	28.5296
1.32587e+06	28.5312
1.33352e+06	28.5328
1.34122e+06	28.5344
1.34896e+06	28.536
1.35675e+06	28.5376
1.36458e+06	28.5392
1.37246e+06	28.5407
1.38038e+06	28.5423
1.38835e+06	28.5438
1.39637e+06	28.5454
1.40443e+06	28.5469
1.41254e+06	28.5484
1.42069e+06	28.5499
1.42889e+06	28.5514
1.43714e+06	28.5529
1.44544e+06	28.5544
1.45378e+06	28.5559
1.46218e+06	28.5574
1.47062e+06	28.5588
1.47911e+06	28.5603
1.48765e+06	28.5617
1.49624e+06	28.5632
1.50487e+06	28.5646
1.51356e+06	28.566
1.5223e+06	28.5674
1.53109e+06	28.5688
1.53993e+06	28.5702
1.54882e+06	28.5716
1.55776e+06	28.573
1.56675e+06	28.5744
1.5758e+06	28.5757
1.58489e+06	28.5771
1.59404e+06	28.5784
1.60325e+06	28.5798
1.6125e+06	28.5811
1.62181e+06	28.5824
1.63117e+06	28.5838
1.64059e+06	28.5851
1.65006e+06	28.5864
1.65959e+06	28.5877
1.66917e+06	28.589
1.6788e+06	28.5902
1.6885e+06	28.5915
1.69824e+06	28.5928
1.70805e+06	28.594
1.71791e+06	28.5953
1.72783e+06	28.5965
1.7378e+06	28.5977
1.74783e+06	28.599
1.75792e+06	28.6002
1.76807e+06	28.6014
1.77828e+06	28.6026
1.78855e+06	28.6038
1.79887e+06	28.605
1.80926e+06	28.6061
1.8197e+06	28.6073
1.83021e+06	28.6085
1.84077e+06	28.6096
1.8514e+06	28.6108
1.86209e+06	28.6119
1.87284e+06	28.6131
1.88365e+06	28.6142
1.89452e+06	28.6153
1.90546e+06	28.6164
1.91646e+06	28.6175
1.92752e+06	28.6186
1.93865e+06	28.6197
1.94984e+06	28.6208
1.9611e+06	28.6219
1.97242e+06	28.623
1.98381e+06	28.624
1.99526e+06	28.6251
2.00678e+06	28.6261
2.01837e+06	28.6272
2.03002e+06	28.6282
2.04174e+06	28.6292
2.05353e+06	28.6302
2.06538e+06	28.6313
2.0773e+06	28.6323
2.0893e+06	28.6333
2.10136e+06	28.6343
2.11349e+06	28.6352
2.12569e+06	28.6362
2.13796e+06	28.6372
2.1503e+06	28.6382
2.16272e+06	28.6391
2.1752e+06	28.6401
2.18776e+06	28.641
2.20039e+06	28.642
2.21309e+06	28.6429
2.22587e+06	28.6438
2.23872e+06	28.6447
2.25165e+06	28.6456
2.26464e+06	28.6466
2.27772e+06	28.6475
2.29087e+06	28.6483
2.30409e+06	28.6492
2.31739e+06	28.6501
2.33077e+06	28.651
2.34423e+06	28.6519
2.35776e+06	28.6527
2.37137e+06	28.6536
2.38506e+06	28.6544
2.39883e+06	28.6553
2.41268e+06	28.6561
2.42661e+06	28.6569
2.44062e+06	28.6577
2.45471e+06	28.6586
2.46888e+06	28.6594
2.48313e+06	28.6602
2.49747e+06	28.661
2.51189e+06	28.6618
2.52639e+06	28.6625
2.54097e+06	28.6633
2.55564e+06	28.6641
2.5704e+06	28.6649
2.58523e+06	28.6656
2.60016e+06	28.6664
2.61517e+06	28.6671
2.63027e+06	28.6679
2.64545e+06	28.6686
2.66073e+06	28.6693
2.67609e+06	28.6701
2.69153e+06	28.6708
2.70707e+06	28.6715
2.7227e+06	28.6722
2.73842e+06	28.6729
2.75423e+06	28.6736
2.77013e+06	28.6743
2.78612e+06	28.675
2.80221e+06	28.6757
2.81838e+06	28.6763
2.83465e+06	28.677
2.85102e+06	28.6777
2.86748e+06	28.6783
2.88403e+06	28.679
2.90068e+06	28.6796
2.91743e+06	28.6803
2.93427e+06	28.6809
2.95121e+06	28.6815
2.96825e+06	28.6822
2.98538e+06	28.6828
3.00262e+06	28.6834
3.01995e+06	28.684
3.03739e+06	28.6846
3.05492e+06	28.6852
3.07256e+06	28.6858
3.0903e+06	28.6864
3.10814e+06	28.687
3.12608e+06	28.6875
3.14413e+06	28.6881
3.16228e+06	28.6887
3.18053e+06	28.6892
3.1989e+06	28.6898
3.21736e+06	28.6904
3.23594e+06	28.6909
3.25462e+06	28.6914
3.27341e+06	28.692
3.2923e+06	28.6925
3.31131e+06	28.693
3.33043e+06	28.6936
3.34965e+06	28.6941
3.36899e+06	28.6946
3.38844e+06	28.6951
3.408e+06	28.6956
3.42768e+06	28.6961
3.44747e+06	28.6966
3.46737e+06	28.6971
3.48739e+06	28.6976
3.50752e+06	28.698
3.52777e+06	28.6985
3.54813e+06	28.699
3.56862e+06	28.6994
3.58922e+06	28.6999
3.60994e+06	28.7004
3.63078e+06	28.7008
3.65174e+06	28.7012
3.67282e+06	28.7017
3.69403e+06	28.7021
3.71535e+06	28.7026
3.7368e+06	28.703
3.75837e+06	28.7034
3.78007e+06	28.7038
3.80189e+06	28.7042
3.82384e+06	28.7047
3.84592e+06	28.7051
3.86812e+06	28.7055
3.89045e+06	28.7059
3.91291e+06	28.7063
3.9355e+06	28.7066
3.95822e+06	28.707
3.98107e+06	28.7074
4.00405e+06	28.7078
4.02717e+06	28.7082
4.05042e+06	28.7085
4.0738e+06	28.7089
4.09732e+06	28.7092
4.12098e+06	28.7096
4.14477e+06	28.71
4.16869e+06	28.7103
4.19276e+06	28.7107
4.21697e+06	28.711
4.24131e+06	28.7113
4.2658e+06	28.7117
4.29042e+06	28.712
4.31519e+06	28.7123
4.3401e+06	28.7126
4.36516e+06	28.713
4.39036e+06	28.7133
4.4157e+06	28.7136
4.4412e+06	28.7139
4.46684e+06	28.7142
4.49262e+06	28.7145
4.51856e+06	28.7148
4.54465e+06	28.7151
4.57088e+06	28.7154
4.59727e+06	28.7156
4.62381e+06	28.7159
4.6505e+06	28.7162
4.67735e+06	28.7165
4.70435e+06	28.7167
4.73151e+06	28.717
4.75883e+06	28.7173
4.7863e+06	28.7175
4.81393e+06	28.7178
4.84172e+06	28.718
4.86968e+06	28.7183
4.89779e+06	28.7185
4.92606e+06	28.7188
4.9545e+06	28.719
4.9831e+06	28.7193
5.01187e+06	28.7195
5.04081e+06	28.7197
5.06991e+06	28.72
5.09918e+06	28.7202
5.12861e+06	28.7204
5.15822e+06	28.7206
5.188e+06	28.7208
5.21795e+06	28.721
5.24807e+06	28.7213
5.27837e+06	28.7215
5.30884e+06	28.7217
5.33949e+06	28.7219
5.37032e+06	28.7221
5.40132e+06	28.7223
5.4325e+06	28.7224
5.46387e+06	28.7226
5.49541e+06	28.7228
5.52713e+06	28.723
5.55904e+06	28.7232
5.59114e+06	28.7234
5.62341e+06	28.7235
5.65588e+06	28.7237
5.68853e+06	28.7239
5.72137e+06	28.724
5.7544e+06	28.7242
5.78762e+06	28.7244
5.82103e+06	28.7245
5.85464e+06	28.7247
5.88844e+06	28.7248
5.92243e+06	28.725
5.95662e+06	28.7251
5.99101e+06	28.7253
6.0256e+06	28.7254
6.06038e+06	28.7256
6.09537e+06	28.7257
6.13056e+06	28.7258
6.16595e+06	28.726
6.20155e+06	28.7261
6.23735e+06	28.7262
6.27336e+06	28.7264
6.30957e+06	28.7265
6.346e+06	28.7266
6.38263e+06	28.7267
6.41948e+06	28.7268
6.45654e+06	28.727
6.49382e+06	28.7271
6.53131e+06	28.7272
6.56901e+06	28.7273
6.60693e+06	28.7274
6.64508e+06	28.7275
6.68344e+06	28.7276
6.72202e+06	28.7277
6.76083e+06	28.7278
6.79986e+06	28.7279
6.83912e+06	28.728
6.8786e+06	28.7281
6.91831e+06	28.7282
6.95825e+06	28.7283
6.99842e+06	28.7284
7.03882e+06	28.7284
7.07946e+06	28.7285
7.12033e+06	28.7286
7.16143e+06	28.7287
7.20278e+06	28.7288
7.24436e+06	28.7288
7.28618e+06	28.7289
7.32825e+06	28.729
7.37055e+06	28.7291
7.4131e+06	28.7291
7.4559e+06	28.7292
7.49894e+06	28.7293
7.54223e+06	28.7293
7.58578e+06	28.7294
7.62957e+06	28.7294
7.67361e+06	28.7295
7.71792e+06	28.7296
7.76247e+06	28.7296
7.80728e+06	28.7297
7.85236e+06	28.7297
7.89769e+06	28.7298
7.94328e+06	28.7298
7.98914e+06	28.7299
8.03526e+06	28.7299
8.08165e+06	28.73
8.12831e+06	28.73
8.17523e+06	28.7301
8.22243e+06	28.7301
8.2699e+06	28.7302
8.31764e+06	28.7302
8.36566e+06	28.7302
8.41395e+06	28.7303
8.46253e+06	28.7303
8.51138e+06	28.7303
8.56052e+06	28.7304
8.60994e+06	28.7304
8.65964e+06	28.7304
8.70964e+06	28.7305
8.75992e+06	28.7305
8.81049e+06	28.7305
8.86135e+06	28.7306
8.91251e+06	28.7306
8.96396e+06	28.7306
9.01571e+06	28.7306
9.06776e+06	28.7307
9.12011e+06	28.7307
9.17276e+06	28.7307
9.22571e+06	28.7307
9.27897e+06	28.7307
9.33254e+06	28.7308
9.38642e+06	28.7308
9.44061e+06	28.7308
9.49511e+06	28.7308
9.54993e+06	28.7308
9.60506e+06	28.7308
9.66051e+06	28.7308
9.71628e+06	28.7309
9.77237e+06	28.7309
9.82879e+06	28.7309
9.88553e+06	28.7309
9.9426e+06	28.7309
1e+07	28.7309
