Stopping power dEdx from Ionisation for He3 Z = 2 in G4_TISSUE_SOFT_ICRP, process name: ionIoni
E [MeV]	dEdx [MeV/mm]
0.001	16.3355
0.00100577	16.3816
0.00101158	16.4278
0.00101742	16.4742
0.00102329	16.5207
0.0010292	16.5673
0.00103514	16.6141
0.00104112	16.661
0.00104713	16.708
0.00105317	16.7552
0.00105925	16.8025
0.00106537	16.8499
0.00107152	16.8975
0.00107771	16.9452
0.00108393	16.9931
0.00109018	17.041
0.00109648	17.0892
0.00110281	17.1374
0.00110917	17.1859
0.00111558	17.2344
0.00112202	17.2831
0.0011285	17.3319
0.00113501	17.3809
0.00114156	17.43
0.00114815	17.4793
0.00115478	17.5287
0.00116145	17.5782
0.00116815	17.6279
0.0011749	17.6777
0.00118168	17.7277
0.0011885	17.7778
0.00119536	17.8281
0.00120226	17.8785
0.00120921	17.929
0.00121619	17.9797
0.00122321	18.0306
0.00123027	18.0816
0.00123737	18.1327
0.00124451	18.184
0.0012517	18.2355
0.00125893	18.287
0.00126619	18.3388
0.0012735	18.3907
0.00128086	18.4427
0.00128825	18.4949
0.00129569	18.5472
0.00130317	18.5997
0.00131069	18.6524
0.00131826	18.7052
0.00132587	18.7581
0.00133352	18.8112
0.00134122	18.8645
0.00134896	18.9179
0.00135675	18.9714
0.00136458	19.0252
0.00137246	19.079
0.00138038	19.1331
0.00138835	19.1873
0.00139637	19.2416
0.00140443	19.2961
0.00141254	19.3508
0.00142069	19.4056
0.00142889	19.4606
0.00143714	19.5157
0.00144544	19.571
0.00145378	19.6265
0.00146218	19.6821
0.00147062	19.7379
0.00147911	19.7938
0.00148765	19.8499
0.00149624	19.9062
0.00150487	19.9626
0.00151356	20.0192
0.0015223	20.076
0.00153109	20.1329
0.00153993	20.19
0.00154882	20.2472
0.00155776	20.3046
0.00156675	20.3622
0.0015758	20.42
0.00158489	20.4779
0.00159404	20.536
0.00160325	20.5943
0.0016125	20.6527
0.00162181	20.7113
0.00163117	20.7701
0.00164059	20.829
0.00165006	20.8881
0.00165959	20.9474
0.00166917	21.0069
0.0016788	21.0665
0.0016885	21.1263
0.00169824	21.1863
0.00170805	21.2464
0.00171791	21.3067
0.00172783	21.3672
0.0017378	21.4279
0.00174783	21.4888
0.00175792	21.5498
0.00176807	21.611
0.00177828	21.6724
0.00178855	21.734
0.00179887	21.7957
0.00180926	21.8576
0.0018197	21.9197
0.00183021	21.982
0.00184077	22.0445
0.0018514	22.1071
0.00186209	22.17
0.00187284	22.233
0.00188365	22.2962
0.00189452	22.3595
0.00190546	22.4231
0.00191646	22.4869
0.00192752	22.5508
0.00193865	22.6149
0.00194984	22.6792
0.0019611	22.7437
0.00197242	22.8084
0.00198381	22.8733
0.00199526	22.9383
0.00200678	23.0036
0.00201837	23.069
0.00203002	23.1346
0.00204174	23.2005
0.00205353	23.2665
0.00206538	23.3327
0.0020773	23.3991
0.0020893	23.4657
0.00210136	23.5325
0.00211349	23.5994
0.00212569	23.6666
0.00213796	23.734
0.0021503	23.8016
0.00216272	23.8693
0.0021752	23.9373
0.00218776	24.0055
0.00220039	24.0738
0.00221309	24.1424
0.00222587	24.2111
0.00223872	24.2801
0.00225165	24.3493
0.00226464	24.4186
0.00227772	24.4882
0.00229087	24.558
0.00230409	24.6279
0.00231739	24.6981
0.00233077	24.7685
0.00234423	24.8391
0.00235776	24.9099
0.00237137	24.9809
0.00238506	25.0521
0.00239883	25.1235
0.00241268	25.1951
0.00242661	25.267
0.00244062	25.339
0.00245471	25.4113
0.00246888	25.4837
0.00248313	25.5564
0.00249747	25.6293
0.00251189	25.7024
0.00252639	25.7757
0.00254097	25.8492
0.00255564	25.923
0.0025704	25.9969
0.00258523	26.0711
0.00260016	26.1455
0.00261517	26.2201
0.00263027	26.2949
0.00264545	26.37
0.00266073	26.4453
0.00267609	26.5207
0.00269153	26.5964
0.00270707	26.6724
0.0027227	26.7485
0.00273842	26.8249
0.00275423	26.9015
0.00277013	26.9783
0.00278612	27.0554
0.00280221	27.1326
0.00281838	27.2101
0.00283465	27.2879
0.00285102	27.3658
0.00286748	27.444
0.00288403	27.5224
0.00290068	27.601
0.00291743	27.6799
0.00293427	27.759
0.00295121	27.8383
0.00296825	27.9179
0.00298538	27.9977
0.00300262	28.0777
0.00301995	28.1401
0.00303739	28.1885
0.00305492	28.2693
0.00307256	28.3505
0.0030903	28.4318
0.00310814	28.5134
0.00312608	28.5952
0.00314413	28.6773
0.00316228	28.7596
0.00318053	28.8421
0.0031989	28.9249
0.00321736	29.0079
0.00323594	29.0912
0.00325462	29.1747
0.00327341	29.2584
0.0032923	29.3424
0.00331131	29.4267
0.00333043	29.5111
0.00334965	29.5959
0.00336899	29.6808
0.00338844	29.766
0.003408	29.8515
0.00342768	29.9372
0.00344747	30.0232
0.00346737	30.1094
0.00348739	30.1958
0.00350752	30.2825
0.00352777	30.3695
0.00354813	30.4567
0.00356862	30.5442
0.00358922	30.6319
0.00360994	30.7199
0.00363078	30.8081
0.00365174	30.8966
0.00367282	30.9854
0.00369403	31.0744
0.00371535	31.1637
0.0037368	31.2532
0.00375837	31.343
0.00378007	31.433
0.00380189	31.5234
0.00382384	31.6139
0.00384592	31.7048
0.00386812	31.7959
0.00389045	31.8873
0.00391291	31.9789
0.0039355	32.0708
0.00395822	32.163
0.00398107	32.2555
0.00400405	32.3482
0.00402717	32.4412
0.00405042	32.5345
0.0040738	32.628
0.00409732	32.7218
0.00412098	32.8159
0.00414477	32.9103
0.00416869	33.0049
0.00419276	33.0998
0.00421697	33.195
0.00424131	33.2905
0.0042658	33.3862
0.00429042	33.4823
0.00431519	33.5786
0.0043401	33.6752
0.00436516	33.7721
0.00439036	33.8692
0.0044157	33.9667
0.0044412	34.0644
0.00446684	34.1624
0.00449262	34.2607
0.00451856	34.3593
0.00454465	34.4582
0.00457088	34.5574
0.00459727	34.6569
0.00462381	34.7566
0.0046505	34.8567
0.00467735	34.957
0.00470435	35.0577
0.00473151	35.1586
0.00475883	35.2598
0.0047863	35.3614
0.00481393	35.4632
0.00484172	35.5653
0.00486968	35.6678
0.00489779	35.7705
0.00492606	35.8735
0.0049545	35.9769
0.0049831	36.0805
0.00501187	36.1845
0.00504081	36.2887
0.00506991	36.3933
0.00509918	36.4981
0.00512861	36.6033
0.00515822	36.7088
0.005188	36.8146
0.00521795	36.9207
0.00524807	37.0271
0.00527837	37.1338
0.00530884	37.2409
0.00533949	37.3482
0.00537032	37.4559
0.00540132	37.5639
0.0054325	37.6722
0.00546387	37.7808
0.00549541	37.8898
0.00552713	37.9991
0.00555904	38.1087
0.00559114	38.2186
0.00562341	38.3288
0.00565588	38.4394
0.00568853	38.5503
0.00572137	38.6615
0.0057544	38.773
0.00578762	38.8849
0.00582103	38.9971
0.00585464	39.1096
0.00588844	39.2225
0.00592243	39.3357
0.00595662	39.4492
0.00599101	39.5631
0.0060256	39.6773
0.00606038	39.7919
0.00609537	39.9067
0.00613056	40.022
0.00616595	40.1375
0.00620155	40.2534
0.00623735	40.3696
0.00627336	40.4862
0.00630957	40.6032
0.006346	40.7204
0.00638263	40.8381
0.00641948	40.956
0.00645654	41.0743
0.00649382	41.193
0.00653131	41.312
0.00656901	41.4314
0.00660693	41.5511
0.00664508	41.6712
0.00668344	41.7916
0.00672202	41.9124
0.00676083	42.0335
0.00679986	42.155
0.00683912	42.2769
0.0068786	42.3991
0.00691831	42.5217
0.00695825	42.6446
0.00699842	42.7679
0.00703882	42.8916
0.00707946	43.0156
0.00712033	43.14
0.00716143	43.2648
0.00720278	43.3899
0.00724436	43.5154
0.00728618	43.6413
0.00732825	43.7675
0.00737055	43.8941
0.0074131	44.0211
0.0074559	44.1485
0.00749894	44.2762
0.00754223	44.4044
0.00758578	44.5329
0.00762957	44.6617
0.00767361	44.791
0.00771792	44.9207
0.00776247	45.0507
0.00780728	45.1811
0.00785236	45.3119
0.00789769	45.4431
0.00794328	45.5746
0.00798914	45.7066
0.00803526	45.839
0.00808165	45.9717
0.00812831	46.1048
0.00817523	46.2384
0.00822243	46.3723
0.0082699	46.5066
0.00831764	46.6413
0.00836566	46.7764
0.00841395	46.912
0.00846253	47.0479
0.00851138	47.1842
0.00856052	47.3209
0.00860994	47.458
0.00865964	47.5956
0.00870964	47.7335
0.00875992	47.8719
0.00881049	48.0106
0.00886135	48.1498
0.00891251	48.2894
0.00896396	48.4294
0.00901571	48.5698
0.00906776	48.7106
0.00912011	48.8518
0.00917276	48.9935
0.00922571	49.1356
0.00927897	49.278
0.00933254	49.421
0.00938642	49.5643
0.00944061	49.7081
0.00949511	49.8523
0.00954993	49.9969
0.00960506	50.1419
0.00966051	50.2874
0.00971628	50.4333
0.00977237	50.5796
0.00982879	50.7264
0.00988553	50.8736
0.0099426	51.0212
0.01	51.1693
0.0100577	51.3178
0.0101158	51.4668
0.0101742	51.6162
0.0102329	51.766
0.010292	51.9163
0.0103514	52.067
0.0104112	52.2182
0.0104713	52.3698
0.0105317	52.5218
0.0105925	52.6744
0.0106537	52.8273
0.0107152	52.9807
0.0107771	53.1346
0.0108393	53.2889
0.0109018	53.4437
0.0109648	53.599
0.0110281	53.7547
0.0110917	53.9108
0.0111558	54.0674
0.0112202	54.2245
0.011285	54.3821
0.0113501	54.5401
0.0114156	54.6986
0.0114815	54.8575
0.0115478	55.017
0.0116145	55.1769
0.0116815	55.3372
0.011749	55.4981
0.0118168	55.6594
0.011885	55.8212
0.0119536	55.9835
0.0120226	56.1462
0.0120921	56.3094
0.0121619	56.4732
0.0122321	56.6374
0.0123027	56.8021
0.0123737	56.9672
0.0124451	57.1329
0.012517	57.299
0.0125893	57.4657
0.0126619	57.6328
0.012735	57.8005
0.0128086	57.9686
0.0128825	58.1372
0.0129569	58.3063
0.0130317	58.476
0.0131069	58.6461
0.0131826	58.8167
0.0132587	58.9878
0.0133352	59.1595
0.0134122	59.3316
0.0134896	59.5043
0.0135675	59.6774
0.0136458	59.8511
0.0137246	60.0253
0.0138038	60.2
0.0138835	60.3752
0.0139637	60.5509
0.0140443	60.7272
0.0141254	60.904
0.0142069	61.0813
0.0142889	61.2591
0.0143714	61.4374
0.0144544	61.6163
0.0145378	61.7957
0.0146218	61.9756
0.0147062	62.1561
0.0147911	62.3371
0.0148765	62.5186
0.0149624	62.7007
0.0150487	62.8833
0.0151356	63.0664
0.015223	63.2501
0.0153109	63.4343
0.0153993	63.6191
0.0154882	63.8044
0.0155776	63.9903
0.0156675	64.1767
0.015758	64.3636
0.0158489	64.5512
0.0159404	64.7392
0.0160325	64.9278
0.016125	65.117
0.0162181	65.3067
0.0163117	65.497
0.0164059	65.6879
0.0165006	65.8793
0.0165959	66.0713
0.0166917	66.2638
0.016788	66.4569
0.016885	66.6506
0.0169824	66.8448
0.0170805	67.0397
0.0171791	67.2351
0.0172783	67.431
0.017378	67.6276
0.0174783	67.8247
0.0175792	68.0224
0.0176807	68.2207
0.0177828	68.4196
0.0178855	68.619
0.0179887	68.8191
0.0180926	69.0197
0.018197	69.2209
0.0183021	69.4227
0.0184077	69.6251
0.018514	69.8281
0.0186209	70.0317
0.0187284	70.2359
0.0188365	70.4407
0.0189452	70.6461
0.0190546	70.8521
0.0191646	71.0587
0.0192752	71.2659
0.0193865	71.4738
0.0194984	71.6822
0.019611	71.8912
0.0197242	72.1009
0.0198381	72.3112
0.0199526	72.5221
0.0200678	72.7336
0.0201837	72.9457
0.0203002	73.1584
0.0204174	73.3718
0.0205353	73.5858
0.0206538	73.8004
0.020773	74.0157
0.020893	74.2316
0.0210136	74.4481
0.0211349	74.6653
0.0212569	74.883
0.0213796	75.1015
0.021503	75.3205
0.0216272	75.5402
0.021752	75.7606
0.0218776	75.9816
0.0220039	76.2032
0.0221309	76.4255
0.0222587	76.6484
0.0223872	76.872
0.0225165	77.0963
0.0226464	77.3212
0.0227772	77.5467
0.0229087	77.7729
0.0230409	77.9998
0.0231739	78.2273
0.0233077	78.4555
0.0234423	78.6844
0.0235776	78.9139
0.0237137	79.1441
0.0238506	79.375
0.0239883	79.6065
0.0241268	79.8387
0.0242661	80.0716
0.0244062	80.3052
0.0245471	80.5394
0.0246888	80.7744
0.0248313	81.01
0.0249747	81.2463
0.0251189	81.4833
0.0252639	81.7209
0.0254097	81.9593
0.0255564	82.1984
0.025704	82.4381
0.0258523	82.6785
0.0260016	82.9197
0.0261517	83.1615
0.0263027	83.4041
0.0264545	83.6473
0.0266073	83.8913
0.0267609	84.1359
0.0269153	84.3813
0.0270707	84.6274
0.027227	84.8741
0.0273842	85.1216
0.0275423	85.3699
0.0277013	85.6188
0.0278612	85.8684
0.0280221	86.1188
0.0281838	86.3699
0.0283465	86.6217
0.0285102	86.8743
0.0286748	87.1276
0.0288403	87.3816
0.0290068	87.6363
0.0291743	87.8918
0.0293427	88.148
0.0295121	88.4049
0.0296825	88.6626
0.0298538	88.921
0.0300262	89.1802
0.0301995	89.4401
0.0303739	89.7007
0.0305492	89.9621
0.0307256	90.2243
0.030903	90.4872
0.0310814	90.7508
0.0312608	91.0152
0.0314413	91.2804
0.0316228	91.5463
0.0318053	91.813
0.031989	92.0804
0.0321736	92.3487
0.0323594	92.6176
0.0325462	92.8874
0.0327341	93.1579
0.032923	93.4292
0.0331131	93.7012
0.0333043	93.974
0.0334965	94.2477
0.0336899	94.522
0.0338844	94.7972
0.03408	95.0731
0.0342768	95.3499
0.0344747	95.6274
0.0346737	95.9057
0.0348739	96.1848
0.0350752	96.4647
0.0352777	96.7453
0.0354813	97.0268
0.0356862	97.309
0.0358922	97.5921
0.0360994	97.876
0.0363078	98.1606
0.0365174	98.4461
0.0367282	98.7323
0.0369403	99.0194
0.0371535	99.3073
0.037368	99.596
0.0375837	99.8855
0.0378007	100.176
0.0380189	100.467
0.0382384	100.759
0.0384592	101.052
0.0386812	101.345
0.0389045	101.64
0.0391291	101.935
0.039355	102.231
0.0395822	102.528
0.0398107	102.825
0.0400405	103.124
0.0402717	103.423
0.0405042	103.723
0.040738	104.024
0.0409732	104.326
0.0412098	104.629
0.0414477	104.933
0.0416869	105.237
0.0419276	105.542
0.0421697	105.848
0.0424131	106.155
0.042658	106.463
0.0429042	106.771
0.0431519	107.081
0.043401	107.391
0.0436516	107.702
0.0439036	108.014
0.044157	108.327
0.044412	108.641
0.0446684	108.956
0.0449262	109.271
0.0451856	109.587
0.0454465	109.904
0.0457088	110.222
0.0459727	110.541
0.0462381	110.861
0.046505	111.182
0.0467735	111.503
0.0470435	111.826
0.0473151	112.149
0.0475883	112.473
0.047863	112.798
0.0481393	113.124
0.0484172	113.45
0.0486968	113.778
0.0489779	114.107
0.0492606	114.436
0.049545	114.766
0.049831	115.097
0.0501187	115.429
0.0504081	115.762
0.0506991	116.096
0.0509918	116.431
0.0512861	116.766
0.0515822	117.103
0.05188	117.44
0.0521795	117.778
0.0524807	118.118
0.0527837	118.458
0.0530884	118.799
0.0533949	119.14
0.0537032	119.483
0.0540132	119.827
0.054325	120.171
0.0546387	120.517
0.0549541	120.863
0.0552713	121.21
0.0555904	121.559
0.0559114	121.908
0.0562341	122.258
0.0565588	122.608
0.0568853	122.96
0.0572137	123.313
0.057544	123.666
0.0578762	124.021
0.0582103	124.376
0.0585464	124.733
0.0588844	125.09
0.0592243	125.448
0.0595662	125.807
0.0599101	126.167
0.060256	126.528
0.0606038	126.89
0.0609537	127.252
0.0613056	127.616
0.0616595	127.98
0.0620155	128.346
0.0623735	128.712
0.0627336	129.079
0.0630957	129.448
0.06346	129.817
0.0638263	130.187
0.0641948	130.558
0.0645654	130.929
0.0649382	131.302
0.0653131	131.676
0.0656901	132.051
0.0660693	132.426
0.0664508	132.802
0.0668344	133.18
0.0672202	133.558
0.0676083	133.937
0.0679986	134.317
0.0683912	134.698
0.068786	135.08
0.0691831	135.463
0.0695825	135.847
0.0699842	136.232
0.0703882	136.617
0.0707946	137.004
0.0712033	137.391
0.0716143	137.779
0.0720278	138.169
0.0724436	138.559
0.0728618	138.95
0.0732825	139.342
0.0737055	139.735
0.074131	140.129
0.074559	140.523
0.0749894	140.919
0.0754223	141.315
0.0758578	141.713
0.0762957	142.111
0.0767361	142.51
0.0771792	142.911
0.0776247	143.312
0.0780728	143.714
0.0785236	144.116
0.0789769	144.52
0.0794328	144.925
0.0798914	145.33
0.0803526	145.737
0.0808165	146.144
0.0812831	146.552
0.0817523	146.961
0.0822243	147.371
0.082699	147.782
0.0831764	148.194
0.0836566	148.606
0.0841395	149.02
0.0846253	149.434
0.0851138	149.85
0.0856052	150.266
0.0860994	150.683
0.0865964	151.101
0.0870964	151.519
0.0875992	151.939
0.0881049	152.359
0.0886135	152.781
0.0891251	153.203
0.0896396	153.626
0.0901571	154.05
0.0906776	154.474
0.0912011	154.9
0.0917276	155.326
0.0922571	155.753
0.0927897	156.181
0.0933254	156.61
0.0938642	157.04
0.0944061	157.471
0.0949511	157.902
0.0954993	158.334
0.0960506	158.767
0.0966051	159.201
0.0971628	159.635
0.0977237	160.071
0.0982879	160.507
0.0988553	160.944
0.099426	161.382
0.1	161.82
0.100577	162.26
0.101158	162.7
0.101742	163.141
0.102329	163.582
0.10292	164.025
0.103514	164.468
0.104112	164.912
0.104713	165.356
0.105317	165.802
0.105925	166.248
0.106537	166.695
0.107152	167.142
0.107771	167.591
0.108393	168.04
0.109018	168.49
0.109648	168.94
0.110281	169.391
0.110917	169.843
0.111558	170.295
0.112202	170.749
0.11285	171.203
0.113501	171.657
0.114156	172.112
0.114815	172.568
0.115478	173.025
0.116145	173.482
0.116815	173.939
0.11749	174.398
0.118168	174.857
0.11885	175.316
0.119536	175.777
0.120226	176.237
0.120921	176.699
0.121619	177.161
0.122321	177.623
0.123027	178.086
0.123737	178.55
0.124451	179.014
0.12517	179.479
0.125893	179.944
0.126619	180.41
0.12735	180.876
0.128086	181.343
0.128825	181.81
0.129569	182.278
0.130317	182.746
0.131069	183.214
0.131826	183.683
0.132587	184.153
0.133352	184.623
0.134122	185.093
0.134896	185.564
0.135675	186.035
0.136458	186.507
0.137246	186.979
0.138038	187.451
0.138835	187.924
0.139637	188.397
0.140443	188.87
0.141254	189.344
0.142069	189.818
0.142889	190.292
0.143714	190.766
0.144544	191.241
0.145378	191.716
0.146218	192.191
0.147062	192.667
0.147911	193.142
0.148765	193.618
0.149624	194.094
0.150487	194.571
0.151356	195.047
0.15223	195.524
0.153109	196
0.153993	196.477
0.154882	196.954
0.155776	197.431
0.156675	197.908
0.15758	198.385
0.158489	198.863
0.159404	199.34
0.160325	199.817
0.16125	200.294
0.162181	200.771
0.163117	201.248
0.164059	201.725
0.165006	202.202
0.165959	202.679
0.166917	203.156
0.16788	203.633
0.16885	204.109
0.169824	204.586
0.170805	205.062
0.171791	205.538
0.172783	206.014
0.17378	206.489
0.174783	206.965
0.175792	207.44
0.176807	207.914
0.177828	208.389
0.178855	208.863
0.179887	209.337
0.180926	209.81
0.18197	210.283
0.183021	210.756
0.184077	211.228
0.18514	211.7
0.186209	212.171
0.187284	212.641
0.188365	213.112
0.189452	213.581
0.190546	214.05
0.191646	214.519
0.192752	214.987
0.193865	215.454
0.194984	215.921
0.19611	216.387
0.197242	216.852
0.198381	217.317
0.199526	217.78
0.200678	218.243
0.201837	218.706
0.203002	219.167
0.204174	219.628
0.205353	220.087
0.206538	220.546
0.20773	221.004
0.20893	221.461
0.210136	221.917
0.211349	222.372
0.212569	222.826
0.213796	223.279
0.21503	223.731
0.216272	224.181
0.21752	224.631
0.218776	225.079
0.220039	225.527
0.221309	225.973
0.222587	226.418
0.223872	226.861
0.225165	227.303
0.226464	227.744
0.227772	228.184
0.229087	228.622
0.230409	229.059
0.231739	229.494
0.233077	229.928
0.234423	230.361
0.235776	230.791
0.237137	231.221
0.238506	231.649
0.239883	232.075
0.241268	232.499
0.242661	232.922
0.244062	233.343
0.245471	233.762
0.246888	234.18
0.248313	234.596
0.249747	235.009
0.251189	235.421
0.252639	235.832
0.254097	236.24
0.255564	236.646
0.25704	237.05
0.258523	237.453
0.260016	237.853
0.261517	238.251
0.263027	238.647
0.264545	239.04
0.266073	239.432
0.267609	239.821
0.269153	240.208
0.270707	240.593
0.27227	240.976
0.273842	241.356
0.275423	241.733
0.277013	242.109
0.278612	242.482
0.280221	242.852
0.281838	243.22
0.283465	243.585
0.285102	243.947
0.286748	244.307
0.288403	244.665
0.290068	245.019
0.291743	245.371
0.293427	245.72
0.295121	246.066
0.296825	246.41
0.298538	246.75
0.300262	247.088
0.301995	247.422
0.303739	247.754
0.305492	248.082
0.307256	248.408
0.30903	248.73
0.310814	249.05
0.312608	249.366
0.314413	249.679
0.316228	249.989
0.318053	250.295
0.31989	250.598
0.321736	250.898
0.323594	251.194
0.325462	251.487
0.327341	251.777
0.32923	252.063
0.331131	252.345
0.333043	252.624
0.334965	252.9
0.336899	253.171
0.338844	253.44
0.3408	253.704
0.342768	253.965
0.344747	254.222
0.346737	254.475
0.348739	254.724
0.350752	254.969
0.352777	255.211
0.354813	255.448
0.356862	255.682
0.358922	255.912
0.360994	256.137
0.363078	256.359
0.365174	256.576
0.367282	256.789
0.369403	256.998
0.371535	257.203
0.37368	257.404
0.375837	257.601
0.378007	257.793
0.380189	257.98
0.382384	258.164
0.384592	258.343
0.386812	258.518
0.389045	258.688
0.391291	258.853
0.39355	259.015
0.395822	259.171
0.398107	259.323
0.400405	259.471
0.402717	259.614
0.405042	259.752
0.40738	259.886
0.409732	260.015
0.412098	260.139
0.414477	260.258
0.416869	260.373
0.419276	260.482
0.421697	260.587
0.424131	260.687
0.42658	260.783
0.429042	260.873
0.431519	260.958
0.43401	261.039
0.436516	261.114
0.439036	261.184
0.44157	261.25
0.44412	261.31
0.446684	261.365
0.449262	261.415
0.451856	261.46
0.454465	261.5
0.457088	261.535
0.459727	261.565
0.462381	261.589
0.46505	261.608
0.467735	261.622
0.470435	261.631
0.473151	261.634
0.475883	261.632
0.47863	261.625
0.481393	261.613
0.484172	261.595
0.486968	261.572
0.489779	261.544
0.492606	261.51
0.49545	261.471
0.49831	261.426
0.501187	261.376
0.504081	261.321
0.506991	261.26
0.509918	261.194
0.512861	261.123
0.515822	261.046
0.5188	260.963
0.521795	260.875
0.524807	260.782
0.527837	260.683
0.530884	260.579
0.533949	260.469
0.537032	260.354
0.540132	260.234
0.54325	260.107
0.546387	259.976
0.549541	259.839
0.552713	259.696
0.555904	259.548
0.559114	259.395
0.562341	259.236
0.565588	259.071
0.568853	258.901
0.572137	258.726
0.57544	258.545
0.578762	258.359
0.582103	258.167
0.585464	257.97
0.588844	257.767
0.592243	257.559
0.595662	257.346
0.599101	257.127
0.60256	256.903
0.606038	256.673
0.609537	256.438
0.613056	256.198
0.616595	255.952
0.620155	255.701
0.623735	255.444
0.627336	255.183
0.630957	254.916
0.6346	254.643
0.638263	254.366
0.641948	254.083
0.645654	253.795
0.649382	253.502
0.653131	253.203
0.656901	252.9
0.660693	252.591
0.664508	252.277
0.668344	251.958
0.672202	251.634
0.676083	251.305
0.679986	250.971
0.683912	250.632
0.68786	250.288
0.691831	249.938
0.695825	249.584
0.699842	249.225
0.703882	248.862
0.707946	248.493
0.712033	248.119
0.716143	247.741
0.720278	247.358
0.724436	246.97
0.728618	246.577
0.732825	246.18
0.737055	245.778
0.74131	245.372
0.74559	244.961
0.749894	244.545
0.754223	244.125
0.758578	243.7
0.762957	243.271
0.767361	242.838
0.771792	242.4
0.776247	241.957
0.780728	241.511
0.785236	241.06
0.789769	240.605
0.794328	240.146
0.798914	239.683
0.803526	239.215
0.808165	238.744
0.812831	238.268
0.817523	237.788
0.822243	237.305
0.82699	236.817
0.831764	236.326
0.836566	235.831
0.841395	235.332
0.846253	234.829
0.851138	234.323
0.856052	233.813
0.860994	233.299
0.865964	232.782
0.870964	232.262
0.875992	231.737
0.881049	231.21
0.886135	230.679
0.891251	230.144
0.896396	229.607
0.901571	229.066
0.906776	228.521
0.912011	227.974
0.917276	227.424
0.922571	226.87
0.927897	226.314
0.933254	225.754
0.938642	225.192
0.944061	224.626
0.949511	224.058
0.954993	223.487
0.960506	222.914
0.966051	222.337
0.971628	221.758
0.977237	221.177
0.982879	220.593
0.988553	220.006
0.99426	219.417
1	218.825
1.00577	218.232
1.01158	217.635
1.01742	217.037
1.02329	216.436
1.0292	215.834
1.03514	215.229
1.04112	214.622
1.04713	214.013
1.05317	213.402
1.05925	212.789
1.06537	212.175
1.07152	211.558
1.07771	210.94
1.08393	210.32
1.09018	209.699
1.09648	209.075
1.10281	208.451
1.10917	207.824
1.11558	207.197
1.12202	206.567
1.1285	205.937
1.13501	205.305
1.14156	204.672
1.14815	204.037
1.15478	203.402
1.16145	202.765
1.16815	202.127
1.1749	201.488
1.18168	200.848
1.1885	200.208
1.19536	199.566
1.20226	198.923
1.20921	198.28
1.21619	197.636
1.22321	196.991
1.23027	196.345
1.23737	195.699
1.24451	195.052
1.2517	194.405
1.25893	193.757
1.26619	193.109
1.2735	192.46
1.28086	191.811
1.28825	191.162
1.29569	190.512
1.30317	189.862
1.31069	189.212
1.31826	188.562
1.32587	187.912
1.33352	187.261
1.34122	186.611
1.34896	185.96
1.35675	185.31
1.36458	184.66
1.37246	184.009
1.38038	183.359
1.38835	182.71
1.39637	182.06
1.40443	181.411
1.41254	180.762
1.42069	180.113
1.42889	179.465
1.43714	178.817
1.44544	178.17
1.45378	177.523
1.46218	176.877
1.47062	176.231
1.47911	175.586
1.48765	174.941
1.49624	174.298
1.50487	173.655
1.51356	173.012
1.5223	172.371
1.53109	171.73
1.53993	171.09
1.54882	170.451
1.55776	169.812
1.56675	169.175
1.5758	168.539
1.58489	167.903
1.59404	167.269
1.60325	166.636
1.6125	166.003
1.62181	165.372
1.63117	164.742
1.64059	164.113
1.65006	163.486
1.65959	162.859
1.66917	162.234
1.6788	161.61
1.6885	160.987
1.69824	160.365
1.70805	159.745
1.71791	159.126
1.72783	158.509
1.7378	157.893
1.74783	157.278
1.75792	156.665
1.76807	156.053
1.77828	155.442
1.78855	154.834
1.79887	154.226
1.80926	153.62
1.8197	153.016
1.83021	152.413
1.84077	151.812
1.8514	151.212
1.86209	150.614
1.87284	150.018
1.88365	149.423
1.89452	148.83
1.90546	148.239
1.91646	147.649
1.92752	147.061
1.93865	146.475
1.94984	145.891
1.9611	145.308
1.97242	144.727
1.98381	144.148
1.99526	143.57
2.00678	142.994
2.01837	142.421
2.03002	141.849
2.04174	141.278
2.05353	140.71
2.06538	140.143
2.0773	139.579
2.0893	139.016
2.10136	138.455
2.11349	137.896
2.12569	137.339
2.13796	136.783
2.1503	136.23
2.16272	135.678
2.1752	135.129
2.18776	134.581
2.20039	134.035
2.21309	133.492
2.22587	132.95
2.23872	132.41
2.25165	131.872
2.26464	131.336
2.27772	130.802
2.29087	130.269
2.30409	129.739
2.31739	129.211
2.33077	128.685
2.34423	128.161
2.35776	127.638
2.37137	127.118
2.38506	126.6
2.39883	126.083
2.41268	125.569
2.42661	125.057
2.44062	124.546
2.45471	124.038
2.46888	123.531
2.48313	123.027
2.49747	122.524
2.51189	122.024
2.52639	121.525
2.54097	121.028
2.55564	120.534
2.5704	120.041
2.58523	119.551
2.60016	119.062
2.61517	118.575
2.63027	118.09
2.64545	117.608
2.66073	117.127
2.67609	116.648
2.69153	116.171
2.70707	115.696
2.7227	115.223
2.73842	114.752
2.75423	114.283
2.77013	113.816
2.78612	113.35
2.80221	112.887
2.81838	112.426
2.83465	111.966
2.85102	111.509
2.86748	111.053
2.88403	110.599
2.90068	110.147
2.91743	109.697
2.93427	109.249
2.95121	108.803
2.96825	108.359
2.98538	107.917
3.00262	107.476
3.01995	107.037
3.03739	106.601
3.05492	106.166
3.07256	105.732
3.0903	105.301
3.10814	104.872
3.12608	104.444
3.14413	104.018
3.16228	103.594
3.18053	103.172
3.1989	102.752
3.21736	102.333
3.23594	101.916
3.25462	101.501
3.27341	101.088
3.2923	100.677
3.31131	100.267
3.33043	99.859
3.34965	99.4528
3.36899	99.0484
3.38844	98.6456
3.408	98.2446
3.42768	97.8453
3.44747	97.4477
3.46737	97.0518
3.48739	96.6576
3.50752	96.2651
3.52777	95.8743
3.54813	95.4852
3.56862	95.0977
3.58922	94.7118
3.60994	94.3277
3.63078	93.9451
3.65174	93.5642
3.67282	93.1849
3.69403	92.8073
3.71535	92.4312
3.7368	92.0568
3.75837	91.684
3.78007	91.3127
3.80189	90.943
3.82384	90.5749
3.84592	90.2084
3.86812	89.845
3.89045	89.4814
3.91291	89.1194
3.9355	88.759
3.95822	88.4
3.98107	88.0427
4.00405	87.6868
4.02717	87.3324
4.05042	86.9796
4.0738	86.6282
4.09732	86.2783
4.12098	85.9299
4.14477	85.583
4.16869	85.2375
4.19276	84.8935
4.21697	84.551
4.24131	84.2099
4.2658	83.8702
4.29042	83.5319
4.31519	83.1951
4.3401	82.8596
4.36516	82.5256
4.39036	82.193
4.4157	81.8617
4.4412	81.5318
4.46684	81.2034
4.49262	80.8762
4.51856	80.5504
4.54465	80.226
4.57088	79.9029
4.59727	79.5812
4.62381	79.2608
4.6505	78.9417
4.67735	78.6239
4.70435	78.3075
4.73151	77.9923
4.75883	77.6784
4.7863	77.3658
4.81393	77.0545
4.84172	76.7445
4.86968	76.4357
4.89779	76.1282
4.92606	75.822
4.9545	75.517
4.9831	75.2132
5.01187	74.9107
5.04081	74.6094
5.06991	74.3093
5.09918	74.0104
5.12861	73.7128
5.15822	73.4163
5.188	73.121
5.21795	72.827
5.24807	72.5341
5.27837	72.2424
5.30884	71.9518
5.33949	71.6624
5.37032	71.3742
5.40132	71.0871
5.4325	70.8012
5.46387	70.5164
5.49541	70.2328
5.52713	69.9503
5.55904	69.6689
5.59114	69.3886
5.62341	69.1094
5.65588	68.8314
5.68853	68.5544
5.72137	68.2785
5.7544	68.0037
5.78762	67.73
5.82103	67.4574
5.85464	67.1859
5.88844	66.9154
5.92243	66.646
5.95662	66.3776
5.99101	66.109
6.0256	65.8344
6.06038	65.5607
6.09537	65.2879
6.13056	65.016
6.16595	64.7451
6.20155	64.4751
6.23735	64.2097
6.27336	63.9415
6.30957	63.6739
6.346	63.4076
6.38263	63.142
6.41948	62.8773
6.45654	62.6134
6.49382	62.3505
6.53131	62.0884
6.56901	61.8272
6.60693	61.5669
6.64508	61.3075
6.68344	61.057
6.72202	60.7993
6.76083	60.5448
6.79986	60.2889
6.83912	60.0338
6.8786	59.7796
6.91831	59.5262
6.95825	59.2738
6.99842	59.0222
7.03882	58.7714
7.07946	58.5217
7.12033	58.2727
7.16143	58.0245
7.20278	57.7773
7.24436	57.5308
7.28618	57.2853
7.32825	57.074
7.37055	56.8298
7.4131	56.5864
7.4559	56.344
7.49894	56.1023
7.54223	55.7492
7.58578	55.5176
7.62957	55.277
7.67361	55.0371
7.71792	54.7982
7.76247	54.5601
7.80728	54.3232
7.85236	54.0871
7.89769	53.8518
7.94328	53.6175
7.98914	53.3839
8.03526	53.1512
8.08165	52.9194
8.12831	52.6883
8.17523	52.4582
8.22243	52.2288
8.2699	52.0004
8.31764	51.7727
8.36566	51.5459
8.41395	51.3199
8.46253	51.0948
8.51138	50.8705
8.56052	50.647
8.60994	50.4244
8.65964	50.2025
8.70964	49.9815
8.75992	49.7614
8.81049	49.542
8.86135	49.3235
8.91251	49.1366
8.96396	48.9196
9.01571	48.7033
9.06776	48.4879
9.12011	48.2733
9.17276	48.0595
9.22571	47.8465
9.27897	47.6343
9.33254	47.423
9.38642	47.2124
9.44061	47.0018
9.49511	46.7928
9.54993	46.5846
9.60506	46.3772
9.66051	46.1706
9.71628	45.9649
9.77237	45.7598
9.82879	45.5556
9.88553	45.3522
9.9426	45.1497
10	44.9479
10.0577	44.7468
10.1158	44.5466
10.1742	44.349
10.2329	44.1503
10.292	43.9524
10.3514	43.7552
10.4112	43.5589
10.4713	43.3633
10.5317	43.1696
10.5925	42.9801
10.6537	42.7913
10.7152	42.6031
10.7771	42.4156
10.8393	42.2288
10.9018	42.0428
10.9648	41.8574
11.0281	41.6727
11.0917	41.4888
11.1558	41.3055
11.2202	41.1229
11.285	40.941
11.3501	40.7598
11.4156	40.5793
11.4815	40.3995
11.5478	40.2204
11.6145	40.042
11.6815	39.8643
11.749	39.6873
11.8168	39.5109
11.885	39.3352
11.9536	39.1603
12.0226	38.986
12.0921	38.8124
12.1619	38.6394
12.2321	38.4778
12.3027	38.3061
12.3737	38.135
12.4451	37.9646
12.517	37.7949
12.5893	37.6259
12.6619	37.4575
12.735	37.2898
12.8086	37.1228
12.8825	36.9565
12.9569	36.7908
13.0317	36.6258
13.1069	36.4614
13.1826	36.2977
13.2587	36.1347
13.3352	35.9724
13.4122	35.835
13.4896	35.6737
13.5675	35.5131
13.6458	35.3531
13.7246	35.1938
13.8038	35.0351
13.8835	34.8771
13.9637	34.7197
14.0443	34.563
14.1254	34.407
14.2069	34.2516
14.2889	34.0968
14.3714	33.9427
14.4544	33.7893
14.5378	33.6364
14.6218	33.4842
14.7062	33.3327
14.7911	33.1818
14.8765	33.0315
14.9624	32.8819
15.0487	32.7329
15.1356	32.5846
15.223	32.4368
15.3109	32.2897
15.3993	32.1432
15.4882	31.9973
15.5776	31.852
15.6675	31.7074
15.758	31.5634
15.8489	31.4199
15.9404	31.2772
16.0325	31.135
16.125	30.9934
16.2181	30.8524
16.3117	30.712
16.4059	30.5723
16.5006	30.4331
16.5959	30.2945
16.6917	30.1566
16.788	30.0192
16.885	29.8824
16.9824	29.7468
17.0805	29.6112
17.1791	29.4825
17.2783	29.3479
17.378	29.214
17.4783	29.0806
17.5792	28.9478
17.6807	28.8156
17.7828	28.6839
17.8855	28.5528
17.9887	28.4223
18.0926	28.2924
18.197	28.163
18.3021	28.0342
18.4077	27.9059
18.514	27.7782
18.6209	27.6511
18.7284	27.5245
18.8365	27.3985
18.9452	27.273
19.0546	27.1481
19.1646	27.0238
19.2752	26.8999
19.3865	26.7766
19.4984	26.6539
19.611	26.5317
19.7242	26.41
19.8381	26.2889
19.9526	26.1683
20.0678	26.0483
20.1837	25.9287
20.3002	25.8097
20.4174	25.6913
20.5353	25.5733
20.6538	25.4559
20.773	25.339
20.893	25.2226
21.0136	25.1067
21.1349	24.9913
21.2569	24.8765
21.3796	24.7622
21.503	24.6483
21.6272	24.535
21.752	24.4222
21.8776	24.3098
22.0039	24.198
22.1309	24.0867
22.2587	23.9758
22.3872	23.8655
22.5165	23.7633
22.6464	23.6538
22.7772	23.5448
22.9087	23.4363
23.0409	23.3282
23.1739	23.2207
23.3077	23.1136
23.4423	23.007
23.5776	22.9009
23.7137	22.7952
23.8506	22.6904
23.9883	22.5857
24.1268	22.4814
24.2661	22.3777
24.4062	22.2743
24.5471	22.1715
24.6888	22.0691
24.8313	21.9672
24.9747	21.8658
25.1189	21.7648
25.2639	21.6643
25.4097	21.5642
25.5564	21.4645
25.704	21.3653
25.8523	21.2666
26.0016	21.1683
26.1517	21.0704
26.3027	20.973
26.4545	20.876
26.6073	20.7795
26.7609	20.6834
26.9153	20.5877
27.0707	20.4924
27.227	20.3976
27.3842	20.3032
27.5423	20.2092
27.7013	20.1157
27.8612	20.0225
28.0221	19.9298
28.1838	19.8375
28.3465	19.7457
28.5102	19.6542
28.6748	19.5632
28.8403	19.4725
29.0068	19.3823
29.1743	19.2925
29.3427	19.2031
29.5121	19.114
29.6825	19.0254
29.8538	18.9372
30.0262	18.8494
30.1995	18.762
30.3739	18.675
30.5492	18.5884
30.7256	18.5021
30.903	18.4163
31.0814	18.3308
31.2608	18.2458
31.4413	18.1611
31.6228	18.0814
31.8053	17.9974
31.989	17.9138
32.1736	17.8306
32.3594	17.7477
32.5462	17.6652
32.7341	17.5831
32.923	17.5014
33.1131	17.4201
33.3043	17.3391
33.4965	17.2585
33.6899	17.1782
33.8844	17.0984
34.08	17.0189
34.2768	16.9397
34.4747	16.8609
34.6737	16.7825
34.8739	16.7044
35.0752	16.6267
35.2777	16.5493
35.4813	16.4723
35.6862	16.3957
35.8922	16.3193
36.0994	16.2434
36.3078	16.1678
36.5174	16.0925
36.7282	16.0176
36.9403	15.943
37.1535	15.8688
37.368	15.7949
37.5837	15.7213
37.8007	15.6481
38.0189	15.5752
38.2384	15.5027
38.4592	15.4304
38.6812	15.3585
38.9045	15.287
39.1291	15.2158
39.355	15.1448
39.5822	15.0743
39.8107	15.004
40.0405	14.9341
40.2717	14.8645
40.5042	14.7952
40.738	14.7262
40.9732	14.6575
41.2098	14.5892
41.4477	14.5212
41.6869	14.4535
41.9276	14.3861
42.1697	14.319
42.4131	14.2522
42.658	14.1857
42.9042	14.1196
43.1519	14.0537
43.401	13.9881
43.6516	13.9229
43.9036	13.8579
44.157	13.7933
44.412	13.7289
44.6684	13.6649
44.9262	13.6011
45.1856	13.5376
45.4465	13.4744
45.7088	13.4116
45.9727	13.349
46.2381	13.2867
46.505	13.2247
46.7735	13.163
47.0435	13.1016
47.3151	13.0404
47.5883	12.9795
47.863	12.919
48.1393	12.8587
48.4172	12.7986
48.6968	12.7389
48.9779	12.6794
49.2606	12.6202
49.545	12.5613
49.831	12.5027
50.1187	12.4443
50.4081	12.3862
50.6991	12.3284
50.9918	12.2708
51.2861	12.2135
51.5822	12.1565
51.88	12.0997
52.1795	12.0432
52.4807	11.987
52.7837	11.931
53.0884	11.8753
53.3949	11.8198
53.7032	11.7646
54.0132	11.7097
54.325	11.655
54.6387	11.6006
54.9541	11.5464
55.2713	11.4924
55.5904	11.4388
55.9114	11.3853
56.2341	11.3322
56.5588	11.2792
56.8853	11.2265
57.2137	11.1741
57.544	11.1219
57.8762	11.07
58.2103	11.0182
58.5464	10.9668
58.8844	10.9155
59.2243	10.8646
59.5662	10.8138
59.9101	10.7633
60.256	10.713
60.6038	10.663
60.9537	10.6132
61.3056	10.5636
61.6595	10.5142
62.0155	10.4651
62.3735	10.4162
62.7336	10.3676
63.0957	10.3192
63.46	10.271
63.8263	10.223
64.1948	10.1753
64.5654	10.1277
64.9382	10.0804
65.3131	10.0334
65.6901	9.9865
66.0693	9.93986
66.4508	9.89344
66.8344	9.84724
67.2202	9.80126
67.6083	9.75549
67.9986	9.70994
68.3912	9.6646
68.786	9.61948
69.1831	9.57457
69.5825	9.52987
69.9842	9.48538
70.3882	9.4411
70.7946	9.39702
71.2033	9.35316
71.6143	9.3095
72.0278	9.26605
72.4436	9.22281
72.8618	9.17976
73.2825	9.13692
73.7055	9.09429
74.131	9.05185
74.559	9.00962
74.9894	8.96758
75.4223	8.92575
75.8578	8.88411
76.2957	8.84267
76.7361	8.80141
77.1792	8.76036
77.6247	8.7195
78.0728	8.67884
78.5236	8.63837
78.9769	8.5981
79.4328	8.55801
79.8914	8.51811
80.3526	8.47841
80.8165	8.43889
81.2831	8.39956
81.7523	8.36041
82.2243	8.32146
82.699	8.28268
83.1764	8.24409
83.6566	8.20569
84.1395	8.16747
84.6253	8.12943
85.1138	8.09157
85.6052	8.05389
86.0994	8.01639
86.5964	7.97906
87.0964	7.94191
87.5992	7.90495
88.1049	7.86815
88.6135	7.83154
89.1251	7.7951
89.6396	7.75883
90.1571	7.72273
90.6776	7.6868
91.2011	7.65105
91.7276	7.61547
92.2571	7.58006
92.7897	7.54482
93.3254	7.50975
93.8642	7.47484
94.4061	7.4401
94.9511	7.40553
95.4993	7.37113
96.0506	7.33688
96.6051	7.30281
97.1628	7.26889
97.7237	7.23514
98.2879	7.20155
98.8553	7.16812
99.426	7.13485
100	7.10174
100.577	7.06879
101.158	7.036
101.742	7.00336
102.329	6.97088
102.92	6.93856
103.514	6.90639
104.112	6.87438
104.713	6.84252
105.317	6.81081
105.925	6.77926
106.537	6.74785
107.152	6.7166
107.771	6.6855
108.393	6.65455
109.018	6.62375
109.648	6.5931
110.281	6.56259
110.917	6.53223
111.558	6.50202
112.202	6.47195
112.85	6.44203
113.501	6.41225
114.156	6.38262
114.815	6.35313
115.478	6.32378
116.145	6.29457
116.815	6.26551
117.49	6.23658
118.168	6.2078
118.85	6.17915
119.536	6.15064
120.226	6.12226
120.921	6.09403
121.619	6.06593
122.321	6.03797
123.027	6.01015
123.737	5.98246
124.451	5.9549
125.17	5.92748
125.893	5.90019
126.619	5.87304
127.35	5.84601
128.086	5.81912
128.825	5.79236
129.569	5.76573
130.317	5.73922
131.069	5.71285
131.826	5.6866
132.587	5.66048
133.352	5.63449
134.122	5.60863
134.896	5.58289
135.675	5.55727
136.458	5.53178
137.246	5.50642
138.038	5.48117
138.835	5.45606
139.637	5.43106
140.443	5.40618
141.254	5.38143
142.069	5.3568
142.889	5.33229
143.714	5.30789
144.544	5.28362
145.378	5.25946
146.218	5.23542
147.062	5.2115
147.911	5.1877
148.765	5.16401
149.624	5.14044
150.487	5.11699
151.356	5.09365
152.23	5.07042
153.109	5.04731
153.993	5.02431
154.882	5.00142
155.776	4.97864
156.675	4.95598
157.58	4.93343
158.489	4.91099
159.404	4.88865
160.325	4.86643
161.25	4.84432
162.181	4.82231
163.117	4.80042
164.059	4.77863
165.006	4.75695
165.959	4.73537
166.917	4.7139
167.88	4.69254
168.85	4.67128
169.824	4.65013
170.805	4.62908
171.791	4.60813
172.783	4.58729
173.78	4.56655
174.783	4.54591
175.792	4.52537
176.807	4.50493
177.828	4.4846
178.855	4.46437
179.887	4.44423
180.926	4.4242
181.97	4.40426
183.021	4.38442
184.077	4.36468
185.14	4.34504
186.209	4.3255
187.284	4.30605
188.365	4.2867
189.452	4.26744
190.546	4.24828
191.646	4.22921
192.752	4.21024
193.865	4.19136
194.984	4.17258
196.11	4.15389
197.242	4.13529
198.381	4.11678
199.526	4.09837
200.678	4.08005
201.837	4.06181
203.002	4.04367
204.174	4.02562
205.353	4.00766
206.538	3.98979
207.73	3.972
208.93	3.95431
210.136	3.9367
211.349	3.91918
212.569	3.90175
213.796	3.8844
215.03	3.86715
216.272	3.84997
217.52	3.83288
218.776	3.81588
220.039	3.79896
221.309	3.78213
222.587	3.76538
223.872	3.74872
225.165	3.73213
226.464	3.71563
227.772	3.69922
229.087	3.68288
230.409	3.66663
231.739	3.65046
233.077	3.63437
234.423	3.61836
235.776	3.60243
237.137	3.58657
238.506	3.5708
239.883	3.55511
241.268	3.5395
242.661	3.52396
244.062	3.5085
245.471	3.49312
246.888	3.47782
248.313	3.4626
249.747	3.44745
251.189	3.43237
252.639	3.41738
254.097	3.40245
255.564	3.38761
257.04	3.37283
258.523	3.35814
260.016	3.34351
261.517	3.32896
263.027	3.31448
264.545	3.30008
266.073	3.28575
267.609	3.27149
269.153	3.2573
270.707	3.24318
272.27	3.22914
273.842	3.21517
275.423	3.20126
277.013	3.18743
278.612	3.17367
280.221	3.15997
281.838	3.14635
283.465	3.13279
285.102	3.11931
286.748	3.10589
288.403	3.09254
290.068	3.07925
291.743	3.06604
293.427	3.05289
295.121	3.03981
296.825	3.02679
298.538	3.01384
300.262	3.00096
301.995	2.98814
303.739	2.97539
305.492	2.9627
307.256	2.95008
309.03	2.93752
310.814	2.92502
312.608	2.91259
314.413	2.90022
316.228	2.88791
318.053	2.87567
319.89	2.86349
321.736	2.85137
323.594	2.83931
325.462	2.82732
327.341	2.81539
329.23	2.80351
331.131	2.7917
333.043	2.77995
334.965	2.76826
336.899	2.75662
338.844	2.74505
340.8	2.73354
342.768	2.72208
344.747	2.71069
346.737	2.69935
348.739	2.68807
350.752	2.67685
352.777	2.66569
354.813	2.65458
356.862	2.64353
358.922	2.63254
360.994	2.6216
363.078	2.61072
365.174	2.5999
367.282	2.58913
369.403	2.57842
371.535	2.56776
373.68	2.55716
375.837	2.54661
378.007	2.53612
380.189	2.52568
382.384	2.51529
384.592	2.50496
386.812	2.49468
389.045	2.48445
391.291	2.47428
393.55	2.46416
395.822	2.45409
398.107	2.44408
400.405	2.43412
402.717	2.4242
405.042	2.41434
407.38	2.40453
409.732	2.39477
412.098	2.38507
414.477	2.37541
416.869	2.3658
419.276	2.35624
421.697	2.34674
424.131	2.33728
426.58	2.32787
429.042	2.31851
431.519	2.3092
434.01	2.29994
436.516	2.29072
439.036	2.28155
441.57	2.27244
444.12	2.26336
446.684	2.25434
449.262	2.24537
451.856	2.23644
454.465	2.22755
457.088	2.21872
459.727	2.20993
462.381	2.20118
465.05	2.19249
467.735	2.18383
470.435	2.17523
473.151	2.16666
475.883	2.15815
478.63	2.14968
481.393	2.14125
484.172	2.13287
486.968	2.12453
489.779	2.11623
492.606	2.10798
495.45	2.09977
498.31	2.09161
501.187	2.08349
504.081	2.07541
506.991	2.06737
509.918	2.05938
512.861	2.05143
515.822	2.04352
518.8	2.03565
521.795	2.02783
524.807	2.02004
527.837	2.0123
530.884	2.0046
533.949	1.99694
537.032	1.98932
540.132	1.98174
543.25	1.9742
546.387	1.9667
549.541	1.95924
552.713	1.95182
555.904	1.94444
559.114	1.9371
562.341	1.9298
565.588	1.92254
568.853	1.91532
572.137	1.90813
575.44	1.90099
578.762	1.89388
582.103	1.88681
585.464	1.87978
588.844	1.87279
592.243	1.86583
595.662	1.85891
599.101	1.85203
602.56	1.84518
606.038	1.83838
609.537	1.8316
613.056	1.82487
616.595	1.81817
620.155	1.81151
623.735	1.80488
627.336	1.79829
630.957	1.79174
634.6	1.78522
638.263	1.77873
641.948	1.77228
645.654	1.76587
649.382	1.75949
653.131	1.75315
656.901	1.74684
660.693	1.74056
664.508	1.73432
668.344	1.72811
672.202	1.72194
676.083	1.7158
679.986	1.70969
683.912	1.70362
687.86	1.69758
691.831	1.69157
695.825	1.6856
699.842	1.67966
703.882	1.67375
707.946	1.66787
712.033	1.66203
716.143	1.65622
720.278	1.65044
724.436	1.64469
728.618	1.63898
732.825	1.63329
737.055	1.62764
741.31	1.62202
745.59	1.61643
749.894	1.61087
754.223	1.60534
758.578	1.59984
762.957	1.59437
767.361	1.58893
771.792	1.58352
776.247	1.57815
780.728	1.5728
785.236	1.56748
789.769	1.56219
794.328	1.55694
798.914	1.55171
803.526	1.54651
808.165	1.54134
812.831	1.53619
817.523	1.53108
822.243	1.526
826.99	1.52094
831.764	1.51591
836.566	1.51092
841.395	1.50594
846.253	1.501
851.138	1.49609
856.052	1.4912
860.994	1.48634
865.964	1.48151
870.964	1.4767
875.992	1.47193
881.049	1.46718
886.135	1.46245
891.251	1.45776
896.396	1.45309
901.571	1.44844
906.776	1.44383
912.011	1.43924
917.276	1.43467
922.571	1.43014
927.897	1.42563
933.254	1.42114
938.642	1.41668
944.061	1.41224
949.511	1.40784
954.993	1.40345
960.506	1.39909
966.051	1.39476
971.628	1.39045
977.237	1.38617
982.879	1.38191
988.553	1.37768
994.26	1.37347
1000	1.36929
1005.77	1.36513
1011.58	1.36099
1017.42	1.35688
1023.29	1.35279
1029.2	1.34873
1035.14	1.34469
1041.12	1.34067
1047.13	1.33668
1053.17	1.33271
1059.25	1.32876
1065.37	1.32484
1071.52	1.32094
1077.71	1.31706
1083.93	1.31321
1090.18	1.30938
1096.48	1.30557
1102.81	1.30179
1109.17	1.29802
1115.58	1.29428
1122.02	1.29057
1128.5	1.28687
1135.01	1.2832
1141.56	1.27954
1148.15	1.27591
1154.78	1.27231
1161.45	1.26872
1168.15	1.26516
1174.9	1.26161
1181.68	1.25809
1188.5	1.25459
1195.36	1.25111
1202.26	1.24765
1209.21	1.24421
1216.19	1.2408
1223.21	1.2374
1230.27	1.23403
1237.37	1.23067
1244.51	1.22734
1251.7	1.22403
1258.93	1.22073
1266.19	1.21746
1273.5	1.21421
1280.86	1.21098
1288.25	1.20776
1295.69	1.20457
1303.17	1.2014
1310.69	1.19824
1318.26	1.19511
1325.87	1.192
1333.52	1.1889
1341.22	1.18583
1348.96	1.18277
1356.75	1.17973
1364.58	1.17671
1372.46	1.17372
1380.38	1.17074
1388.35	1.16777
1396.37	1.16483
1404.43	1.16191
1412.54	1.159
1420.69	1.15612
1428.89	1.15325
1437.14	1.1504
1445.44	1.14756
1453.78	1.14475
1462.18	1.14195
1470.62	1.13918
1479.11	1.13642
1487.65	1.13367
1496.24	1.13095
1504.87	1.12824
1513.56	1.12555
1522.3	1.12288
1531.09	1.12023
1539.93	1.11759
1548.82	1.11497
1557.76	1.11237
1566.75	1.10978
1575.8	1.10721
1584.89	1.10466
1594.04	1.10213
1603.25	1.09961
1612.5	1.09711
1621.81	1.09462
1631.17	1.09215
1640.59	1.0897
1650.06	1.08727
1659.59	1.08485
1669.17	1.08245
1678.8	1.08006
1688.5	1.07769
1698.24	1.07533
1708.05	1.073
1717.91	1.07067
1727.83	1.06837
1737.8	1.06608
1747.83	1.0638
1757.92	1.06154
1768.07	1.0593
1778.28	1.05707
1788.55	1.05485
1798.87	1.05266
1809.26	1.05047
1819.7	1.04831
1830.21	1.04615
1840.77	1.04402
1851.4	1.04189
1862.09	1.03979
1872.84	1.03769
1883.65	1.03562
1894.52	1.03355
1905.46	1.0315
1916.46	1.02947
1927.52	1.02745
1938.65	1.02544
1949.84	1.02345
1961.1	1.02148
1972.42	1.01952
1983.81	1.01757
1995.26	1.01563
2006.78	1.01371
2018.37	1.01181
2030.02	1.00992
2041.74	1.00804
2053.53	1.00617
2065.38	1.00432
2077.3	1.00249
2089.3	1.00066
2101.36	0.998854
2113.49	0.997058
2125.69	0.995275
2137.96	0.993506
2150.3	0.99175
2162.72	0.990008
2175.2	0.988278
2187.76	0.986562
2200.39	0.984858
2213.09	0.983168
2225.87	0.981491
2238.72	0.979826
2251.65	0.978175
2264.64	0.976536
2277.72	0.97491
2290.87	0.973297
2304.09	0.971696
2317.39	0.970108
2330.77	0.968532
2344.23	0.966969
2357.76	0.965418
2371.37	0.96388
2385.06	0.962353
2398.83	0.960839
2412.68	0.959338
2426.61	0.957848
2440.62	0.95637
2454.71	0.954904
2468.88	0.953451
2483.13	0.952009
2497.47	0.950579
2511.89	0.949161
2526.39	0.947754
2540.97	0.94636
2555.64	0.944976
2570.4	0.943605
2585.23	0.942245
2600.16	0.940896
2615.17	0.939559
2630.27	0.938233
2645.45	0.936919
2660.73	0.935616
2676.09	0.934324
2691.53	0.933043
2707.07	0.931773
2722.7	0.930515
2738.42	0.929267
2754.23	0.928031
2770.13	0.926805
2786.12	0.92559
2802.21	0.924386
2818.38	0.923193
2834.65	0.92201
2851.02	0.920839
2867.48	0.919677
2884.03	0.918527
2900.68	0.917387
2917.43	0.916217
2934.27	0.914998
2951.21	0.91379
2968.25	0.912592
2985.38	0.911404
3002.62	0.910226
3019.95	0.909058
3037.39	0.9079
3054.92	0.906752
3072.56	0.905614
3090.3	0.904486
3108.14	0.903367
3126.08	0.902259
3144.13	0.90116
3162.28	0.90007
3180.53	0.898991
3198.9	0.89792
3217.36	0.89686
3235.94	0.895809
3254.62	0.894767
3273.41	0.893735
3292.3	0.892712
3311.31	0.891698
3330.43	0.890694
3349.65	0.889699
3368.99	0.888712
3388.44	0.887736
3408	0.886768
3427.68	0.885809
3447.47	0.884859
3467.37	0.883918
3487.39	0.882986
3507.52	0.882063
3527.77	0.881148
3548.13	0.880243
3568.62	0.879346
3589.22	0.878458
3609.94	0.877578
3630.78	0.876707
3651.74	0.875845
3672.82	0.874991
3694.03	0.874145
3715.35	0.873308
3736.8	0.872479
3758.37	0.871659
3780.07	0.870847
3801.89	0.870043
3823.84	0.869248
3845.92	0.86846
3868.12	0.867681
3890.45	0.86691
3912.91	0.866147
3935.5	0.865391
3958.22	0.864644
3981.07	0.863905
4004.05	0.863174
4027.17	0.86245
4050.42	0.861734
4073.8	0.861026
4097.32	0.860326
4120.98	0.859634
4144.77	0.858949
4168.69	0.858272
4192.76	0.857602
4216.97	0.85694
4241.31	0.856285
4265.8	0.855638
4290.42	0.854998
4315.19	0.854366
4340.1	0.853741
4365.16	0.853123
4390.36	0.852512
4415.7	0.851909
4441.2	0.851313
4466.84	0.850724
4492.62	0.850142
4518.56	0.849568
4544.65	0.849
4570.88	0.848439
4597.27	0.847885
4623.81	0.847339
4650.5	0.846799
4677.35	0.846266
4704.35	0.845739
4731.51	0.84522
4758.83	0.844707
4786.3	0.844201
4813.93	0.843702
4841.72	0.843209
4869.68	0.842723
4897.79	0.842244
4926.06	0.841771
4954.5	0.841305
4983.1	0.840845
5011.87	0.840391
5040.81	0.839944
5069.91	0.839503
5099.18	0.839069
5128.61	0.838641
5158.22	0.838219
5188	0.837803
5217.95	0.837393
5248.07	0.83699
5278.37	0.836593
5308.84	0.836202
5339.49	0.835817
5370.32	0.835438
5401.32	0.835065
5432.5	0.834698
5463.87	0.834336
5495.41	0.833981
5527.13	0.833632
5559.04	0.833288
5591.14	0.83295
5623.41	0.832618
5655.88	0.832292
5688.53	0.831972
5721.37	0.831657
5754.4	0.831347
5787.62	0.831044
5821.03	0.830745
5854.64	0.830453
5888.44	0.830166
5922.43	0.829884
5956.62	0.829608
5991.01	0.829337
6025.6	0.829072
6060.38	0.828812
6095.37	0.828557
6130.56	0.828308
6165.95	0.828064
6201.55	0.827825
6237.35	0.827591
6273.36	0.827363
6309.57	0.827139
6346	0.826921
6382.63	0.826708
6419.48	0.826499
6456.54	0.826296
6493.82	0.826098
6531.31	0.825905
6569.01	0.825717
6606.93	0.825533
6645.08	0.825355
6683.44	0.825181
6722.02	0.825012
6760.83	0.824848
6799.86	0.824689
6839.12	0.824534
6878.6	0.824385
6918.31	0.824239
6958.25	0.824099
6998.42	0.823963
7038.82	0.823832
7079.46	0.823705
7120.33	0.823583
7161.43	0.823465
7202.78	0.823352
7244.36	0.823243
7286.18	0.823138
7328.25	0.823039
7370.55	0.822943
7413.1	0.822852
7455.9	0.822765
7498.94	0.822682
7542.23	0.822604
7585.78	0.822529
7629.57	0.82246
7673.61	0.822394
7717.92	0.822332
7762.47	0.822275
7807.28	0.822221
7852.36	0.822172
7897.69	0.822127
7943.28	0.822086
7989.14	0.822048
8035.26	0.822015
8081.65	0.821986
8128.31	0.82196
8175.23	0.821939
8222.43	0.821921
8269.9	0.821908
8317.64	0.821898
8365.66	0.821892
8413.95	0.821889
8462.53	0.821891
8511.38	0.821896
8560.52	0.821905
8609.94	0.821917
8659.64	0.821933
8709.64	0.821953
8759.92	0.821977
8810.49	0.822004
8861.35	0.822034
8912.51	0.822068
8963.96	0.822106
9015.71	0.822147
9067.76	0.822192
9120.11	0.82224
9172.76	0.822291
9225.71	0.822346
9278.97	0.822404
9332.54	0.822466
9386.42	0.82253
9440.61	0.822599
9495.11	0.82267
9549.93	0.822745
9605.06	0.822823
9660.51	0.822904
9716.28	0.822988
9772.37	0.823076
9828.79	0.823166
9885.53	0.82326
9942.6	0.823357
10000	0.823457
10057.7	0.82356
10115.8	0.823666
10174.2	0.823775
10232.9	0.823888
10292	0.824003
10351.4	0.824121
10411.2	0.824242
10471.3	0.824366
10531.7	0.824492
10592.5	0.824622
10653.7	0.824755
10715.2	0.82489
10777.1	0.825028
10839.3	0.825169
10901.8	0.825313
10964.8	0.825459
11028.1	0.825608
11091.7	0.82576
11155.8	0.825915
11220.2	0.826072
11285	0.826232
11350.1	0.826395
11415.6	0.82656
11481.5	0.826728
11547.8	0.826898
11614.5	0.827071
11681.5	0.827246
11749	0.827424
11816.8	0.827605
11885	0.827788
11953.6	0.827973
12022.6	0.828161
12092.1	0.828351
12161.9	0.828544
12232.1	0.828739
12302.7	0.828936
12373.7	0.829136
12445.1	0.829338
12517	0.829543
12589.3	0.829749
12661.9	0.829958
12735	0.83017
12808.6	0.830383
12882.5	0.830599
12956.9	0.830817
13031.7	0.831037
13106.9	0.831259
13182.6	0.831484
13258.7	0.83171
13335.2	0.831939
13412.2	0.83217
13489.6	0.832403
13567.5	0.832638
13645.8	0.832875
13724.6	0.833114
13803.8	0.833355
13883.5	0.833599
13963.7	0.833844
14044.3	0.834091
14125.4	0.83434
14206.9	0.834591
14288.9	0.834844
14371.4	0.835099
14454.4	0.835356
14537.8	0.835614
14621.8	0.835875
14706.2	0.836137
14791.1	0.836401
14876.5	0.836667
14962.4	0.836935
15048.7	0.837205
15135.6	0.837476
15223	0.837749
15310.9	0.838024
15399.3	0.838301
15488.2	0.838579
15577.6	0.838859
15667.5	0.839141
15758	0.839424
15848.9	0.839709
15940.4	0.839996
16032.5	0.840285
16125	0.840575
16218.1	0.840866
16311.7	0.841159
16405.9	0.841454
16500.6	0.84175
16595.9	0.842048
16691.7	0.842348
16788	0.842648
16885	0.842951
16982.4	0.843255
17080.5	0.84356
17179.1	0.843867
17278.3	0.844175
17378	0.844485
17478.3	0.844796
17579.2	0.845109
17680.7	0.845423
17782.8	0.845738
17885.5	0.846055
17988.7	0.846373
18092.6	0.846692
18197	0.847013
18302.1	0.847335
18407.7	0.847659
18514	0.847984
18620.9	0.84831
18728.4	0.848637
18836.5	0.848966
18945.2	0.849296
19054.6	0.849627
19164.6	0.849959
19275.2	0.850293
19386.5	0.850627
19498.4	0.850963
19611	0.8513
19724.2	0.851639
19838.1	0.851978
19952.6	0.852319
20067.8	0.852661
20183.7	0.853004
20300.2	0.853348
20417.4	0.853693
20535.3	0.854039
20653.8	0.854386
20773	0.854735
20893	0.855084
21013.6	0.855435
21134.9	0.855786
21256.9	0.856139
21379.6	0.856493
21503	0.856847
21627.2	0.857203
21752	0.85756
21877.6	0.857917
22003.9	0.858276
22130.9	0.858636
22258.7	0.858996
22387.2	0.859358
22516.5	0.85972
22646.4	0.860083
22777.2	0.860448
22908.7	0.860813
23040.9	0.861179
23173.9	0.861546
23307.7	0.861914
23442.3	0.862282
23577.6	0.862652
23713.7	0.863022
23850.6	0.863394
23988.3	0.863766
24126.8	0.864139
24266.1	0.864512
24406.2	0.864887
24547.1	0.865262
24688.8	0.865638
24831.3	0.866015
24974.7	0.866393
25118.9	0.866771
25263.9	0.86715
25409.7	0.86753
25556.4	0.867911
25704	0.868292
25852.3	0.868675
26001.6	0.869057
26151.7	0.869441
26302.7	0.869825
26454.5	0.87021
26607.3	0.870596
26760.9	0.870982
26915.3	0.871369
27070.7	0.871757
27227	0.872145
27384.2	0.872534
27542.3	0.872923
27701.3	0.873314
27861.2	0.873704
28022.1	0.874096
28183.8	0.874488
28346.5	0.87488
28510.2	0.875274
28674.8	0.875668
28840.3	0.876062
29006.8	0.876457
29174.3	0.876852
29342.7	0.877248
29512.1	0.877645
29682.5	0.878042
29853.8	0.87844
30026.2	0.878838
30199.5	0.879237
30373.9	0.879636
30549.2	0.880036
30725.6	0.880436
30903	0.880837
31081.4	0.881238
31260.8	0.88164
31441.3	0.882042
31622.8	0.882445
31805.3	0.882848
31989	0.883252
32173.6	0.883656
32359.4	0.884061
32546.2	0.884466
32734.1	0.884871
32923	0.885277
33113.1	0.885683
33304.3	0.88609
33496.5	0.886497
33689.9	0.886904
33884.4	0.887312
34080	0.887721
34276.8	0.888129
34474.7	0.888538
34673.7	0.888948
34873.9	0.889358
35075.2	0.889768
35277.7	0.890178
35481.3	0.890589
35686.2	0.891001
35892.2	0.891412
36099.4	0.891824
36307.8	0.892236
36517.4	0.892649
36728.2	0.893062
36940.3	0.893475
37153.5	0.893889
37368	0.894303
37583.7	0.894717
37800.7	0.895131
38018.9	0.895546
38238.4	0.895961
38459.2	0.896377
38681.2	0.896792
38904.5	0.897208
39129.1	0.897625
39355	0.898041
39582.2	0.898458
39810.7	0.898875
40040.5	0.899292
40271.7	0.89971
40504.2	0.900127
40738	0.900545
40973.2	0.900963
41209.8	0.901382
41447.7	0.901801
41686.9	0.90222
41927.6	0.902639
42169.7	0.903058
42413.1	0.903478
42658	0.903897
42904.2	0.904317
43151.9	0.904738
43401	0.905158
43651.6	0.905579
43903.6	0.905999
44157	0.90642
44412	0.906841
44668.4	0.907263
44926.2	0.907684
45185.6	0.908106
45446.5	0.908528
45708.8	0.90895
45972.7	0.909372
46238.1	0.909794
46505	0.910216
46773.5	0.910639
47043.5	0.911062
47315.1	0.911485
47588.3	0.911908
47863	0.912331
48139.3	0.912754
48417.2	0.913178
48696.8	0.913601
48977.9	0.914025
49260.6	0.914449
49545	0.914872
49831	0.915296
50118.7	0.915721
50408.1	0.916145
50699.1	0.916569
50991.8	0.916993
51286.1	0.917418
51582.2	0.917843
51880	0.918267
52179.5	0.918692
52480.7	0.919117
52783.7	0.919542
53088.4	0.919967
53394.9	0.920392
53703.2	0.920817
54013.2	0.921242
54325	0.921668
54638.7	0.922093
54954.1	0.922519
55271.3	0.922944
55590.4	0.92337
55911.4	0.923795
56234.1	0.924221
56558.8	0.924647
56885.3	0.925072
57213.7	0.925498
57544	0.925924
57876.2	0.92635
58210.3	0.926776
58546.4	0.927202
58884.4	0.927628
59224.3	0.928054
59566.2	0.92848
59910.1	0.928906
60256	0.929332
60603.8	0.929758
60953.7	0.930184
61305.6	0.93061
61659.5	0.931036
62015.5	0.931463
62373.5	0.931889
62733.6	0.932315
63095.7	0.932741
63460	0.933167
63826.3	0.933593
64194.8	0.93402
64565.4	0.934446
64938.2	0.934872
65313.1	0.935298
65690.1	0.935724
66069.3	0.93615
66450.8	0.936577
66834.4	0.937003
67220.2	0.937429
67608.3	0.937855
67998.6	0.938281
68391.2	0.938707
68786	0.939133
69183.1	0.939559
69582.5	0.939985
69984.2	0.940411
70388.2	0.940837
70794.6	0.941263
71203.3	0.941688
71614.3	0.942114
72027.8	0.94254
72443.6	0.942966
72861.8	0.943391
73282.5	0.943817
73705.5	0.944242
74131	0.944668
74559	0.945093
74989.4	0.945519
75422.3	0.945944
75857.8	0.94637
76295.7	0.946795
76736.1	0.94722
77179.2	0.947645
77624.7	0.94807
78072.8	0.948495
78523.6	0.94892
78976.9	0.949345
79432.8	0.94977
79891.4	0.950195
80352.6	0.950619
80816.5	0.951044
81283.1	0.951469
81752.3	0.951893
82224.3	0.952317
82699	0.952742
83176.4	0.953166
83656.6	0.95359
84139.5	0.954014
84625.3	0.954438
85113.8	0.954862
85605.2	0.955286
86099.4	0.95571
86596.4	0.956134
87096.4	0.956557
87599.2	0.956981
88104.9	0.957404
88613.5	0.957827
89125.1	0.958251
89639.6	0.958674
90157.1	0.959097
90677.6	0.95952
91201.1	0.959943
91727.6	0.960366
92257.1	0.960788
92789.7	0.961211
93325.4	0.961633
93864.2	0.962056
94406.1	0.962478
94951.1	0.9629
95499.3	0.963322
96050.6	0.963744
96605.1	0.964166
97162.8	0.964588
97723.7	0.965009
98287.9	0.965431
98855.3	0.965852
99426	0.966274
100000	0.966695
100577	0.967116
101158	0.967537
101742	0.967958
102329	0.968379
102920	0.968799
103514	0.96922
104112	0.96964
104713	0.97006
105317	0.970481
105925	0.970901
106537	0.971321
107152	0.97174
107771	0.97216
108393	0.97258
109018	0.972999
109648	0.973418
110281	0.973838
110917	0.974257
111558	0.974676
112202	0.975094
112850	0.975513
113501	0.975932
114156	0.97635
114815	0.976768
115478	0.977187
116145	0.977605
116815	0.978022
117490	0.97844
118168	0.978858
118850	0.979275
119536	0.979693
120226	0.98011
120921	0.980527
121619	0.980944
122321	0.981361
123027	0.981778
123737	0.982194
124451	0.982611
125170	0.983027
125893	0.983443
126619	0.983859
127350	0.984275
128086	0.984691
128825	0.985106
129569	0.985521
130317	0.985937
131069	0.986352
131826	0.986767
132587	0.987182
133352	0.987596
134122	0.988011
134896	0.988425
135675	0.98884
136458	0.989254
137246	0.989668
138038	0.990082
138835	0.990495
139637	0.990909
140443	0.991322
141254	0.991735
142069	0.992149
142889	0.992561
143714	0.992974
144544	0.993387
145378	0.993799
146218	0.994212
147062	0.994624
147911	0.995036
148765	0.995448
149624	0.995859
150487	0.996271
151356	0.996682
152230	0.997094
153109	0.997505
153993	0.997916
154882	0.998326
155776	0.998737
156675	0.999147
157580	0.999558
158489	0.999968
159404	1.00038
160325	1.00079
161250	1.0012
162181	1.00161
163117	1.00202
164059	1.00243
165006	1.00283
165959	1.00324
166917	1.00365
167880	1.00406
168850	1.00447
169824	1.00488
170805	1.00529
171791	1.00569
172783	1.0061
173780	1.00651
174783	1.00692
175792	1.00732
176807	1.00773
177828	1.00814
178855	1.00854
179887	1.00895
180926	1.00936
181970	1.00976
183021	1.01017
184077	1.01058
185140	1.01098
186209	1.01139
187284	1.01179
188365	1.0122
189452	1.0126
190546	1.01301
191646	1.01341
192752	1.01382
193865	1.01422
194984	1.01463
196110	1.01503
197242	1.01543
198381	1.01584
199526	1.01624
200678	1.01664
201837	1.01705
203002	1.01745
204174	1.01785
205353	1.01826
206538	1.01866
207730	1.01906
208930	1.01946
210136	1.01987
211349	1.02027
212569	1.02067
213796	1.02107
215030	1.02147
216272	1.02187
217520	1.02228
218776	1.02268
220039	1.02308
221309	1.02348
222587	1.02388
223872	1.02428
225165	1.02468
226464	1.02508
227772	1.02548
229087	1.02588
230409	1.02628
231739	1.02668
233077	1.02707
234423	1.02747
235776	1.02787
237137	1.02827
238506	1.02867
239883	1.02907
241268	1.02946
242661	1.02986
244062	1.03026
245471	1.03066
246888	1.03105
248313	1.03145
249747	1.03185
251189	1.03225
252639	1.03264
254097	1.03304
255564	1.03343
257040	1.03383
258523	1.03423
260016	1.03462
261517	1.03502
263027	1.03541
264545	1.03581
266073	1.0362
267609	1.0366
269153	1.03699
270707	1.03739
272270	1.03778
273842	1.03818
275423	1.03857
277013	1.03896
278612	1.03936
280221	1.03975
281838	1.04014
283465	1.04054
285102	1.04093
286748	1.04132
288403	1.04171
290068	1.04211
291743	1.0425
293427	1.04289
295121	1.04328
296825	1.04367
298538	1.04406
300262	1.04446
301995	1.04485
303739	1.04524
305492	1.04563
307256	1.04602
309030	1.04641
310814	1.0468
312608	1.04719
314413	1.04758
316228	1.04797
318053	1.04836
319890	1.04875
321736	1.04914
323594	1.04953
325462	1.04991
327341	1.0503
329230	1.05069
331131	1.05108
333043	1.05147
334965	1.05186
336899	1.05224
338844	1.05263
340800	1.05302
342768	1.0534
344747	1.05379
346737	1.05418
348739	1.05456
350752	1.05495
352777	1.05534
354813	1.05572
356862	1.05611
358922	1.05649
360994	1.05688
363078	1.05727
365174	1.05765
367282	1.05804
369403	1.05842
371535	1.0588
373680	1.05919
375837	1.05957
378007	1.05996
380189	1.06034
382384	1.06072
384592	1.06111
386812	1.06149
389045	1.06187
391291	1.06226
393550	1.06264
395822	1.06302
398107	1.0634
400405	1.06379
402717	1.06417
405042	1.06455
407380	1.06493
409732	1.06531
412098	1.06569
414477	1.06607
416869	1.06646
419276	1.06684
421697	1.06722
424131	1.0676
426580	1.06798
429042	1.06836
431519	1.06874
434010	1.06912
436516	1.0695
439036	1.06987
441570	1.07025
444120	1.07063
446684	1.07101
449262	1.07139
451856	1.07177
454465	1.07215
457088	1.07252
459727	1.0729
462381	1.07328
465050	1.07366
467735	1.07403
470435	1.07441
473151	1.07479
475883	1.07516
478630	1.07554
481393	1.07591
484172	1.07629
486968	1.07667
489779	1.07704
492606	1.07742
495450	1.07779
498310	1.07817
501187	1.07854
504081	1.07892
506991	1.07929
509918	1.07967
512861	1.08004
515822	1.08041
518800	1.08079
521795	1.08116
524807	1.08153
527837	1.08191
530884	1.08228
533949	1.08265
537032	1.08303
540132	1.0834
543250	1.08377
546387	1.08414
549541	1.08451
552713	1.08488
555904	1.08526
559114	1.08563
562341	1.086
565588	1.08637
568853	1.08674
572137	1.08711
575440	1.08748
578762	1.08785
582103	1.08822
585464	1.08859
588844	1.08896
592243	1.08933
595662	1.0897
599101	1.09007
602560	1.09043
606038	1.0908
609537	1.09117
613056	1.09154
616595	1.09191
620155	1.09227
623735	1.09264
627336	1.09301
630957	1.09338
634600	1.09374
638263	1.09411
641948	1.09448
645654	1.09484
649382	1.09521
653131	1.09558
656901	1.09594
660693	1.09631
664508	1.09667
668344	1.09704
672202	1.0974
676083	1.09777
679986	1.09813
683912	1.0985
687860	1.09886
691831	1.09922
695825	1.09959
699842	1.09995
703882	1.10031
707946	1.10068
712033	1.10104
716143	1.1014
720278	1.10177
724436	1.10213
728618	1.10249
732825	1.10285
737055	1.10321
741310	1.10358
745590	1.10394
749894	1.1043
754223	1.10466
758578	1.10502
762957	1.10538
767361	1.10574
771792	1.1061
776247	1.10646
780728	1.10682
785236	1.10718
789769	1.10754
794328	1.1079
798914	1.10826
803526	1.10862
808165	1.10897
812831	1.10933
817523	1.10969
822243	1.11005
826990	1.11041
831764	1.11076
836566	1.11112
841395	1.11148
846253	1.11184
851138	1.11219
856052	1.11255
860994	1.1129
865964	1.11326
870964	1.11362
875992	1.11397
881049	1.11433
886135	1.11468
891251	1.11504
896396	1.11539
901571	1.11575
906776	1.1161
912011	1.11646
917276	1.11681
922571	1.11716
927897	1.11752
933254	1.11787
938642	1.11822
944061	1.11858
949511	1.11893
954993	1.11928
960506	1.11964
966051	1.11999
971628	1.12034
977237	1.12069
982879	1.12104
988553	1.12139
994260	1.12175
1e+06	1.1221
1.00577e+06	1.12245
1.01158e+06	1.1228
1.01742e+06	1.12315
1.02329e+06	1.1235
1.0292e+06	1.12385
1.03514e+06	1.1242
1.04112e+06	1.12455
1.04713e+06	1.1249
1.05317e+06	1.12525
1.05925e+06	1.12559
1.06537e+06	1.12594
1.07152e+06	1.12629
1.07771e+06	1.12664
1.08393e+06	1.12699
1.09018e+06	1.12733
1.09648e+06	1.12768
1.10281e+06	1.12803
1.10917e+06	1.12838
1.11558e+06	1.12872
1.12202e+06	1.12907
1.1285e+06	1.12942
1.13501e+06	1.12976
1.14156e+06	1.13011
1.14815e+06	1.13046
1.15478e+06	1.1308
1.16145e+06	1.13115
1.16815e+06	1.13149
1.1749e+06	1.13184
1.18168e+06	1.13218
1.1885e+06	1.13253
1.19536e+06	1.13287
1.20226e+06	1.13321
1.20921e+06	1.13356
1.21619e+06	1.1339
1.22321e+06	1.13425
1.23027e+06	1.13459
1.23737e+06	1.13493
1.24451e+06	1.13527
1.2517e+06	1.13562
1.25893e+06	1.13596
1.26619e+06	1.1363
1.2735e+06	1.13664
1.28086e+06	1.13699
1.28825e+06	1.13733
1.29569e+06	1.13767
1.30317e+06	1.13801
1.31069e+06	1.13835
1.31826e+06	1.13869
1.32587e+06	1.13903
1.33352e+06	1.13937
1.34122e+06	1.13971
1.34896e+06	1.14005
1.35675e+06	1.14039
1.36458e+06	1.14073
1.37246e+06	1.14107
1.38038e+06	1.14141
1.38835e+06	1.14175
1.39637e+06	1.14209
1.40443e+06	1.14242
1.41254e+06	1.14276
1.42069e+06	1.1431
1.42889e+06	1.14344
1.43714e+06	1.14378
1.44544e+06	1.14411
1.45378e+06	1.14445
1.46218e+06	1.14479
1.47062e+06	1.14512
1.47911e+06	1.14546
1.48765e+06	1.1458
1.49624e+06	1.14613
1.50487e+06	1.14647
1.51356e+06	1.1468
1.5223e+06	1.14714
1.53109e+06	1.14747
1.53993e+06	1.14781
1.54882e+06	1.14814
1.55776e+06	1.14848
1.56675e+06	1.14881
1.5758e+06	1.14914
1.58489e+06	1.14948
1.59404e+06	1.14981
1.60325e+06	1.15014
1.6125e+06	1.15048
1.62181e+06	1.15081
1.63117e+06	1.15114
1.64059e+06	1.15147
1.65006e+06	1.15181
1.65959e+06	1.15214
1.66917e+06	1.15247
1.6788e+06	1.1528
1.6885e+06	1.15313
1.69824e+06	1.15346
1.70805e+06	1.15379
1.71791e+06	1.15412
1.72783e+06	1.15445
1.7378e+06	1.15478
1.74783e+06	1.15511
1.75792e+06	1.15544
1.76807e+06	1.15577
1.77828e+06	1.1561
1.78855e+06	1.15643
1.79887e+06	1.15676
1.80926e+06	1.15709
1.8197e+06	1.15741
1.83021e+06	1.15774
1.84077e+06	1.15807
1.8514e+06	1.1584
1.86209e+06	1.15872
1.87284e+06	1.15905
1.88365e+06	1.15938
1.89452e+06	1.1597
1.90546e+06	1.16003
1.91646e+06	1.16036
1.92752e+06	1.16068
1.93865e+06	1.16101
1.94984e+06	1.16133
1.9611e+06	1.16166
1.97242e+06	1.16198
1.98381e+06	1.16231
1.99526e+06	1.16263
2.00678e+06	1.16296
2.01837e+06	1.16328
2.03002e+06	1.1636
2.04174e+06	1.16393
2.05353e+06	1.16425
2.06538e+06	1.16457
2.0773e+06	1.1649
2.0893e+06	1.16522
2.10136e+06	1.16554
2.11349e+06	1.16586
2.12569e+06	1.16618
2.13796e+06	1.16651
2.1503e+06	1.16683
2.16272e+06	1.16715
2.1752e+06	1.16747
2.18776e+06	1.16779
2.20039e+06	1.16811
2.21309e+06	1.16843
2.22587e+06	1.16875
2.23872e+06	1.16907
2.25165e+06	1.16939
2.26464e+06	1.16971
2.27772e+06	1.17003
2.29087e+06	1.17034
2.30409e+06	1.17066
2.31739e+06	1.17098
2.33077e+06	1.1713
2.34423e+06	1.17162
2.35776e+06	1.17193
2.37137e+06	1.17225
2.38506e+06	1.17257
2.39883e+06	1.17288
2.41268e+06	1.1732
2.42661e+06	1.17352
2.44062e+06	1.17383
2.45471e+06	1.17415
2.46888e+06	1.17446
2.48313e+06	1.17478
2.49747e+06	1.17509
2.51189e+06	1.17541
2.52639e+06	1.17572
2.54097e+06	1.17604
2.55564e+06	1.17635
2.5704e+06	1.17666
2.58523e+06	1.17698
2.60016e+06	1.17729
2.61517e+06	1.1776
2.63027e+06	1.17792
2.64545e+06	1.17823
2.66073e+06	1.17854
2.67609e+06	1.17885
2.69153e+06	1.17916
2.70707e+06	1.17947
2.7227e+06	1.17979
2.73842e+06	1.1801
2.75423e+06	1.18041
2.77013e+06	1.18072
2.78612e+06	1.18103
2.80221e+06	1.18134
2.81838e+06	1.18165
2.83465e+06	1.18196
2.85102e+06	1.18227
2.86748e+06	1.18257
2.88403e+06	1.18288
2.90068e+06	1.18319
2.91743e+06	1.1835
2.93427e+06	1.18381
2.95121e+06	1.18411
2.96825e+06	1.18442
2.98538e+06	1.18473
3.00262e+06	1.18504
3.01995e+06	1.18534
3.03739e+06	1.18565
3.05492e+06	1.18595
3.07256e+06	1.18626
3.0903e+06	1.18657
3.10814e+06	1.18687
3.12608e+06	1.18718
3.14413e+06	1.18748
3.16228e+06	1.18779
3.18053e+06	1.18809
3.1989e+06	1.18839
3.21736e+06	1.1887
3.23594e+06	1.189
3.25462e+06	1.1893
3.27341e+06	1.18961
3.2923e+06	1.18991
3.31131e+06	1.19021
3.33043e+06	1.19051
3.34965e+06	1.19082
3.36899e+06	1.19112
3.38844e+06	1.19142
3.408e+06	1.19172
3.42768e+06	1.19202
3.44747e+06	1.19232
3.46737e+06	1.19262
3.48739e+06	1.19292
3.50752e+06	1.19322
3.52777e+06	1.19352
3.54813e+06	1.19382
3.56862e+06	1.19412
3.58922e+06	1.19442
3.60994e+06	1.19472
3.63078e+06	1.19502
3.65174e+06	1.19531
3.67282e+06	1.19561
3.69403e+06	1.19591
3.71535e+06	1.19621
3.7368e+06	1.1965
3.75837e+06	1.1968
3.78007e+06	1.1971
3.80189e+06	1.19739
3.82384e+06	1.19769
3.84592e+06	1.19798
3.86812e+06	1.19828
3.89045e+06	1.19857
3.91291e+06	1.19887
3.9355e+06	1.19916
3.95822e+06	1.19946
3.98107e+06	1.19975
4.00405e+06	1.20005
4.02717e+06	1.20034
4.05042e+06	1.20063
4.0738e+06	1.20093
4.09732e+06	1.20122
4.12098e+06	1.20151
4.14477e+06	1.2018
4.16869e+06	1.2021
4.19276e+06	1.20239
4.21697e+06	1.20268
4.24131e+06	1.20297
4.2658e+06	1.20326
4.29042e+06	1.20355
4.31519e+06	1.20384
4.3401e+06	1.20413
4.36516e+06	1.20442
4.39036e+06	1.20471
4.4157e+06	1.205
4.4412e+06	1.20529
4.46684e+06	1.20558
4.49262e+06	1.20587
4.51856e+06	1.20616
4.54465e+06	1.20645
4.57088e+06	1.20673
4.59727e+06	1.20702
4.62381e+06	1.20731
4.6505e+06	1.2076
4.67735e+06	1.20788
4.70435e+06	1.20817
4.73151e+06	1.20846
4.75883e+06	1.20874
4.7863e+06	1.20903
4.81393e+06	1.20931
4.84172e+06	1.2096
4.86968e+06	1.20988
4.89779e+06	1.21017
4.92606e+06	1.21045
4.9545e+06	1.21074
4.9831e+06	1.21102
5.01187e+06	1.21131
5.04081e+06	1.21159
5.06991e+06	1.21187
5.09918e+06	1.21216
5.12861e+06	1.21244
5.15822e+06	1.21272
5.188e+06	1.213
5.21795e+06	1.21329
5.24807e+06	1.21357
5.27837e+06	1.21385
5.30884e+06	1.21413
5.33949e+06	1.21441
5.37032e+06	1.21469
5.40132e+06	1.21497
5.4325e+06	1.21525
5.46387e+06	1.21553
5.49541e+06	1.21581
5.52713e+06	1.21609
5.55904e+06	1.21637
5.59114e+06	1.21665
5.62341e+06	1.21693
5.65588e+06	1.21721
5.68853e+06	1.21749
5.72137e+06	1.21776
5.7544e+06	1.21804
5.78762e+06	1.21832
5.82103e+06	1.2186
5.85464e+06	1.21887
5.88844e+06	1.21915
5.92243e+06	1.21943
5.95662e+06	1.21969
5.99101e+06	1.21964
6.0256e+06	1.21959
6.06038e+06	1.21955
6.09537e+06	1.2195
6.13056e+06	1.21945
6.16595e+06	1.21941
6.20155e+06	1.21936
6.23735e+06	1.21932
6.27336e+06	1.21927
6.30957e+06	1.21923
6.346e+06	1.21919
6.38263e+06	1.21914
6.41948e+06	1.2191
6.45654e+06	1.21906
6.49382e+06	1.21902
6.53131e+06	1.21898
6.56901e+06	1.21894
6.60693e+06	1.2189
6.64508e+06	1.21886
6.68344e+06	1.21882
6.72202e+06	1.21878
6.76083e+06	1.21874
6.79986e+06	1.2187
6.83912e+06	1.21867
6.8786e+06	1.21863
6.91831e+06	1.21859
6.95825e+06	1.21856
6.99842e+06	1.21852
7.03882e+06	1.21849
7.07946e+06	1.21845
7.12033e+06	1.21842
7.16143e+06	1.21838
7.20278e+06	1.21835
7.24436e+06	1.21832
7.28618e+06	1.21828
7.32825e+06	1.21825
7.37055e+06	1.21822
7.4131e+06	1.21819
7.4559e+06	1.21816
7.49894e+06	1.21812
7.54223e+06	1.21809
7.58578e+06	1.21806
7.62957e+06	1.21803
7.67361e+06	1.218
7.71792e+06	1.21797
7.76247e+06	1.21795
7.80728e+06	1.21792
7.85236e+06	1.21789
7.89769e+06	1.21786
7.94328e+06	1.21783
7.98914e+06	1.21781
8.03526e+06	1.21778
8.08165e+06	1.21775
8.12831e+06	1.21773
8.17523e+06	1.2177
8.22243e+06	1.21767
8.2699e+06	1.21765
8.31764e+06	1.21762
8.36566e+06	1.2176
8.41395e+06	1.21757
8.46253e+06	1.21755
8.51138e+06	1.21752
8.56052e+06	1.2175
8.60994e+06	1.21748
8.65964e+06	1.21745
8.70964e+06	1.21743
8.75992e+06	1.21741
8.81049e+06	1.21739
8.86135e+06	1.21736
8.91251e+06	1.21734
8.96396e+06	1.21732
9.01571e+06	1.2173
9.06776e+06	1.21728
9.12011e+06	1.21726
9.17276e+06	1.21724
9.22571e+06	1.21722
9.27897e+06	1.21719
9.33254e+06	1.21717
9.38642e+06	1.21716
9.44061e+06	1.21714
9.49511e+06	1.21712
9.54993e+06	1.2171
9.60506e+06	1.21708
9.66051e+06	1.21706
9.71628e+06	1.21704
9.77237e+06	1.21702
9.82879e+06	1.217
9.88553e+06	1.21699
9.9426e+06	1.21697
1e+07	1.21695
