Stopping power dEdx from Ionisation for K39[0.0] Z = 19 in Water, process name: ionIoni
E [MeV]	dEdx [MeV/mm]
0.001	22.7957
0.00100577	22.8618
0.00101158	22.9281
0.00101742	22.9945
0.00102329	23.0612
0.0010292	23.128
0.00103514	23.1951
0.00104112	23.2623
0.00104713	23.3298
0.00105317	23.3974
0.00105925	23.4652
0.00106537	23.5332
0.00107152	23.6014
0.00107771	23.6698
0.00108393	23.7384
0.00109018	23.8072
0.00109648	23.8762
0.00110281	23.9454
0.00110917	24.0148
0.00111558	24.0844
0.00112202	24.1542
0.0011285	24.2242
0.00113501	24.2944
0.00114156	24.3648
0.00114815	24.4354
0.00115478	24.5063
0.00116145	24.5773
0.00116815	24.6485
0.0011749	24.7199
0.00118168	24.7915
0.0011885	24.8634
0.00119536	24.9354
0.00120226	25.0077
0.00120921	25.0801
0.00121619	25.1528
0.00122321	25.2257
0.00123027	25.2988
0.00123737	25.3721
0.00124451	25.4456
0.0012517	25.5193
0.00125893	25.5932
0.00126619	25.6674
0.0012735	25.7418
0.00128086	25.8163
0.00128825	25.8911
0.00129569	25.9661
0.00130317	26.0414
0.00131069	26.1168
0.00131826	26.1924
0.00132587	26.2683
0.00133352	26.3444
0.00134122	26.4207
0.00134896	26.4973
0.00135675	26.574
0.00136458	26.651
0.00137246	26.7282
0.00138038	26.8056
0.00138835	26.8833
0.00139637	26.9611
0.00140443	27.0392
0.00141254	27.1175
0.00142069	27.1961
0.00142889	27.2748
0.00143714	27.3538
0.00144544	27.4331
0.00145378	27.5125
0.00146218	27.5922
0.00147062	27.6721
0.00147911	27.7522
0.00148765	27.8326
0.00149624	27.9132
0.00150487	27.994
0.00151356	28.0751
0.0015223	28.1564
0.00153109	28.238
0.00153993	28.3197
0.00154882	28.4017
0.00155776	28.484
0.00156675	28.5665
0.0015758	28.6492
0.00158489	28.7321
0.00159404	28.8153
0.00160325	28.8988
0.0016125	28.9824
0.00162181	29.0664
0.00163117	29.1505
0.00164059	29.2349
0.00165006	29.3196
0.00165959	29.4044
0.00166917	29.4896
0.0016788	29.575
0.0016885	29.6606
0.00169824	29.7465
0.00170805	29.8326
0.00171791	29.9189
0.00172783	30.0056
0.0017378	30.0924
0.00174783	30.1795
0.00175792	30.2669
0.00176807	30.3545
0.00177828	30.4424
0.00178855	30.5305
0.00179887	30.6189
0.00180926	30.7075
0.0018197	30.7964
0.00183021	30.8856
0.00184077	30.975
0.0018514	31.0646
0.00186209	31.1546
0.00187284	31.2447
0.00188365	31.3352
0.00189452	31.4259
0.00190546	31.5168
0.00191646	31.6081
0.00192752	31.6995
0.00193865	31.7913
0.00194984	31.8833
0.0019611	31.9756
0.00197242	32.0681
0.00198381	32.1609
0.00199526	32.254
0.00200678	32.3474
0.00201837	32.441
0.00203002	32.5349
0.00204174	32.629
0.00205353	32.7234
0.00206538	32.8181
0.0020773	32.9131
0.0020893	33.0084
0.00210136	33.1039
0.00211349	33.1997
0.00212569	33.2958
0.00213796	33.3921
0.0021503	33.4887
0.00216272	33.5856
0.0021752	33.6828
0.00218776	33.7803
0.00220039	33.878
0.00221309	33.9761
0.00222587	34.0744
0.00223872	34.173
0.00225165	34.2718
0.00226464	34.371
0.00227772	34.4705
0.00229087	34.5702
0.00230409	34.6702
0.00231739	34.7705
0.00233077	34.8711
0.00234423	34.972
0.00235776	35.0732
0.00237137	35.1747
0.00238506	35.2764
0.00239883	35.3785
0.00241268	35.4809
0.00242661	35.5835
0.00244062	35.6864
0.00245471	35.7897
0.00246888	35.8932
0.00248313	35.9971
0.00249747	36.1012
0.00251189	36.2056
0.00252639	36.3104
0.00254097	36.4154
0.00255564	36.5208
0.0025704	36.6264
0.00258523	36.7323
0.00260016	36.8386
0.00261517	36.9452
0.00263027	37.052
0.00264545	37.1592
0.00266073	37.2667
0.00267609	37.3745
0.00269153	37.4826
0.00270707	37.591
0.0027227	37.6997
0.00273842	37.8088
0.00275423	37.9181
0.00277013	38.0278
0.00278612	38.1378
0.00280221	38.2481
0.00281838	38.3587
0.00283465	38.4697
0.00285102	38.5809
0.00286748	38.6925
0.00288403	38.8044
0.00290068	38.9167
0.00291743	39.0292
0.00293427	39.1421
0.00295121	39.2553
0.00296825	39.3688
0.00298538	39.4827
0.00300262	39.5969
0.00301995	39.7114
0.00303739	39.8262
0.00305492	39.9414
0.00307256	40.0569
0.0030903	40.1727
0.00310814	40.2889
0.00312608	40.4054
0.00314413	40.5222
0.00316228	40.6394
0.00318053	40.7569
0.0031989	40.8748
0.00321736	40.993
0.00323594	41.1115
0.00325462	41.2304
0.00327341	41.3496
0.0032923	41.4692
0.00331131	41.5891
0.00333043	41.7094
0.00334965	41.83
0.00336899	41.9509
0.00338844	42.0722
0.003408	42.1938
0.00342768	42.3158
0.00344747	42.4382
0.00346737	42.5609
0.00348739	42.6839
0.00350752	42.8074
0.00352777	42.9311
0.00354813	43.0552
0.00356862	43.1797
0.00358922	43.3046
0.00360994	43.4298
0.00363078	43.5553
0.00365174	43.6812
0.00367282	43.8075
0.00369403	43.9342
0.00371535	44.0612
0.0037368	44.1886
0.00375837	44.3163
0.00378007	44.4444
0.00380189	44.5729
0.00382384	44.7018
0.00384592	44.831
0.00386812	44.9606
0.00389045	45.0906
0.00391291	45.2209
0.0039355	45.3516
0.00395822	45.4827
0.00398107	45.6142
0.00400405	45.7461
0.00402717	45.8783
0.00405042	46.0109
0.0040738	46.1439
0.00409732	46.2773
0.00412098	46.4111
0.00414477	46.5452
0.00416869	46.6798
0.00419276	46.8147
0.00421697	46.95
0.00424131	47.0857
0.0042658	47.2218
0.00429042	47.3583
0.00431519	47.4952
0.0043401	47.6325
0.00436516	47.7701
0.00439036	47.9082
0.0044157	48.0467
0.0044412	48.1855
0.00446684	48.3248
0.00449262	48.4645
0.00451856	48.6046
0.00454465	48.745
0.00457088	48.8859
0.00459727	49.0272
0.00462381	49.1689
0.0046505	49.311
0.00467735	49.4535
0.00470435	49.5964
0.00473151	49.7398
0.00475883	49.8835
0.0047863	50.0277
0.00481393	50.1723
0.00484172	50.3172
0.00486968	50.4627
0.00489779	50.6085
0.00492606	50.7547
0.0049545	50.9014
0.0049831	51.0485
0.00501187	51.196
0.00504081	51.344
0.00506991	51.4923
0.00509918	51.6411
0.00512861	51.7904
0.00515822	51.94
0.005188	52.0901
0.00521795	52.1288
0.00524807	52.2791
0.00527837	52.4299
0.00530884	52.5811
0.00533949	52.7327
0.00537032	52.8847
0.00540132	53.0372
0.0054325	53.1901
0.00546387	53.3435
0.00549541	53.4973
0.00552713	53.6516
0.00555904	53.8063
0.00559114	53.9615
0.00562341	54.1171
0.00565588	54.2731
0.00568853	54.4296
0.00572137	54.5865
0.0057544	54.7439
0.00578762	54.9018
0.00582103	55.0601
0.00585464	55.2189
0.00588844	55.3781
0.00592243	55.5378
0.00595662	55.6979
0.00599101	55.8585
0.0060256	56.0196
0.00606038	56.1811
0.00609537	56.3432
0.00613056	56.5056
0.00616595	56.6686
0.00620155	56.832
0.00623735	56.9958
0.00627336	57.1602
0.00630957	57.325
0.006346	57.4903
0.00638263	57.6561
0.00641948	57.8224
0.00645654	57.9891
0.00649382	58.1563
0.00653131	58.324
0.00656901	58.4922
0.00660693	58.6609
0.00664508	58.83
0.00668344	58.9997
0.00672202	59.1698
0.00676083	59.3404
0.00679986	59.5115
0.00683912	59.6831
0.0068786	59.8552
0.00691831	60.0278
0.00695825	60.2009
0.00699842	60.3745
0.00703882	60.5486
0.00707946	60.7232
0.00712033	60.8983
0.00716143	61.0739
0.00720278	61.2501
0.00724436	61.4267
0.00728618	61.6038
0.00732825	61.7815
0.00737055	61.9596
0.0074131	62.1383
0.0074559	62.3175
0.00749894	62.4972
0.00754223	62.6774
0.00758578	62.8581
0.00762957	63.0394
0.00767361	63.2212
0.00771792	63.4035
0.00776247	63.5863
0.00780728	63.7697
0.00785236	63.9536
0.00789769	64.138
0.00794328	64.323
0.00798914	64.5085
0.00803526	64.6945
0.00808165	64.8811
0.00812831	65.0682
0.00817523	65.2558
0.00822243	65.444
0.0082699	65.6327
0.00831764	65.822
0.00836566	66.0118
0.00841395	66.2022
0.00846253	66.3931
0.00851138	66.5845
0.00856052	66.7765
0.00860994	66.9691
0.00865964	67.1622
0.00870964	67.3559
0.00875992	67.5502
0.00881049	67.745
0.00886135	67.9403
0.00891251	68.1362
0.00896396	68.3327
0.00901571	68.5298
0.00906776	68.7274
0.00912011	68.9256
0.00917276	69.1244
0.00922571	69.3237
0.00927897	69.5236
0.00933254	69.7241
0.00938642	69.9252
0.00944061	70.1269
0.00949511	70.3291
0.00954993	70.5319
0.00960506	70.7353
0.00966051	70.9393
0.00971628	71.1439
0.00977237	71.3491
0.00982879	71.5548
0.00988553	71.7612
0.0099426	71.9681
0.01	72.1757
0.0100577	72.3838
0.0101158	72.5926
0.0101742	72.8019
0.0102329	73.0119
0.010292	73.2224
0.0103514	73.4336
0.0104112	73.6454
0.0104713	73.8578
0.0105317	74.0708
0.0105925	74.2844
0.0106537	74.4986
0.0107152	74.7135
0.0107771	74.9289
0.0108393	75.145
0.0109018	75.3617
0.0109648	75.5791
0.0110281	75.797
0.0110917	76.0156
0.0111558	76.2349
0.0112202	76.4547
0.011285	76.6752
0.0113501	76.8963
0.0114156	77.1181
0.0114815	77.3405
0.0115478	77.5636
0.0116145	77.7873
0.0116815	78.0116
0.011749	78.2366
0.0118168	78.4622
0.011885	78.6885
0.0119536	78.9154
0.0120226	79.143
0.0120921	79.3713
0.0121619	79.6002
0.0122321	79.8298
0.0123027	80.06
0.0123737	80.2909
0.0124451	80.5225
0.012517	80.7547
0.0125893	80.9876
0.0126619	81.2212
0.012735	81.4554
0.0128086	81.6903
0.0128825	81.9259
0.0129569	82.1622
0.0130317	82.3992
0.0131069	82.6368
0.0131826	82.8752
0.0132587	83.1142
0.0133352	83.3539
0.0134122	83.5943
0.0134896	83.8354
0.0135675	84.0772
0.0136458	84.3197
0.0137246	84.5629
0.0138038	84.8068
0.0138835	85.0514
0.0139637	85.2967
0.0140443	85.5427
0.0141254	85.7894
0.0142069	86.0368
0.0142889	86.285
0.0143714	86.5338
0.0144544	86.7834
0.0145378	87.0337
0.0146218	87.2847
0.0147062	87.5365
0.0147911	87.7889
0.0148765	88.0421
0.0149624	88.2961
0.0150487	88.5507
0.0151356	88.8061
0.015223	89.0623
0.0153109	89.3192
0.0153993	89.5768
0.0154882	89.8351
0.0155776	90.0942
0.0156675	90.3541
0.015758	90.6147
0.0158489	90.8761
0.0159404	91.1382
0.0160325	91.401
0.016125	91.6647
0.0162181	91.9291
0.0163117	92.1942
0.0164059	92.4601
0.0165006	92.7268
0.0165959	92.9943
0.0166917	93.2625
0.016788	93.5315
0.016885	93.8013
0.0169824	94.0718
0.0170805	94.3431
0.0171791	94.6153
0.0172783	94.8882
0.017378	95.1619
0.0174783	95.4363
0.0175792	95.7116
0.0176807	95.9877
0.0177828	96.2645
0.0178855	96.5422
0.0179887	96.8207
0.0180926	97.0999
0.018197	97.38
0.0183021	97.6609
0.0184077	97.9426
0.018514	98.2251
0.0186209	98.5084
0.0187284	98.7926
0.0188365	99.0775
0.0189452	99.3633
0.0190546	99.6499
0.0191646	99.9374
0.0192752	100.226
0.0193865	100.515
0.0194984	100.805
0.019611	101.095
0.0197242	101.387
0.0198381	101.679
0.0199526	101.973
0.0200678	102.267
0.0201837	102.562
0.0203002	102.858
0.0204174	103.154
0.0205353	103.452
0.0206538	103.75
0.020773	104.05
0.020893	104.35
0.0210136	104.651
0.0211349	104.953
0.0212569	105.255
0.0213796	105.559
0.021503	105.864
0.0216272	106.169
0.021752	106.475
0.0218776	106.782
0.0220039	107.09
0.0221309	107.399
0.0222587	107.709
0.0223872	108.02
0.0225165	108.331
0.0226464	108.644
0.0227772	108.957
0.0229087	109.272
0.0230409	109.587
0.0231739	109.903
0.0233077	110.22
0.0234423	110.538
0.0235776	110.857
0.0237137	111.177
0.0238506	111.497
0.0239883	111.819
0.0241268	112.141
0.0242661	112.465
0.0244062	112.789
0.0245471	113.115
0.0246888	113.441
0.0248313	113.768
0.0249747	114.096
0.0251189	114.426
0.0252639	114.756
0.0254097	115.087
0.0255564	115.419
0.025704	115.752
0.0258523	116.086
0.0260016	116.421
0.0261517	116.756
0.0263027	117.093
0.0264545	117.431
0.0266073	117.77
0.0267609	118.109
0.0269153	118.45
0.0270707	118.792
0.027227	119.135
0.0273842	119.478
0.0275423	119.823
0.0277013	120.169
0.0278612	120.515
0.0280221	120.863
0.0281838	121.212
0.0283465	121.561
0.0285102	121.912
0.0286748	122.264
0.0288403	122.616
0.0290068	122.97
0.0291743	123.325
0.0293427	123.681
0.0295121	124.038
0.0296825	124.395
0.0298538	124.754
0.0300262	125.114
0.0301995	125.475
0.0303739	125.837
0.0305492	126.2
0.0307256	126.564
0.030903	126.929
0.0310814	127.296
0.0312608	127.663
0.0314413	128.031
0.0316228	128.401
0.0318053	128.771
0.031989	129.143
0.0321736	129.515
0.0323594	129.889
0.0325462	130.263
0.0327341	130.639
0.032923	131.016
0.0331131	131.394
0.0333043	131.773
0.0334965	132.153
0.0336899	132.535
0.0338844	132.917
0.03408	133.301
0.0342768	133.685
0.0344747	134.071
0.0346737	134.458
0.0348739	134.846
0.0350752	135.235
0.0352777	135.625
0.0354813	136.016
0.0356862	136.409
0.0358922	136.802
0.0360994	137.197
0.0363078	137.593
0.0365174	137.99
0.0367282	138.388
0.0369403	138.787
0.0371535	139.188
0.037368	139.589
0.0375837	139.992
0.0378007	140.396
0.0380189	140.801
0.0382384	141.207
0.0384592	141.615
0.0386812	142.023
0.0389045	142.433
0.0391291	142.844
0.039355	143.256
0.0395822	143.67
0.0398107	144.084
0.0400405	144.5
0.0402717	144.917
0.0405042	145.335
0.040738	145.754
0.0409732	146.175
0.0412098	146.597
0.0414477	147.02
0.0416869	147.444
0.0419276	147.869
0.0421697	148.296
0.0424131	148.724
0.042658	149.153
0.0429042	149.583
0.0431519	150.015
0.043401	150.448
0.0436516	150.882
0.0439036	151.317
0.044157	151.754
0.044412	152.192
0.0446684	152.631
0.0449262	153.071
0.0451856	153.513
0.0454465	153.956
0.0457088	154.4
0.0459727	154.846
0.0462381	155.293
0.046505	155.741
0.0467735	156.19
0.0470435	156.641
0.0473151	157.093
0.0475883	157.546
0.047863	158.001
0.0481393	158.457
0.0484172	158.914
0.0486968	159.373
0.0489779	159.832
0.0492606	160.294
0.049545	160.756
0.049831	161.22
0.0501187	161.685
0.0504081	162.152
0.0506991	162.62
0.0509918	163.089
0.0512861	163.56
0.0515822	164.032
0.05188	164.505
0.0521795	164.98
0.0524807	165.456
0.0527837	165.933
0.0530884	166.412
0.0533949	166.893
0.0537032	167.374
0.0540132	167.857
0.054325	168.342
0.0546387	168.827
0.0549541	169.315
0.0552713	169.803
0.0555904	170.293
0.0559114	170.785
0.0562341	171.278
0.0565588	171.772
0.0568853	172.268
0.0572137	172.765
0.057544	173.263
0.0578762	173.763
0.0582103	174.265
0.0585464	174.768
0.0588844	175.272
0.0592243	175.778
0.0595662	176.285
0.0599101	176.794
0.060256	177.304
0.0606038	177.816
0.0609537	178.329
0.0613056	178.844
0.0616595	179.36
0.0620155	179.878
0.0623735	180.397
0.0627336	180.918
0.0630957	181.44
0.06346	181.963
0.0638263	182.489
0.0641948	183.015
0.0645654	183.543
0.0649382	184.073
0.0653131	184.604
0.0656901	185.137
0.0660693	185.672
0.0664508	186.207
0.0668344	186.745
0.0672202	187.284
0.0676083	187.824
0.0679986	188.367
0.0683912	188.91
0.068786	189.455
0.0691831	190.002
0.0695825	190.551
0.0699842	191.101
0.0703882	191.652
0.0707946	192.205
0.0712033	192.76
0.0716143	193.317
0.0720278	193.875
0.0724436	194.434
0.0728618	194.995
0.0732825	195.558
0.0737055	196.123
0.074131	196.689
0.074559	197.257
0.0749894	197.826
0.0754223	198.397
0.0758578	198.97
0.0762957	199.544
0.0767361	200.12
0.0771792	200.698
0.0776247	201.277
0.0780728	201.858
0.0785236	202.441
0.0789769	203.025
0.0794328	203.611
0.0798914	204.199
0.0803526	204.788
0.0808165	205.379
0.0812831	205.972
0.0817523	206.567
0.0822243	207.163
0.082699	207.761
0.0831764	208.361
0.0836566	208.962
0.0841395	209.565
0.0846253	210.17
0.0851138	210.777
0.0856052	211.386
0.0860994	211.996
0.0865964	212.608
0.0870964	213.221
0.0875992	213.837
0.0881049	214.454
0.0886135	215.073
0.0891251	215.694
0.0896396	216.317
0.0901571	216.941
0.0906776	217.568
0.0912011	218.196
0.0917276	218.826
0.0922571	219.457
0.0927897	220.091
0.0933254	220.726
0.0938642	221.364
0.0944061	222.003
0.0949511	222.644
0.0954993	223.286
0.0960506	223.931
0.0966051	224.577
0.0971628	225.226
0.0977237	225.876
0.0982879	226.528
0.0988553	227.182
0.099426	227.838
0.1	228.496
0.100577	229.156
0.101158	229.817
0.101742	230.481
0.102329	231.146
0.10292	231.813
0.103514	232.483
0.104112	233.154
0.104713	233.827
0.105317	234.502
0.105925	235.179
0.106537	235.858
0.107152	236.539
0.107771	237.222
0.108393	237.907
0.109018	238.594
0.109648	239.283
0.110281	239.974
0.110917	240.667
0.111558	241.362
0.112202	242.059
0.11285	242.757
0.113501	243.458
0.114156	244.161
0.114815	244.866
0.115478	245.573
0.116145	246.282
0.116815	246.994
0.11749	247.707
0.118168	248.422
0.11885	249.139
0.119536	249.859
0.120226	250.58
0.120921	251.304
0.121619	252.029
0.122321	252.757
0.123027	253.487
0.123737	254.219
0.124451	254.953
0.12517	255.689
0.125893	256.428
0.126619	257.168
0.12735	257.911
0.128086	258.655
0.128825	259.402
0.129569	260.151
0.130317	260.903
0.131069	261.656
0.131826	262.412
0.132587	263.17
0.133352	263.93
0.134122	264.692
0.134896	265.456
0.135675	266.223
0.136458	266.991
0.137246	267.763
0.138038	268.536
0.138835	269.311
0.139637	270.089
0.140443	270.869
0.141254	271.651
0.142069	272.436
0.142889	273.223
0.143714	274.012
0.144544	274.803
0.145378	275.597
0.146218	276.393
0.147062	277.191
0.147911	277.991
0.148765	278.794
0.149624	279.599
0.150487	280.407
0.151356	281.217
0.15223	282.029
0.153109	282.844
0.153993	283.661
0.154882	284.48
0.155776	285.301
0.156675	286.125
0.15758	286.952
0.158489	287.781
0.159404	288.612
0.160325	289.445
0.16125	290.281
0.162181	291.12
0.163117	291.961
0.164059	292.804
0.165006	293.65
0.165959	294.498
0.166917	295.349
0.16788	296.202
0.16885	297.057
0.169824	297.915
0.170805	298.776
0.171791	299.639
0.172783	300.504
0.17378	301.372
0.174783	302.243
0.175792	303.116
0.176807	303.992
0.177828	304.87
0.178855	305.75
0.179887	306.634
0.180926	307.519
0.18197	308.408
0.183021	309.299
0.184077	310.192
0.18514	311.088
0.186209	311.987
0.187284	312.888
0.188365	313.792
0.189452	314.698
0.190546	315.607
0.191646	316.519
0.192752	317.434
0.193865	318.351
0.194984	319.27
0.19611	320.193
0.197242	321.118
0.198381	322.045
0.199526	322.976
0.200678	323.909
0.201837	324.845
0.203002	325.783
0.204174	326.724
0.205353	327.668
0.206538	328.615
0.20773	329.564
0.20893	330.516
0.210136	331.471
0.211349	332.429
0.212569	333.39
0.213796	334.353
0.21503	335.319
0.216272	336.288
0.21752	337.259
0.218776	338.234
0.220039	339.211
0.221309	340.191
0.222587	341.174
0.223872	342.16
0.225165	343.148
0.226464	344.14
0.227772	345.134
0.229087	346.131
0.230409	347.132
0.231739	348.135
0.233077	349.141
0.234423	350.149
0.235776	351.161
0.237137	352.176
0.238506	353.194
0.239883	354.214
0.241268	355.238
0.242661	356.264
0.244062	357.294
0.245471	358.326
0.246888	359.362
0.248313	360.4
0.249747	361.442
0.251189	362.486
0.252639	363.534
0.254097	364.584
0.255564	365.638
0.25704	366.694
0.258523	367.754
0.260016	368.817
0.261517	369.883
0.263027	370.952
0.264545	372.024
0.266073	373.099
0.267609	374.177
0.269153	375.258
0.270707	376.343
0.27227	377.431
0.273842	378.521
0.275423	379.615
0.277013	380.712
0.278612	381.813
0.280221	382.916
0.281838	384.023
0.283465	385.133
0.285102	386.246
0.286748	387.362
0.288403	388.482
0.290068	389.605
0.291743	390.731
0.293427	391.86
0.295121	392.993
0.296825	394.129
0.298538	395.268
0.300262	396.41
0.301995	397.556
0.303739	398.705
0.305492	399.858
0.307256	401.014
0.30903	402.173
0.310814	403.335
0.312608	404.501
0.314413	405.67
0.316228	406.843
0.318053	408.019
0.31989	409.199
0.321736	410.381
0.323594	411.568
0.325462	412.758
0.327341	413.951
0.32923	415.147
0.331131	416.347
0.333043	417.551
0.334965	418.758
0.336899	419.969
0.338844	421.183
0.3408	422.4
0.342768	423.622
0.344747	424.846
0.346737	426.075
0.348739	427.306
0.350752	428.542
0.352777	429.781
0.354813	431.023
0.356862	432.269
0.358922	433.519
0.360994	434.773
0.363078	436.03
0.365174	437.29
0.367282	438.555
0.369403	439.823
0.371535	441.094
0.37368	442.37
0.375837	443.649
0.378007	444.931
0.380189	446.218
0.382384	447.508
0.384592	448.802
0.386812	450.1
0.389045	451.401
0.391291	452.706
0.39355	454.015
0.395822	455.328
0.398107	456.645
0.400405	457.965
0.402717	459.29
0.405042	460.618
0.40738	461.95
0.409732	463.286
0.412098	464.625
0.414477	465.969
0.416869	467.316
0.419276	468.668
0.421697	470.023
0.424131	471.383
0.42658	472.746
0.429042	474.113
0.431519	475.484
0.43401	476.859
0.436516	478.238
0.439036	479.621
0.44157	481.008
0.44412	482.4
0.446684	483.795
0.449262	485.194
0.451856	486.597
0.454465	488.005
0.457088	489.416
0.459727	490.832
0.462381	492.251
0.46505	493.675
0.467735	495.103
0.470435	496.535
0.473151	497.971
0.475883	499.411
0.47863	500.856
0.481393	502.305
0.484172	503.758
0.486968	505.215
0.489779	506.676
0.492606	508.142
0.49545	509.612
0.49831	511.086
0.501187	512.564
0.504081	514.047
0.506991	515.534
0.509918	517.025
0.512861	518.521
0.515822	520.021
0.5188	521.525
0.521795	523.034
0.524807	524.547
0.527837	526.065
0.530884	527.587
0.533949	529.113
0.537032	530.644
0.540132	532.179
0.54325	533.719
0.546387	535.263
0.549541	536.811
0.552713	538.364
0.555904	539.922
0.559114	541.484
0.562341	543.051
0.565588	544.622
0.568853	546.198
0.572137	547.778
0.57544	549.363
0.578762	550.953
0.582103	552.547
0.585464	554.146
0.588844	555.749
0.592243	557.357
0.595662	558.97
0.599101	560.587
0.60256	562.21
0.606038	563.836
0.609537	565.468
0.613056	567.104
0.616595	568.745
0.620155	570.391
0.623735	572.042
0.627336	573.697
0.630957	575.358
0.6346	577.023
0.638263	578.693
0.641948	580.367
0.645654	582.047
0.649382	583.731
0.653131	585.421
0.656901	587.115
0.660693	588.814
0.664508	590.518
0.668344	592.228
0.672202	593.942
0.676083	595.661
0.679986	597.385
0.683912	599.114
0.68786	600.848
0.691831	602.587
0.695825	604.331
0.699842	606.08
0.703882	607.835
0.707946	609.594
0.712033	611.359
0.716143	613.128
0.720278	614.903
0.724436	616.683
0.728618	618.468
0.732825	620.259
0.737055	622.054
0.74131	623.855
0.74559	625.661
0.749894	627.472
0.754223	629.289
0.758578	631.11
0.762957	632.938
0.767361	634.77
0.771792	636.608
0.776247	638.451
0.780728	640.299
0.785236	642.153
0.789769	644.012
0.794328	645.877
0.798914	647.747
0.803526	649.622
0.808165	651.503
0.812831	653.389
0.817523	655.281
0.822243	657.179
0.82699	659.081
0.831764	660.99
0.836566	662.904
0.841395	664.823
0.846253	666.748
0.851138	668.679
0.856052	670.615
0.860994	672.557
0.865964	674.505
0.870964	676.458
0.875992	678.417
0.881049	680.382
0.886135	682.352
0.891251	684.328
0.896396	686.31
0.901571	688.298
0.906776	690.291
0.912011	692.29
0.917276	694.295
0.922571	696.306
0.927897	698.323
0.933254	700.345
0.938642	702.374
0.944061	704.408
0.949511	706.448
0.954993	708.495
0.960506	710.547
0.966051	712.605
0.971628	714.669
0.977237	716.778
0.982879	718.956
0.988553	721.146
0.99426	723.346
1	725.559
1.00577	727.783
1.01158	730.018
1.01742	732.265
1.02329	734.524
1.0292	736.795
1.03514	739.077
1.04112	741.371
1.04713	743.678
1.05317	745.996
1.05925	748.326
1.06537	750.668
1.07152	753.022
1.07771	755.388
1.08393	757.767
1.09018	760.157
1.09648	762.56
1.10281	764.976
1.10917	767.403
1.11558	769.843
1.12202	772.296
1.1285	774.761
1.13501	777.238
1.14156	779.728
1.14815	782.231
1.15478	784.746
1.16145	787.274
1.16815	789.815
1.1749	792.305
1.18168	794.784
1.1885	797.276
1.19536	799.78
1.20226	802.296
1.20921	804.825
1.21619	807.366
1.22321	809.92
1.23027	812.487
1.23737	815.066
1.24451	817.658
1.2517	820.262
1.25893	822.88
1.26619	825.51
1.2735	828.153
1.28086	830.809
1.28825	833.478
1.29569	836.159
1.30317	838.854
1.31069	841.562
1.31826	844.282
1.32587	847.016
1.33352	849.763
1.34122	852.523
1.34896	855.296
1.35675	858.083
1.36458	860.883
1.37246	863.695
1.38038	866.522
1.38835	869.361
1.39637	872.214
1.40443	875.08
1.41254	877.96
1.42069	880.853
1.42889	883.759
1.43714	886.679
1.44544	889.613
1.45378	892.56
1.46218	895.52
1.47062	898.494
1.47911	901.482
1.48765	904.483
1.49624	907.498
1.50487	910.526
1.51356	913.569
1.5223	916.624
1.53109	919.694
1.53993	922.777
1.54882	925.874
1.55776	928.984
1.56675	932.091
1.5758	935.206
1.58489	938.334
1.59404	941.476
1.60325	944.632
1.6125	947.802
1.62181	950.986
1.63117	954.184
1.64059	957.396
1.65006	960.622
1.65959	963.862
1.66917	967.117
1.6788	970.386
1.6885	973.669
1.69824	976.967
1.70805	980.28
1.71791	983.607
1.72783	986.949
1.7378	990.306
1.74783	993.678
1.75792	997.065
1.76807	1000.47
1.77828	1003.88
1.78855	1007.32
1.79887	1010.76
1.80926	1014.23
1.8197	1017.71
1.83021	1021.2
1.84077	1024.71
1.8514	1028.24
1.86209	1031.78
1.87284	1035.33
1.88365	1038.91
1.89452	1042.5
1.90546	1046.1
1.91646	1049.73
1.92752	1053.37
1.93865	1057.02
1.94984	1060.69
1.9611	1064.38
1.97242	1068.09
1.98381	1071.81
1.99526	1075.55
2.00678	1079.3
2.01837	1083.08
2.03002	1086.87
2.04174	1090.67
2.05353	1094.5
2.06538	1098.34
2.0773	1102.2
2.0893	1106.07
2.10136	1109.97
2.11349	1113.88
2.12569	1117.8
2.13796	1121.75
2.1503	1125.71
2.16272	1129.69
2.1752	1133.69
2.18776	1137.7
2.20039	1141.74
2.21309	1145.79
2.22587	1149.85
2.23872	1153.94
2.25165	1158.04
2.26464	1162.16
2.27772	1166.3
2.29087	1170.46
2.30409	1174.63
2.31739	1178.82
2.33077	1183.03
2.34423	1187.26
2.35776	1191.5
2.37137	1195.76
2.38506	1200.04
2.39883	1204.34
2.41268	1208.66
2.42661	1212.99
2.44062	1217.34
2.45471	1221.71
2.46888	1226.1
2.48313	1230.51
2.49747	1234.93
2.51189	1239.37
2.52639	1243.83
2.54097	1248.31
2.55564	1252.81
2.5704	1257.32
2.58523	1261.85
2.60016	1266.4
2.61517	1270.97
2.63027	1275.56
2.64545	1280.16
2.66073	1284.78
2.67609	1289.43
2.69153	1294.08
2.70707	1298.76
2.7227	1303.46
2.73842	1308.17
2.75423	1312.9
2.77013	1317.65
2.78612	1322.42
2.80221	1327.21
2.81838	1332.01
2.83465	1336.83
2.85102	1341.67
2.86748	1346.53
2.88403	1351.41
2.90068	1356.3
2.91743	1361.21
2.93427	1366.14
2.95121	1371.09
2.96825	1376.06
2.98538	1381.04
3.00262	1386.04
3.01995	1391.06
3.03739	1396.1
3.05492	1401.16
3.07256	1406.23
3.0903	1411.32
3.10814	1416.43
3.12608	1421.55
3.14413	1426.69
3.16228	1431.85
3.18053	1437.03
3.1989	1442.23
3.21736	1447.44
3.23594	1452.67
3.25462	1457.91
3.27341	1463.18
3.2923	1468.46
3.31131	1473.75
3.33043	1479.07
3.34965	1484.4
3.36899	1489.75
3.38844	1495.11
3.408	1500.49
3.42768	1505.89
3.44747	1511.31
3.46737	1516.74
3.48739	1522.19
3.50752	1527.65
3.52777	1533.13
3.54813	1538.62
3.56862	1544.14
3.58922	1549.66
3.60994	1555.21
3.63078	1560.77
3.65174	1566.34
3.67282	1571.93
3.69403	1577.54
3.71535	1583.16
3.7368	1588.8
3.75837	1594.45
3.78007	1600.12
3.80189	1605.8
3.82384	1611.5
3.84592	1617.21
3.86812	1622.94
3.89045	1628.68
3.91291	1634.44
3.9355	1640.22
3.95822	1646.01
3.98107	1651.81
4.00405	1657.63
4.02717	1663.46
4.05042	1669.3
4.0738	1675.16
4.09732	1681.03
4.12098	1686.92
4.14477	1692.82
4.16869	1698.74
4.19276	1704.66
4.21697	1710.6
4.24131	1716.56
4.2658	1722.53
4.29042	1728.51
4.31519	1734.5
4.3401	1740.5
4.36516	1746.52
4.39036	1752.55
4.4157	1758.6
4.4412	1764.65
4.46684	1770.72
4.49262	1776.8
4.51856	1782.89
4.54465	1789
4.57088	1795.11
4.59727	1801.24
4.62381	1807.38
4.6505	1813.53
4.67735	1819.69
4.70435	1825.86
4.73151	1832.05
4.75883	1838.24
4.7863	1844.45
4.81393	1850.66
4.84172	1856.89
4.86968	1863.12
4.89779	1869.37
4.92606	1875.63
4.9545	1881.89
4.9831	1888.17
5.01187	1894.45
5.04081	1900.75
5.06991	1907.05
5.09918	1913.36
5.12861	1919.68
5.15822	1926.01
5.188	1932.35
5.21795	1938.7
5.24807	1945.06
5.27837	1951.42
5.30884	1957.79
5.33949	1964.17
5.37032	1970.56
5.40132	1976.95
5.4325	1983.35
5.46387	1989.76
5.49541	1996.18
5.52713	2002.6
5.55904	2009.03
5.59114	2015.46
5.62341	2021.9
5.65588	2028.35
5.68853	2034.8
5.72137	2041.26
5.7544	2047.73
5.78762	2054.2
5.82103	2060.67
5.85464	2067.14
5.88844	2073.58
5.92243	2080.01
5.95662	2086.46
5.99101	2092.9
6.0256	2099.35
6.06038	2105.8
6.09537	2112.25
6.13056	2118.71
6.16595	2125.17
6.20155	2131.63
6.23735	2138.09
6.27336	2144.55
6.30957	2151.01
6.346	2157.47
6.38263	2163.94
6.41948	2170.4
6.45654	2176.86
6.49382	2183.32
6.53131	2189.78
6.56901	2196.24
6.60693	2202.7
6.64508	2209.15
6.68344	2215.6
6.72202	2222.05
6.76083	2228.49
6.79986	2234.93
6.83912	2241.37
6.8786	2247.8
6.91831	2254.22
6.95825	2260.64
6.99842	2267.06
7.03882	2273.46
7.07946	2279.86
7.12033	2286.25
7.16143	2292.64
7.20278	2299.02
7.24436	2305.38
7.28618	2311.74
7.32825	2318.09
7.37055	2324.43
7.4131	2330.76
7.4559	2337.07
7.49894	2343.38
7.54223	2349.67
7.58578	2355.95
7.62957	2362.22
7.67361	2368.48
7.71792	2374.72
7.76247	2380.94
7.80728	2387.16
7.85236	2393.38
7.89769	2399.58
7.94328	2405.76
7.98914	2411.93
8.03526	2418.08
8.08165	2424.21
8.12831	2430.33
8.17523	2436.43
8.22243	2442.51
8.2699	2448.57
8.31764	2454.62
8.36566	2460.64
8.41395	2466.64
8.46253	2472.63
8.51138	2478.59
8.56052	2484.54
8.60994	2490.46
8.65964	2496.36
8.70964	2502.24
8.75992	2508.1
8.81049	2513.93
8.86135	2519.75
8.91251	2525.54
8.96396	2531.31
9.01571	2537.05
9.06776	2542.77
9.12011	2548.47
9.17276	2554.14
9.22571	2559.79
9.27897	2565.41
9.33254	2571.01
9.38642	2576.58
9.44061	2582.13
9.49511	2587.65
9.54993	2593.15
9.60506	2598.62
9.66051	2604.06
9.71628	2609.48
9.77237	2614.87
9.82879	2620.23
9.88553	2625.57
9.9426	2630.88
10	2636.16
10.0577	2641.41
10.1158	2646.63
10.1742	2651.83
10.2329	2657
10.292	2662.13
10.3514	2667.24
10.4112	2672.32
10.4713	2677.36
10.5317	2682.38
10.5925	2687.36
10.6537	2692.32
10.7152	2697.24
10.7771	2702.13
10.8393	2706.99
10.9018	2711.82
10.9648	2716.62
11.0281	2721.38
11.0917	2726.11
11.1558	2730.81
11.2202	2735.48
11.285	2740.11
11.3501	2744.71
11.4156	2749.28
11.4815	2753.81
11.5478	2758.32
11.6145	2762.78
11.6815	2767.22
11.749	2771.63
11.8168	2776.01
11.885	2780.35
11.9536	2784.67
12.0226	2788.94
12.0921	2793.19
12.1619	2797.4
12.2321	2801.57
12.3027	2805.71
12.3737	2809.81
12.4451	2813.88
12.517	2817.91
12.5893	2821.91
12.6619	2825.87
12.735	2829.79
12.8086	2833.68
12.8825	2837.53
12.9569	2841.34
13.0317	2845.12
13.1069	2848.86
13.1826	2852.56
13.2587	2856.23
13.3352	2859.86
13.4122	2863.45
13.4896	2867
13.5675	2870.52
13.6458	2874
13.7246	2877.44
13.8038	2880.85
13.8835	2884.22
13.9637	2887.55
14.0443	2890.85
14.1254	2894.11
14.2069	2897.33
14.2889	2900.52
14.3714	2903.67
14.4544	2906.79
14.5378	2909.87
14.6218	2912.92
14.7062	2915.93
14.7911	2918.9
14.8765	2921.84
14.9624	2924.75
15.0487	2927.63
15.1356	2930.47
15.223	2933.28
15.3109	2936.06
15.3993	2938.81
15.4882	2941.53
15.5776	2944.21
15.6675	2946.84
15.758	2949.43
15.8489	2951.99
15.9404	2954.52
16.0325	2957.02
16.125	2959.49
16.2181	2961.92
16.3117	2964.33
16.4059	2966.71
16.5006	2969.05
16.5959	2971.37
16.6917	2973.65
16.788	2975.91
16.885	2978.13
16.9824	2980.32
17.0805	2982.47
17.1791	2984.6
17.2783	2986.69
17.378	2988.76
17.4783	2990.79
17.5792	2992.78
17.6807	2994.75
17.7828	2996.68
17.8855	2998.58
17.9887	3000.45
18.0926	3002.29
18.197	3004.09
18.3021	3005.87
18.4077	3007.61
18.514	3009.32
18.6209	3010.99
18.7284	3012.64
18.8365	3014.25
18.9452	3015.83
19.0546	3017.38
19.1646	3018.9
19.2752	3020.39
19.3865	3021.85
19.4984	3023.28
19.611	3024.68
19.7242	3026.06
19.8381	3027.41
19.9526	3028.72
20.0678	3030.01
20.1837	3031.26
20.3002	3032.49
20.4174	3033.68
20.5353	3034.84
20.6538	3035.97
20.773	3037.08
20.893	3038.15
21.0136	3039.19
21.1349	3040.19
21.2569	3041.17
21.3796	3042.12
21.503	3043.04
21.6272	3043.93
21.752	3044.78
21.8776	3045.61
22.0039	3046.41
22.1309	3047.17
22.2587	3047.91
22.3872	3048.62
22.5165	3049.29
22.6464	3049.94
22.7772	3050.56
22.9087	3051.15
23.0409	3051.72
23.1739	3052.25
23.3077	3052.76
23.4423	3053.24
23.5776	3053.69
23.7137	3054.11
23.8506	3054.51
23.9883	3054.88
24.1268	3055.23
24.2661	3055.54
24.4062	3055.83
24.5471	3056.09
24.6888	3056.33
24.8313	3056.53
24.9747	3056.71
25.1189	3056.86
25.2639	3056.99
25.4097	3057.08
25.5564	3057.15
25.704	3057.2
25.8523	3057.21
26.0016	3057.2
26.1517	3057.16
26.3027	3057.1
26.4545	3057.01
26.6073	3056.89
26.7609	3056.74
26.9153	3056.57
27.0707	3056.38
27.227	3056.15
27.3842	3055.91
27.5423	3055.63
27.7013	3055.34
27.8612	3055.01
28.0221	3054.67
28.1838	3054.29
28.3465	3053.89
28.5102	3053.47
28.6748	3053.02
28.8403	3052.54
29.0068	3052.04
29.1743	3051.51
29.3427	3050.96
29.5121	3050.38
29.6825	3049.78
29.8538	3049.15
30.0262	3048.5
30.1995	3047.82
30.3739	3047.12
30.5492	3046.4
30.7256	3045.64
30.903	3044.87
31.0814	3044.07
31.2608	3043.24
31.4413	3042.4
31.6228	3041.52
31.8053	3040.63
31.989	3039.71
32.1736	3038.76
32.3594	3037.8
32.5462	3036.8
32.7341	3035.79
32.923	3034.75
33.1131	3033.69
33.3043	3032.6
33.4965	3031.49
33.6899	3030.35
33.8844	3029.19
34.08	3028.01
34.2768	3026.81
34.4747	3025.58
34.6737	3024.33
34.8739	3023.06
35.0752	3021.76
35.2777	3020.44
35.4813	3019.1
35.6862	3017.73
35.8922	3016.35
36.0994	3014.94
36.3078	3013.51
36.5174	3012.05
36.7282	3010.58
36.9403	3009.08
37.1535	3007.57
37.368	3006.03
37.5837	3004.47
37.8007	3002.88
38.0189	3001.28
38.2384	2999.66
38.4592	2998.02
38.6812	2996.36
38.9045	2994.67
39.1291	2992.97
39.355	2991.26
39.5822	2989.52
39.8107	2987.76
40.0405	2985.98
40.2717	2984.19
40.5042	2982.37
40.738	2980.54
40.9732	2978.68
41.2098	2976.81
41.4477	2974.91
41.6869	2972.99
41.9276	2971.06
42.1697	2969.1
42.4131	2967.13
42.658	2965.13
42.9042	2963.11
43.1519	2961.08
43.401	2959.02
43.6516	2956.94
43.9036	2954.84
44.157	2952.72
44.412	2950.58
44.6684	2948.42
44.9262	2946.24
45.1856	2944.04
45.4465	2941.82
45.7088	2939.57
45.9727	2937.31
46.2381	2935.03
46.505	2932.72
46.7735	2930.4
47.0435	2928.05
47.3151	2925.68
47.5883	2923.3
47.863	2920.89
48.1393	2918.46
48.4172	2916.01
48.6968	2913.54
48.9779	2911.05
49.2606	2908.54
49.545	2906.01
49.831	2903.46
50.1187	2900.89
50.4081	2898.3
50.6991	2895.69
50.9918	2893.06
51.2861	2890.42
51.5822	2887.75
51.88	2885.06
52.1795	2882.35
52.4807	2879.63
52.7837	2876.88
53.0884	2874.12
53.3949	2871.34
53.7032	2868.54
54.0132	2865.72
54.325	2862.88
54.6387	2860.03
54.9541	2857.16
55.2713	2854.27
55.5904	2851.36
55.9114	2848.44
56.2341	2845.5
56.5588	2842.55
56.8853	2839.58
57.2137	2836.59
57.544	2833.59
57.8762	2830.58
58.2103	2827.55
58.5464	2824.5
58.8844	2821.43
59.2243	2818.34
59.5662	2815.24
59.9101	2812.13
60.256	2809
60.6038	2805.86
60.9537	2802.71
61.3056	2799.54
61.6595	2796.35
62.0155	2793.16
62.3735	2789.94
62.7336	2786.72
63.0957	2783.48
63.46	2780.23
63.8263	2776.96
64.1948	2773.68
64.5654	2770.39
64.9382	2767.08
65.3131	2763.76
65.6901	2760.42
66.0693	2757.07
66.4508	2753.71
66.8344	2750.33
67.2202	2746.94
67.6083	2743.53
67.9986	2740.11
68.3912	2736.68
68.786	2733.23
69.1831	2729.77
69.5825	2726.29
69.9842	2722.81
70.3882	2719.3
70.7946	2715.79
71.2033	2712.26
71.6143	2708.71
72.0278	2705.15
72.4436	2701.58
72.8618	2697.99
73.2825	2694.4
73.7055	2690.78
74.131	2687.16
74.559	2683.52
74.9894	2679.86
75.4223	2676.19
75.8578	2672.51
76.2957	2668.82
76.7361	2665.11
77.1792	2661.39
77.6247	2657.65
78.0728	2653.9
78.5236	2650.14
78.9769	2646.36
79.4328	2642.57
79.8914	2638.76
80.3526	2634.94
80.8165	2631.11
81.2831	2627.27
81.7523	2623.41
82.2243	2619.54
82.699	2615.66
83.1764	2611.76
83.6566	2607.85
84.1395	2603.93
84.6253	2600
85.1138	2596.05
85.6052	2592.09
86.0994	2588.12
86.5964	2584.13
87.0964	2580.14
87.5992	2576.13
88.1049	2572.11
88.6135	2568.07
89.1251	2564.03
89.6396	2559.97
90.1571	2555.9
90.6776	2551.82
91.2011	2547.73
91.7276	2543.63
92.2571	2539.51
92.7897	2535.39
93.3254	2531.25
93.8642	2527.1
94.4061	2522.94
94.9511	2518.78
95.4993	2514.59
96.0506	2510.4
96.6051	2506.2
97.1628	2501.99
97.7237	2497.77
98.2879	2493.54
98.8553	2489.29
99.426	2485.04
100	2480.78
100.577	2476.51
101.158	2472.22
101.742	2467.93
102.329	2463.63
102.92	2459.32
103.514	2455
104.112	2450.67
104.713	2446.33
105.317	2441.99
105.925	2437.63
106.537	2433.26
107.152	2428.89
107.771	2424.5
108.393	2420.11
109.018	2415.71
109.648	2411.3
110.281	2406.88
110.917	2402.45
111.558	2398.02
112.202	2393.57
112.85	2389.12
113.501	2384.66
114.156	2380.19
114.815	2375.71
115.478	2371.23
116.145	2366.73
116.815	2362.23
117.49	2357.72
118.168	2353.2
118.85	2348.68
119.536	2344.14
120.226	2339.6
120.921	2335.05
121.619	2330.5
122.321	2325.93
123.027	2321.36
123.737	2316.79
124.451	2312.2
125.17	2307.61
125.893	2303.01
126.619	2298.41
127.35	2293.8
128.086	2289.18
128.825	2284.55
129.569	2279.92
130.317	2275.29
131.069	2270.64
131.826	2265.99
132.587	2261.33
133.352	2256.67
134.122	2252
134.896	2247.33
135.675	2242.65
136.458	2237.96
137.246	2233.27
138.038	2228.57
138.835	2223.86
139.637	2219.15
140.443	2214.44
141.254	2209.72
142.069	2204.99
142.889	2200.26
143.714	2195.52
144.544	2190.77
145.378	2186.03
146.218	2181.27
147.062	2176.51
147.911	2171.75
148.765	2166.97
149.624	2162.2
150.487	2157.42
151.356	2152.63
152.23	2147.84
153.109	2143.04
153.993	2138.24
154.882	2133.43
155.776	2128.61
156.675	2123.8
157.58	2119
158.489	2114.18
159.404	2109.36
160.325	2104.54
161.25	2099.71
162.181	2094.87
163.117	2090.04
164.059	2085.19
165.006	2080.35
165.959	2075.5
166.917	2070.64
167.88	2065.78
168.85	2060.92
169.824	2056.05
170.805	2051.18
171.791	2046.31
172.783	2041.44
173.78	2036.56
174.783	2031.67
175.792	2026.79
176.807	2021.9
177.828	2017.01
178.855	2012.12
179.887	2007.22
180.926	2002.33
181.97	1997.43
183.021	1992.53
184.077	1987.62
185.14	1982.72
186.209	1977.81
187.284	1972.9
188.365	1967.99
189.452	1963.08
190.546	1958.17
191.646	1953.25
192.752	1948.34
193.865	1943.42
194.984	1938.5
196.11	1933.58
197.242	1928.66
198.381	1923.73
199.526	1918.81
200.678	1913.88
201.837	1908.96
203.002	1904.03
204.174	1899.11
205.353	1894.18
206.538	1889.25
207.73	1884.33
208.93	1879.4
210.136	1874.48
211.349	1869.55
212.569	1864.63
213.796	1859.71
215.03	1854.78
216.272	1849.86
217.52	1844.94
218.776	1840.02
220.039	1835.1
221.309	1830.18
222.587	1825.26
223.872	1820.34
225.165	1815.42
226.464	1810.51
227.772	1805.59
229.087	1800.68
230.409	1795.77
231.739	1790.86
233.077	1785.95
234.423	1781.04
235.776	1776.13
237.137	1771.22
238.506	1766.31
239.883	1761.41
241.268	1756.5
242.661	1751.6
244.062	1746.7
245.471	1741.8
246.888	1736.9
248.313	1732.01
249.747	1727.12
251.189	1722.22
252.639	1717.34
254.097	1712.45
255.564	1707.56
257.04	1702.68
258.523	1697.8
260.016	1692.92
261.517	1688.05
263.027	1683.18
264.545	1678.31
266.073	1673.44
267.609	1668.58
269.153	1663.71
270.707	1658.85
272.27	1654
273.842	1649.14
275.423	1644.29
277.013	1639.45
278.612	1634.6
280.221	1629.76
281.838	1624.92
283.465	1620.08
285.102	1615.25
286.748	1610.42
288.403	1605.59
290.068	1600.77
291.743	1595.95
293.427	1591.14
295.121	1586.33
296.825	1581.52
298.538	1576.71
300.262	1571.91
301.995	1567.12
303.739	1562.32
305.492	1557.54
307.256	1552.75
309.03	1547.97
310.814	1543.19
312.608	1538.42
314.413	1533.65
316.228	1528.88
318.053	1524.12
319.89	1519.36
321.736	1514.61
323.594	1509.86
325.462	1505.12
327.341	1500.38
329.23	1495.65
331.131	1490.92
333.043	1486.19
334.965	1481.48
336.899	1476.76
338.844	1472.06
340.8	1467.35
342.768	1462.66
344.747	1457.97
346.737	1453.28
348.739	1448.6
350.752	1443.93
352.777	1439.27
354.813	1434.61
356.862	1429.95
358.922	1425.3
360.994	1420.66
363.078	1416.03
365.174	1411.4
367.282	1406.77
369.403	1402.16
371.535	1397.55
373.68	1392.94
375.837	1388.34
378.007	1383.75
380.189	1379.16
382.384	1374.58
384.592	1370
386.812	1365.43
389.045	1360.87
391.291	1356.3
393.55	1351.74
395.822	1347.19
398.107	1342.63
400.405	1338.09
402.717	1333.55
405.042	1329.02
407.38	1324.49
409.732	1319.97
412.098	1315.46
414.477	1310.95
416.869	1306.45
419.276	1301.95
421.697	1297.47
424.131	1292.99
426.58	1288.52
429.042	1284.05
431.519	1279.6
434.01	1275.15
436.516	1270.71
439.036	1266.28
441.57	1261.86
444.12	1257.44
446.684	1253.04
449.262	1248.64
451.856	1244.25
454.465	1239.87
457.088	1235.5
459.727	1231.14
462.381	1226.78
465.05	1222.44
467.735	1218.11
470.435	1213.78
473.151	1209.47
475.883	1205.16
478.63	1200.87
481.393	1196.58
484.172	1192.31
486.968	1188.04
489.779	1183.78
492.606	1179.53
495.45	1175.3
498.31	1171.07
501.187	1166.85
504.081	1162.64
506.991	1158.44
509.918	1154.26
512.861	1150.08
515.822	1145.91
518.8	1141.75
521.795	1137.59
524.807	1133.45
527.837	1129.32
530.884	1125.2
533.949	1121.08
537.032	1116.97
540.132	1112.88
543.25	1108.79
546.387	1104.71
549.541	1100.63
552.713	1096.57
555.904	1092.51
559.114	1088.46
562.341	1084.42
565.588	1080.38
568.853	1076.35
572.137	1072.32
575.44	1068.3
578.762	1064.29
582.103	1060.28
585.464	1056.29
588.844	1052.37
592.243	1048.45
595.662	1044.54
599.101	1040.63
602.56	1036.73
606.038	1032.83
609.537	1028.94
613.056	1025.06
616.595	1021.18
620.155	1017.31
623.735	1013.45
627.336	1009.59
630.957	1005.74
634.6	1001.89
638.263	998.052
641.948	994.222
645.654	990.399
649.382	986.583
653.131	982.776
656.901	978.976
660.693	975.185
664.508	971.401
668.344	967.627
672.202	963.86
676.083	960.103
679.986	956.354
683.912	952.615
687.86	948.884
691.831	945.163
695.825	941.452
699.842	937.75
703.882	934.058
707.946	930.376
712.033	926.703
716.143	923.041
720.278	919.389
724.436	915.747
728.618	912.116
732.825	908.495
737.055	904.885
741.31	901.286
745.59	897.697
749.894	894.12
754.223	890.553
758.578	886.998
762.957	883.453
767.361	879.92
771.792	876.397
776.247	872.887
780.728	869.384
785.236	865.879
789.769	862.385
794.328	858.903
798.914	855.432
803.526	851.972
808.165	848.524
812.831	845.088
817.523	841.664
822.243	838.252
826.99	834.851
831.764	831.462
836.566	828.086
841.395	824.721
846.253	821.368
851.138	818.028
856.052	814.699
860.994	811.383
865.964	808.078
870.964	804.785
875.992	801.504
881.049	798.236
886.135	794.979
891.251	791.733
896.396	788.5
901.571	785.278
906.776	782.068
912.011	778.868
917.276	775.681
922.571	772.504
927.897	769.338
933.254	766.184
938.642	763.04
944.061	759.906
949.511	756.782
954.993	753.669
960.506	750.566
966.051	747.472
971.628	744.387
977.237	741.311
982.879	738.243
988.553	735.184
994.26	732.134
1000	729.094
1005.77	726.063
1011.58	723.041
1017.42	720.028
1023.29	717.025
1029.2	714.032
1035.14	711.048
1041.12	708.075
1047.13	705.111
1053.17	702.156
1059.25	699.212
1065.37	696.278
1071.52	693.354
1077.71	690.44
1083.93	687.536
1090.18	684.642
1096.48	681.758
1102.81	678.885
1109.17	676.021
1115.58	673.168
1122.02	670.325
1128.5	667.492
1135.01	664.669
1141.56	661.857
1148.15	659.054
1154.78	656.261
1161.45	653.478
1168.15	650.705
1174.9	647.938
1181.68	645.18
1188.5	642.431
1195.36	639.692
1202.26	636.963
1209.21	634.245
1216.19	631.537
1223.21	628.839
1230.27	626.151
1237.37	623.474
1244.51	620.808
1251.7	618.152
1258.93	615.507
1266.19	612.873
1273.5	610.249
1280.86	607.637
1288.25	605.035
1295.69	602.444
1303.17	599.864
1310.69	597.295
1318.26	594.737
1325.87	592.19
1333.52	589.653
1341.22	587.128
1348.96	584.614
1356.75	582.11
1364.58	579.618
1372.46	577.136
1380.38	574.665
1388.35	572.205
1396.37	569.755
1404.43	567.316
1412.54	564.887
1420.69	562.469
1428.89	560.061
1437.14	557.663
1445.44	555.275
1453.78	552.898
1462.18	550.529
1470.62	548.171
1479.11	545.822
1487.65	543.481
1496.24	541.15
1504.87	538.828
1513.56	536.514
1522.3	534.209
1531.09	531.912
1539.93	529.622
1548.82	527.34
1557.76	525.065
1566.75	522.81
1575.8	520.567
1584.89	518.331
1594.04	516.102
1603.25	513.881
1612.5	511.666
1621.81	509.46
1631.17	507.26
1640.59	505.069
1650.06	502.885
1659.59	500.709
1669.17	498.54
1678.8	496.38
1688.5	494.228
1698.24	492.084
1708.05	489.948
1717.91	487.82
1727.83	485.701
1737.8	483.59
1747.83	481.487
1757.92	479.393
1768.07	477.308
1778.28	475.231
1788.55	473.163
1798.87	471.103
1809.26	469.052
1819.7	467.01
1830.21	464.977
1840.77	462.953
1851.4	460.937
1862.09	458.93
1872.84	456.932
1883.65	454.943
1894.52	452.962
1905.46	450.99
1916.46	449.028
1927.52	447.073
1938.65	445.128
1949.84	443.191
1961.1	441.259
1972.42	439.335
1983.81	437.42
1995.26	435.514
2006.78	433.616
2018.37	431.727
2030.02	429.847
2041.74	427.975
2053.53	426.113
2065.38	424.259
2077.3	422.414
2089.3	420.578
2101.36	418.75
2113.49	416.931
2125.69	415.121
2137.96	413.32
2150.3	411.527
2162.72	409.742
2175.2	407.967
2187.76	406.199
2200.39	404.44
2213.09	402.689
2225.87	400.947
2238.72	399.212
2251.65	397.486
2264.64	395.767
2277.72	394.056
2290.87	392.353
2304.09	390.657
2317.39	388.969
2330.77	387.288
2344.23	385.613
2357.76	383.946
2371.37	382.285
2385.06	380.631
2398.83	378.985
2412.68	377.345
2426.61	375.712
2440.62	374.087
2454.71	372.469
2468.88	370.857
2483.13	369.253
2497.47	367.657
2511.89	366.067
2526.39	364.485
2540.97	362.91
2555.64	361.342
2570.4	359.781
2585.23	358.227
2600.16	356.681
2615.17	355.142
2630.27	353.609
2645.45	352.084
2660.73	350.566
2676.09	349.055
2691.53	347.551
2707.07	346.054
2722.7	344.564
2738.42	343.08
2754.23	341.604
2770.13	340.134
2786.12	338.67
2802.21	337.214
2818.38	335.764
2834.65	334.321
2851.02	332.885
2867.48	331.456
2884.03	330.034
2900.68	328.618
2917.43	327.209
2934.27	325.807
2951.21	324.411
2968.25	323.023
2985.38	321.641
3002.62	320.265
3019.95	318.896
3037.39	317.534
3054.92	316.178
3072.56	314.828
3090.3	313.484
3108.14	312.147
3126.08	310.816
3144.13	309.491
3162.28	308.172
3180.53	306.86
3198.9	305.553
3217.36	304.252
3235.94	302.958
3254.62	301.67
3273.41	300.388
3292.3	299.112
3311.31	297.843
3330.43	296.579
3349.65	295.322
3368.99	294.071
3388.44	292.826
3408	291.587
3427.68	290.354
3447.47	289.127
3467.37	287.907
3487.39	286.692
3507.52	285.483
3527.77	284.28
3548.13	283.083
3568.62	281.891
3589.22	280.706
3609.94	279.526
3630.78	278.351
3651.74	277.183
3672.82	276.02
3694.03	274.862
3715.35	273.71
3736.8	272.563
3758.37	271.422
3780.07	270.209
3801.89	268.994
3823.84	267.785
3845.92	266.581
3868.12	265.383
3890.45	264.191
3912.91	263.002
3935.5	261.818
3958.22	260.639
3981.07	259.466
4004.05	258.298
4027.17	257.135
4050.42	255.978
4073.8	254.827
4097.32	253.681
4120.98	252.541
4144.77	251.407
4168.69	250.278
4192.76	249.156
4216.97	248.039
4241.31	246.928
4265.8	245.823
4290.42	244.724
4315.19	243.631
4340.1	242.543
4365.16	241.462
4390.36	240.387
4415.7	239.318
4441.2	238.255
4466.84	237.199
4492.62	236.148
4518.56	235.104
4544.65	234.065
4570.88	233.033
4597.27	232.007
4623.81	230.987
4650.5	229.974
4677.35	228.966
4704.35	227.965
4731.51	226.97
4758.83	225.981
4786.3	224.998
4813.93	224.022
4841.72	223.051
4869.68	222.086
4897.79	221.128
4926.06	220.175
4954.5	219.229
4983.1	218.288
5011.87	217.354
5040.81	216.425
5069.91	215.502
5099.18	214.584
5128.61	213.673
5158.22	212.767
5188	211.866
5217.95	210.971
5248.07	210.081
5278.37	209.197
5308.84	208.317
5339.49	207.443
5370.32	206.574
5401.32	205.709
5432.5	204.849
5463.87	203.994
5495.41	203.143
5527.13	202.297
5559.04	201.455
5591.14	200.617
5623.41	199.782
5655.88	198.952
5688.53	198.124
5721.37	197.301
5754.4	196.48
5787.62	195.662
5821.03	194.847
5854.64	194.038
5888.44	193.253
5922.43	192.47
5956.62	191.69
5991.01	190.912
6025.6	190.137
6060.38	189.364
6095.37	188.594
6130.56	187.827
6165.95	187.063
6201.55	186.301
6237.35	185.542
6273.36	184.787
6309.57	184.034
6346	183.284
6382.63	182.537
6419.48	181.793
6456.54	181.052
6493.82	180.314
6531.31	179.579
6569.01	178.848
6606.93	178.119
6645.08	177.394
6683.44	176.672
6722.02	175.954
6760.83	175.239
6799.86	174.527
6839.12	173.818
6878.6	173.113
6918.31	172.412
6958.25	171.713
6998.42	171.019
7038.82	170.328
7079.46	169.64
7120.33	168.956
7161.43	168.276
7202.78	167.599
7244.36	166.926
7286.18	166.257
7328.25	165.591
7370.55	164.929
7413.1	164.271
7455.9	163.616
7498.94	162.965
7542.23	162.318
7585.78	161.675
7629.57	161.036
7673.61	160.4
7717.92	159.768
7762.47	159.14
7807.28	158.515
7852.36	157.891
7897.69	157.271
7943.28	156.654
7989.14	156.041
8035.26	155.433
8081.65	154.827
8128.31	154.226
8175.23	153.629
8222.43	153.035
8269.9	152.445
8317.64	151.859
8365.66	151.277
8413.95	150.698
8462.53	150.124
8511.38	149.553
8560.52	148.985
8609.94	148.422
8659.64	147.862
8709.64	147.306
8759.92	146.753
8810.49	146.204
8861.35	145.659
8912.51	145.117
8963.96	144.579
9015.71	144.044
9067.76	143.512
9120.11	142.984
9172.76	142.459
9225.71	141.937
9278.97	141.418
9332.54	140.903
9386.42	140.39
9440.61	139.88
9495.11	139.374
9549.93	138.87
9605.06	138.368
9660.51	137.87
9716.28	137.374
9772.37	136.88
9828.79	136.388
9885.53	135.899
9942.6	135.412
10000	134.928
10057.7	134.445
10115.8	133.966
10174.2	133.489
10232.9	133.014
10292	132.541
10351.4	132.071
10411.2	131.604
10471.3	131.139
10531.7	130.677
10592.5	130.216
10653.7	129.759
10715.2	129.304
10777.1	128.851
10839.3	128.401
10901.8	127.953
10964.8	127.508
11028.1	127.066
11091.7	126.625
11155.8	126.188
11220.2	125.752
11285	125.319
11350.1	124.889
11415.6	124.461
11481.5	124.035
11547.8	123.612
11614.5	123.19
11681.5	122.772
11749	122.355
11816.8	121.94
11885	121.527
11953.6	121.116
12022.6	120.708
12092.1	120.303
12161.9	119.899
12232.1	119.498
12302.7	119.099
12373.7	118.703
12445.1	118.309
12517	117.918
12589.3	117.529
12661.9	117.142
12735	116.758
12808.6	116.376
12882.5	115.997
12956.9	115.62
13031.7	115.245
13106.9	114.873
13182.6	114.503
13258.7	114.136
13335.2	113.771
13412.2	113.408
13489.6	113.048
13567.5	112.69
13645.8	112.334
13724.6	111.981
13803.8	111.63
13883.5	111.282
13963.7	110.936
14044.3	110.592
14125.4	110.25
14206.9	109.91
14288.9	109.573
14371.4	109.238
14454.4	108.905
14537.8	108.574
14621.8	108.245
14706.2	107.918
14791.1	107.593
14876.5	107.27
14962.4	106.948
15048.7	106.629
15135.6	106.311
15223	105.996
15310.9	105.681
15399.3	105.369
15488.2	105.058
15577.6	104.748
15667.5	104.442
15758	104.139
15848.9	103.837
15940.4	103.536
16032.5	103.236
16125	102.939
16218.1	102.642
16311.7	102.347
16405.9	102.054
16500.6	101.762
16595.9	101.472
16691.7	101.183
16788	100.896
16885	100.61
16982.4	100.326
17080.5	100.044
17179.1	99.7631
17278.3	99.4838
17378	99.2061
17478.3	98.9301
17579.2	98.6557
17680.7	98.3829
17782.8	98.1117
17885.5	97.8421
17988.7	97.5742
18092.6	97.308
18197	97.0433
18302.1	96.7803
18407.7	96.519
18514	96.2593
18620.9	96.0012
18728.4	95.7448
18836.5	95.49
18945.2	95.2368
19054.6	94.9852
19164.6	94.7353
19275.2	94.4869
19386.5	94.2402
19498.4	93.9951
19611	93.7508
19724.2	93.5082
19838.1	93.2671
19952.6	93.0276
20067.8	92.7897
20183.7	92.5533
20300.2	92.3186
20417.4	92.0854
20535.3	91.8538
20653.8	91.6238
20773	91.3954
20893	91.1686
21013.6	90.9433
21134.9	90.7195
21256.9	90.4974
21379.6	90.2767
21503	90.0577
21627.2	89.8401
21752	89.624
21877.6	89.4095
22003.9	89.1964
22130.9	88.9848
22258.7	88.7747
22387.2	88.566
22516.5	88.3587
22646.4	88.1528
22777.2	87.9483
22908.7	87.7451
23040.9	87.5433
23173.9	87.3427
23307.7	87.1435
23442.3	86.9454
23577.6	86.7486
23713.7	86.5529
23850.6	86.3585
23988.3	86.1654
24126.8	85.9734
24266.1	85.7827
24406.2	85.5932
24547.1	85.405
24688.8	85.218
24831.3	85.0322
24974.7	84.8476
25118.9	84.6643
25263.9	84.4822
25409.7	84.3014
25556.4	84.1217
25704	83.9433
25852.3	83.766
26001.6	83.59
26151.7	83.4152
26302.7	83.2415
26454.5	83.069
26607.3	82.8977
26760.9	82.7275
26915.3	82.5585
27070.7	82.3906
27227	82.2238
27384.2	82.058
27542.3	81.8934
27701.3	81.7299
27861.2	81.5675
28022.1	81.4061
28183.8	81.2459
28346.5	81.0868
28510.2	80.9287
28674.8	80.7718
28840.3	80.616
29006.8	80.4613
29174.3	80.3077
29342.7	80.1552
29512.1	80.0038
29682.5	79.8535
29853.8	79.7043
30026.2	79.5562
30199.5	79.4091
30373.9	79.2632
30549.2	79.1183
30725.6	78.9746
30903	78.8318
31081.4	78.6902
31260.8	78.5495
31441.3	78.4099
31622.8	78.2714
31805.3	78.1339
31989	77.9974
32173.6	77.8619
32359.4	77.7274
32546.2	77.594
32734.1	77.4616
32923	77.3301
33113.1	77.1997
33304.3	77.0703
33496.5	76.9418
33689.9	76.8143
33884.4	76.6877
34080	76.5621
34276.8	76.4374
34474.7	76.3136
34673.7	76.1907
34873.9	76.0687
35075.2	75.9476
35277.7	75.8273
35481.3	75.7078
35686.2	75.5892
35892.2	75.4713
36099.4	75.3542
36307.8	75.2379
36517.4	75.1222
36728.2	75.0073
36940.3	74.893
37153.5	74.7793
37368	74.6662
37583.7	74.5538
37800.7	74.4418
38018.9	74.3304
38238.4	74.2194
38459.2	74.1088
38681.2	73.9986
38904.5	73.8888
39129.1	73.7767
39355	73.6635
39582.2	73.5511
39810.7	73.4395
40040.5	73.3287
40271.7	73.2188
40504.2	73.1096
40738	73.0013
40973.2	72.8938
41209.8	72.7871
41447.7	72.6813
41686.9	72.5762
41927.6	72.4718
42169.7	72.3683
42413.1	72.2656
42658	72.1636
42904.2	72.0624
43151.9	71.962
43401	71.8624
43651.6	71.7635
43903.6	71.6653
44157	71.5679
44412	71.4713
44668.4	71.3754
44926.2	71.2802
45185.6	71.1858
45446.5	71.0921
45708.8	70.9992
45972.7	70.9069
46238.1	70.8154
46505	70.7246
46773.5	70.6345
47043.5	70.5451
47315.1	70.4564
47588.3	70.3684
47863	70.2811
48139.3	70.1945
48417.2	70.1085
48696.8	70.0233
48977.9	69.9387
49260.6	69.8548
49545	69.7716
49831	69.6891
50118.7	69.6072
50408.1	69.5259
50699.1	69.4453
50991.8	69.3654
51286.1	69.2861
51582.2	69.2075
51880	69.1295
52179.5	69.0521
52480.7	68.9754
52783.7	68.8993
53088.4	68.8238
53394.9	68.7489
53703.2	68.6747
54013.2	68.6011
54325	68.528
54638.7	68.4556
54954.1	68.3838
55271.3	68.3126
55590.4	68.242
55911.4	68.172
56234.1	68.1025
56558.8	68.0337
56885.3	67.9654
57213.7	67.8977
57544	67.8306
57876.2	67.764
58210.3	67.6981
58546.4	67.6326
58884.4	67.5678
59224.3	67.5035
59566.2	67.4397
59910.1	67.3765
60256	67.3139
60603.8	67.2518
60953.7	67.1902
61305.6	67.1292
61659.5	67.0687
62015.5	67.0088
62373.5	66.9493
62733.6	66.8904
63095.7	66.832
63460	66.7741
63826.3	66.7168
64194.8	66.6599
64565.4	66.6036
64938.2	66.5478
65313.1	66.4924
65690.1	66.4376
66069.3	66.3833
66450.8	66.3294
66834.4	66.276
67220.2	66.2232
67608.3	66.1708
67998.6	66.1189
68391.2	66.0674
68786	66.0165
69183.1	65.966
69582.5	65.916
69984.2	65.8664
70388.2	65.8173
70794.6	65.7687
71203.3	65.7205
71614.3	65.6728
72027.8	65.6255
72443.6	65.5787
72861.8	65.5323
73282.5	65.4863
73705.5	65.4408
74131	65.3958
74559	65.3511
74989.4	65.3069
75422.3	65.2631
75857.8	65.2198
76295.7	65.1768
76736.1	65.1343
77179.2	65.0922
77624.7	65.0505
78072.8	65.0093
78523.6	64.9684
78976.9	64.9279
79432.8	64.8879
79891.4	64.8482
80352.6	64.8089
80816.5	64.77
81283.1	64.7316
81752.3	64.6935
82224.3	64.6558
82699	64.6184
83176.4	64.5815
83656.6	64.5449
84139.5	64.5087
84625.3	64.4729
85113.8	64.4375
85605.2	64.4024
86099.4	64.3677
86596.4	64.3333
87096.4	64.2993
87599.2	64.2657
88104.9	64.2324
88613.5	64.1995
89125.1	64.1669
89639.6	64.1347
90157.1	64.1028
90677.6	64.0713
91201.1	64.0401
91727.6	64.0092
92257.1	63.9787
92789.7	63.9485
93325.4	63.9187
93864.2	63.8891
94406.1	63.8599
94951.1	63.831
95499.3	63.8025
96050.6	63.7742
96605.1	63.7463
97162.8	63.7187
97723.7	63.6914
98287.9	63.6644
98855.3	63.6377
99426	63.6114
100000	63.5853
100577	63.5595
101158	63.5341
101742	63.5089
102329	63.484
102920	63.4594
103514	63.4351
104112	63.4111
104713	63.3874
105317	63.3639
105925	63.3408
106537	63.3179
107152	63.2953
107771	63.2729
108393	63.2509
109018	63.2291
109648	63.2076
110281	63.1863
110917	63.1653
111558	63.1446
112202	63.1241
112850	63.1039
113501	63.084
114156	63.0643
114815	63.0448
115478	63.0256
116145	63.0067
116815	62.988
117490	62.9695
118168	62.9513
118850	62.9333
119536	62.9156
120226	62.8981
120921	62.8808
121619	62.8638
122321	62.847
123027	62.8304
123737	62.814
124451	62.7979
125170	62.782
125893	62.7663
126619	62.7509
127350	62.7356
128086	62.7206
128825	62.7058
129569	62.6912
130317	62.6768
131069	62.6626
131826	62.6487
132587	62.6349
133352	62.6213
134122	62.608
134896	62.5948
135675	62.5819
136458	62.5691
137246	62.5565
138038	62.5441
138835	62.5319
139637	62.5199
140443	62.5081
141254	62.4965
142069	62.4851
142889	62.4738
143714	62.4628
144544	62.4519
145378	62.4411
146218	62.4306
147062	62.4202
147911	62.4101
148765	62.4
149624	62.3902
150487	62.3805
151356	62.371
152230	62.3617
153109	62.3525
153993	62.3435
154882	62.3346
155776	62.3259
156675	62.3174
157580	62.309
158489	62.3008
159404	62.2927
160325	62.2848
161250	62.277
162181	62.2694
163117	62.2619
164059	62.2546
165006	62.2474
165959	62.2404
166917	62.2335
167880	62.2268
168850	62.2201
169824	62.2137
170805	62.2073
171791	62.2011
172783	62.1951
173780	62.1891
174783	62.1833
175792	62.1777
176807	62.1721
177828	62.1667
178855	62.1614
179887	62.1563
180926	62.1512
181970	62.1463
183021	62.1415
184077	62.1369
185140	62.1323
186209	62.1279
187284	62.1235
188365	62.1193
189452	62.1152
190546	62.1113
191646	62.1074
192752	62.1036
193865	62.1
194984	62.0965
196110	62.093
197242	62.0897
198381	62.0865
199526	62.0834
200678	62.0803
201837	62.0774
203002	62.0746
204174	62.0719
205353	62.0693
206538	62.0668
207730	62.0643
208930	62.062
210136	62.0598
211349	62.0576
212569	62.0556
213796	62.0536
215030	62.0517
216272	62.0499
217520	62.0482
218776	62.0466
220039	62.0451
221309	62.0437
222587	62.0423
223872	62.041
225165	62.0398
226464	62.0387
227772	62.0377
229087	62.0367
230409	62.0358
231739	62.035
233077	62.0343
234423	62.0336
235776	62.033
237137	62.0325
238506	62.0321
239883	62.0317
241268	62.0314
242661	62.0312
244062	62.031
245471	62.0309
246888	62.0309
248313	62.031
249747	62.0311
251189	62.0312
252639	62.0315
254097	62.0317
255564	62.0321
257040	62.0325
258523	62.033
260016	62.0335
261517	62.0341
263027	62.0348
264545	62.0355
266073	62.0362
267609	62.037
269153	62.0379
270707	62.0388
272270	62.0398
273842	62.0408
275423	62.0419
277013	62.043
278612	62.0442
280221	62.0454
281838	62.0467
283465	62.048
285102	62.0494
286748	62.0508
288403	62.0522
290068	62.0537
291743	62.0553
293427	62.0569
295121	62.0585
296825	62.0602
298538	62.0619
300262	62.0636
301995	62.0654
303739	62.0673
305492	62.0691
307256	62.071
309030	62.073
310814	62.075
312608	62.077
314413	62.079
316228	62.0811
318053	62.0832
319890	62.0854
321736	62.0876
323594	62.0898
325462	62.092
327341	62.0943
329230	62.0966
331131	62.099
333043	62.1013
334965	62.1037
336899	62.1062
338844	62.1086
340800	62.1111
342768	62.1136
344747	62.1161
346737	62.1187
348739	62.1213
350752	62.1239
352777	62.1265
354813	62.1292
356862	62.1319
358922	62.1346
360994	62.1373
363078	62.14
365174	62.1428
367282	62.1456
369403	62.1484
371535	62.1512
373680	62.154
375837	62.1569
378007	62.1598
380189	62.1627
382384	62.1656
384592	62.1685
386812	62.1715
389045	62.1744
391291	62.1774
393550	62.1804
395822	62.1834
398107	62.1864
400405	62.1895
402717	62.1925
405042	62.1956
407380	62.1986
409732	62.2017
412098	62.2048
414477	62.2079
416869	62.211
419276	62.2142
421697	62.2173
424131	62.2204
426580	62.2236
429042	62.2268
431519	62.2299
434010	62.2331
436516	62.2363
439036	62.2395
441570	62.2427
444120	62.2459
446684	62.2491
449262	62.2523
451856	62.2556
454465	62.2588
457088	62.262
459727	62.2653
462381	62.2685
465050	62.2718
467735	62.275
470435	62.2783
473151	62.2815
475883	62.2848
478630	62.2881
481393	62.2913
484172	62.2946
486968	62.2979
489779	62.3011
492606	62.3044
495450	62.3077
498310	62.311
501187	62.3142
504081	62.3175
506991	62.3208
509918	62.324
512861	62.3273
515822	62.3306
518800	62.3339
521795	62.3371
524807	62.3404
527837	62.3436
530884	62.3469
533949	62.3502
537032	62.3534
540132	62.3567
543250	62.3599
546387	62.3632
549541	62.3664
552713	62.3696
555904	62.3729
559114	62.3761
562341	62.3793
565588	62.3825
568853	62.3858
572137	62.389
575440	62.3922
578762	62.3954
582103	62.3986
585464	62.4017
588844	62.4049
592243	62.4081
595662	62.4112
599101	62.4144
602560	62.4176
606038	62.4207
609537	62.4238
613056	62.427
616595	62.4301
620155	62.4332
623735	62.4363
627336	62.4394
630957	62.4425
634600	62.4456
638263	62.4486
641948	62.4517
645654	62.4548
649382	62.4578
653131	62.4608
656901	62.4639
660693	62.4669
664508	62.4699
668344	62.4729
672202	62.4759
676083	62.4788
679986	62.4818
683912	62.4847
687860	62.4877
691831	62.4906
695825	62.4935
699842	62.4965
703882	62.4994
707946	62.5022
712033	62.5051
716143	62.508
720278	62.5108
724436	62.5137
728618	62.5165
732825	62.5193
737055	62.5221
741310	62.5249
745590	62.5277
749894	62.5305
754223	62.5333
758578	62.536
762957	62.5387
767361	62.5415
771792	62.5442
776247	62.5469
780728	62.5495
785236	62.5522
789769	62.5549
794328	62.5575
798914	62.5601
803526	62.5628
808165	62.5654
812831	62.568
817523	62.5705
822243	62.5731
826990	62.5757
831764	62.5782
836566	62.5807
841395	62.5832
846253	62.5857
851138	62.5882
856052	62.5907
860994	62.5931
865964	62.5956
870964	62.598
875992	62.6004
881049	62.6028
886135	62.6052
891251	62.6076
896396	62.6099
901571	62.6122
906776	62.6146
912011	62.6169
917276	62.6192
922571	62.6215
927897	62.6237
933254	62.626
938642	62.6282
944061	62.6304
949511	62.6327
954993	62.6349
960506	62.637
966051	62.6392
971628	62.6413
977237	62.6435
982879	62.6456
988553	62.6477
994260	62.6498
1e+06	62.6519
1.00577e+06	62.6539
1.01158e+06	62.656
1.01742e+06	62.658
1.02329e+06	62.66
1.0292e+06	62.662
1.03514e+06	62.664
1.04112e+06	62.666
1.04713e+06	62.668
1.05317e+06	62.6699
1.05925e+06	62.6718
1.06537e+06	62.6737
1.07152e+06	62.6756
1.07771e+06	62.6775
1.08393e+06	62.6794
1.09018e+06	62.6812
1.09648e+06	62.6831
1.10281e+06	62.6849
1.10917e+06	62.6867
1.11558e+06	62.6885
1.12202e+06	62.6903
1.1285e+06	62.692
1.13501e+06	62.6938
1.14156e+06	62.6955
1.14815e+06	62.6972
1.15478e+06	62.6989
1.16145e+06	62.7006
1.16815e+06	62.7023
1.1749e+06	62.704
1.18168e+06	62.7056
1.1885e+06	62.7072
1.19536e+06	62.7089
1.20226e+06	62.7105
1.20921e+06	62.712
1.21619e+06	62.7136
1.22321e+06	62.7152
1.23027e+06	62.7167
1.23737e+06	62.7182
1.24451e+06	62.7197
1.2517e+06	62.7212
1.25893e+06	62.7227
1.26619e+06	62.7242
1.2735e+06	62.7256
1.28086e+06	62.7271
1.28825e+06	62.7285
1.29569e+06	62.7299
1.30317e+06	62.7313
1.31069e+06	62.7327
1.31826e+06	62.7341
1.32587e+06	62.7354
1.33352e+06	62.7367
1.34122e+06	62.7381
1.34896e+06	62.7394
1.35675e+06	62.7407
1.36458e+06	62.742
1.37246e+06	62.7432
1.38038e+06	62.7445
1.38835e+06	62.7457
1.39637e+06	62.7469
1.40443e+06	62.7481
1.41254e+06	62.7493
1.42069e+06	62.7505
1.42889e+06	62.7517
1.43714e+06	62.7529
1.44544e+06	62.754
1.45378e+06	62.7551
1.46218e+06	62.7562
1.47062e+06	62.7573
1.47911e+06	62.7584
1.48765e+06	62.7595
1.49624e+06	62.7606
1.50487e+06	62.7616
1.51356e+06	62.7626
1.5223e+06	62.7637
1.53109e+06	62.7647
1.53993e+06	62.7657
1.54882e+06	62.7666
1.55776e+06	62.7676
1.56675e+06	62.7686
1.5758e+06	62.7695
1.58489e+06	62.7704
1.59404e+06	62.7714
1.60325e+06	62.7723
1.6125e+06	62.7732
1.62181e+06	62.774
1.63117e+06	62.7749
1.64059e+06	62.7757
1.65006e+06	62.7766
1.65959e+06	62.7774
1.66917e+06	62.7782
1.6788e+06	62.779
1.6885e+06	62.7798
1.69824e+06	62.7806
1.70805e+06	62.7814
1.71791e+06	62.7821
1.72783e+06	62.7829
1.7378e+06	62.7836
1.74783e+06	62.7843
1.75792e+06	62.785
1.76807e+06	62.7857
1.77828e+06	62.7864
1.78855e+06	62.7871
1.79887e+06	62.7877
1.80926e+06	62.7884
1.8197e+06	62.789
1.83021e+06	62.7897
1.84077e+06	62.7903
1.8514e+06	62.7909
1.86209e+06	62.7915
1.87284e+06	62.7921
1.88365e+06	62.7926
1.89452e+06	62.7932
1.90546e+06	62.7937
1.91646e+06	62.7943
1.92752e+06	62.7948
1.93865e+06	62.7953
1.94984e+06	62.7958
1.9611e+06	62.7963
1.97242e+06	62.7968
1.98381e+06	62.7973
1.99526e+06	62.7978
2.00678e+06	62.7982
2.01837e+06	62.7987
2.03002e+06	62.7991
2.04174e+06	62.7995
2.05353e+06	62.7999
2.06538e+06	62.8003
2.0773e+06	62.8007
2.0893e+06	62.8011
2.10136e+06	62.8015
2.11349e+06	62.8019
2.12569e+06	62.8022
2.13796e+06	62.8026
2.1503e+06	62.8029
2.16272e+06	62.8033
2.1752e+06	62.8036
2.18776e+06	62.8039
2.20039e+06	62.8042
2.21309e+06	62.8045
2.22587e+06	62.8048
2.23872e+06	62.8051
2.25165e+06	62.8053
2.26464e+06	62.8056
2.27772e+06	62.8058
2.29087e+06	62.8061
2.30409e+06	62.8063
2.31739e+06	62.8066
2.33077e+06	62.8068
2.34423e+06	62.807
2.35776e+06	62.8072
2.37137e+06	62.8074
2.38506e+06	62.8076
2.39883e+06	62.8078
2.41268e+06	62.8079
2.42661e+06	62.8081
2.44062e+06	62.8083
2.45471e+06	62.8084
2.46888e+06	62.8086
2.48313e+06	62.8087
2.49747e+06	62.8088
2.51189e+06	62.809
2.52639e+06	62.8091
2.54097e+06	62.8092
2.55564e+06	62.8093
2.5704e+06	62.8094
2.58523e+06	62.8095
2.60016e+06	62.8096
2.61517e+06	62.8097
2.63027e+06	62.8097
2.64545e+06	62.8098
2.66073e+06	62.8099
2.67609e+06	62.8099
2.69153e+06	62.81
2.70707e+06	62.81
2.7227e+06	62.8101
2.73842e+06	62.8101
2.75423e+06	62.8101
2.77013e+06	62.8102
2.78612e+06	62.8102
2.80221e+06	62.8102
2.81838e+06	62.8102
2.83465e+06	62.8102
2.85102e+06	62.8102
2.86748e+06	62.8102
2.88403e+06	62.8102
2.90068e+06	62.8102
2.91743e+06	62.8102
2.93427e+06	62.8101
2.95121e+06	62.8101
2.96825e+06	62.8101
2.98538e+06	62.81
3.00262e+06	62.81
3.01995e+06	62.81
3.03739e+06	62.8099
3.05492e+06	62.8099
3.07256e+06	62.8098
3.0903e+06	62.8097
3.10814e+06	62.8097
3.12608e+06	62.8096
3.14413e+06	62.8096
3.16228e+06	62.8095
3.18053e+06	62.8094
3.1989e+06	62.8093
3.21736e+06	62.8093
3.23594e+06	62.8092
3.25462e+06	62.8091
3.27341e+06	62.809
3.2923e+06	62.8089
3.31131e+06	62.8088
3.33043e+06	62.8087
3.34965e+06	62.8087
3.36899e+06	62.8086
3.38844e+06	62.8085
3.408e+06	62.8084
3.42768e+06	62.8083
3.44747e+06	62.8082
3.46737e+06	62.8081
3.48739e+06	62.808
3.50752e+06	62.8079
3.52777e+06	62.8077
3.54813e+06	62.8076
3.56862e+06	62.8075
3.58922e+06	62.8074
3.60994e+06	62.8073
3.63078e+06	62.8072
3.65174e+06	62.8071
3.67282e+06	62.807
3.69403e+06	62.8069
3.71535e+06	62.8068
3.7368e+06	62.8067
3.75837e+06	62.8065
3.78007e+06	62.8064
3.80189e+06	62.8063
3.82384e+06	62.8062
3.84592e+06	62.8061
3.86812e+06	62.806
3.89045e+06	62.8059
3.91291e+06	62.8058
3.9355e+06	62.8057
3.95822e+06	62.8056
3.98107e+06	62.8055
4.00405e+06	62.8054
4.02717e+06	62.8053
4.05042e+06	62.8052
4.0738e+06	62.8051
4.09732e+06	62.805
4.12098e+06	62.8049
4.14477e+06	62.8048
4.16869e+06	62.8047
4.19276e+06	62.8046
4.21697e+06	62.8045
4.24131e+06	62.8044
4.2658e+06	62.8043
4.29042e+06	62.8042
4.31519e+06	62.8041
4.3401e+06	62.804
4.36516e+06	62.8039
4.39036e+06	62.8038
4.4157e+06	62.8038
4.4412e+06	62.8037
4.46684e+06	62.8036
4.49262e+06	62.8035
4.51856e+06	62.8034
4.54465e+06	62.8033
4.57088e+06	62.8032
4.59727e+06	62.8032
4.62381e+06	62.8031
4.6505e+06	62.803
4.67735e+06	62.8029
4.70435e+06	62.8028
4.73151e+06	62.8027
4.75883e+06	62.8027
4.7863e+06	62.8026
4.81393e+06	62.8025
4.84172e+06	62.8024
4.86968e+06	62.8024
4.89779e+06	62.8023
4.92606e+06	62.8022
4.9545e+06	62.8021
4.9831e+06	62.8021
5.01187e+06	62.802
5.04081e+06	62.8019
5.06991e+06	62.8018
5.09918e+06	62.8018
5.12861e+06	62.8017
5.15822e+06	62.8016
5.188e+06	62.8016
5.21795e+06	62.8015
5.24807e+06	62.8014
5.27837e+06	62.8014
5.30884e+06	62.8013
5.33949e+06	62.8012
5.37032e+06	62.8012
5.40132e+06	62.8011
5.4325e+06	62.801
5.46387e+06	62.801
5.49541e+06	62.8009
5.52713e+06	62.8008
5.55904e+06	62.8008
5.59114e+06	62.8007
5.62341e+06	62.8007
5.65588e+06	62.8006
5.68853e+06	62.8005
5.72137e+06	62.8005
5.7544e+06	62.8004
5.78762e+06	62.8004
5.82103e+06	62.8003
5.85464e+06	62.8002
5.88844e+06	62.8002
5.92243e+06	62.8001
5.95662e+06	62.8001
5.99101e+06	62.8
6.0256e+06	62.8
6.06038e+06	62.7999
6.09537e+06	62.7999
6.13056e+06	62.7998
6.16595e+06	62.7998
6.20155e+06	62.7997
6.23735e+06	62.7996
6.27336e+06	62.7996
6.30957e+06	62.7995
6.346e+06	62.7995
6.38263e+06	62.7994
6.41948e+06	62.7994
6.45654e+06	62.7993
6.49382e+06	62.7993
6.53131e+06	62.7992
6.56901e+06	62.7992
6.60693e+06	62.7991
6.64508e+06	62.7991
6.68344e+06	62.799
6.72202e+06	62.799
6.76083e+06	62.799
6.79986e+06	62.7989
6.83912e+06	62.7989
6.8786e+06	62.7988
6.91831e+06	62.7988
6.95825e+06	62.7987
6.99842e+06	62.7987
7.03882e+06	62.7986
7.07946e+06	62.7986
7.12033e+06	62.7986
7.16143e+06	62.7985
7.20278e+06	62.7985
7.24436e+06	62.7984
7.28618e+06	62.7984
7.32825e+06	62.7983
7.37055e+06	62.7983
7.4131e+06	62.7983
7.4559e+06	62.7982
7.49894e+06	62.7982
7.54223e+06	62.7981
7.58578e+06	62.7981
7.62957e+06	62.7981
7.67361e+06	62.798
7.71792e+06	62.798
7.76247e+06	62.7979
7.80728e+06	62.7979
7.85236e+06	62.7979
7.89769e+06	62.7978
7.94328e+06	62.7978
7.98914e+06	62.7978
8.03526e+06	62.7977
8.08165e+06	62.7977
8.12831e+06	62.7976
8.17523e+06	62.7976
8.22243e+06	62.7976
8.2699e+06	62.7975
8.31764e+06	62.7975
8.36566e+06	62.7975
8.41395e+06	62.7974
8.46253e+06	62.7974
8.51138e+06	62.7974
8.56052e+06	62.7973
8.60994e+06	62.7973
8.65964e+06	62.7973
8.70964e+06	62.7972
8.75992e+06	62.7972
8.81049e+06	62.7972
8.86135e+06	62.7971
8.91251e+06	62.7971
8.96396e+06	62.7971
9.01571e+06	62.797
9.06776e+06	62.797
9.12011e+06	62.797
9.17276e+06	62.797
9.22571e+06	62.7969
9.27897e+06	62.7969
9.33254e+06	62.7969
9.38642e+06	62.7968
9.44061e+06	62.7968
9.49511e+06	62.7968
9.54993e+06	62.7967
9.60506e+06	62.7967
9.66051e+06	62.7967
9.71628e+06	62.7967
9.77237e+06	62.7966
9.82879e+06	62.7966
9.88553e+06	62.7966
9.9426e+06	62.7966
1e+07	62.7965
