E [MeV]	dEdx [keV/microm]
0.001	21.6323
0.00100577	21.695
0.00101158	21.7579
0.00101742	21.8209
0.00102329	21.8842
0.0010292	21.9476
0.00103514	22.0112
0.00104112	22.075
0.00104713	22.139
0.00105317	22.2031
0.00105925	22.2674
0.00106537	22.332
0.00107152	22.3967
0.00107771	22.4616
0.00108393	22.5267
0.00109018	22.592
0.00109648	22.6574
0.00110281	22.723
0.00110917	22.7889
0.00111558	22.8549
0.00112202	22.9211
0.0011285	22.9876
0.00113501	23.0542
0.00114156	23.1209
0.00114815	23.188
0.00115478	23.2551
0.00116145	23.3225
0.00116815	23.3901
0.0011749	23.4578
0.00118168	23.5258
0.0011885	23.5939
0.00119536	23.6623
0.00120226	23.7308
0.00120921	23.7995
0.00121619	23.8685
0.00122321	23.9376
0.00123027	24.007
0.00123737	24.0765
0.00124451	24.1463
0.0012517	24.2162
0.00125893	24.2863
0.00126619	24.3567
0.0012735	24.4272
0.00128086	24.498
0.00128825	24.569
0.00129569	24.6401
0.00130317	24.7115
0.00131069	24.783
0.00131826	24.8548
0.00132587	24.9268
0.00133352	24.999
0.00134122	25.0714
0.00134896	25.144
0.00135675	25.2168
0.00136458	25.2898
0.00137246	25.3631
0.00138038	25.4365
0.00138835	25.5101
0.00139637	25.5841
0.00140443	25.6581
0.00141254	25.7324
0.00142069	25.8069
0.00142889	25.8817
0.00143714	25.9566
0.00144544	26.0318
0.00145378	26.1071
0.00146218	26.1827
0.00147062	26.2585
0.00147911	26.3346
0.00148765	26.4108
0.00149624	26.4873
0.00150487	26.564
0.00151356	26.6409
0.0015223	26.718
0.00153109	26.7953
0.00153993	26.8729
0.00154882	26.9507
0.00155776	27.0288
0.00156675	27.107
0.0015758	27.1855
0.00158489	27.2642
0.00159404	27.3431
0.00160325	27.4223
0.0016125	27.5017
0.00162181	27.5813
0.00163117	27.6611
0.00164059	27.7412
0.00165006	27.8215
0.00165959	27.902
0.00166917	27.9828
0.0016788	28.0638
0.0016885	28.145
0.00169824	28.2265
0.00170805	28.3082
0.00171791	28.3901
0.00172783	28.4723
0.0017378	28.5547
0.00174783	28.6374
0.00175792	28.7202
0.00176807	28.8034
0.00177828	28.8867
0.00178855	28.9703
0.00179887	29.0542
0.00180926	29.1383
0.0018197	29.2226
0.00183021	29.3072
0.00184077	29.392
0.0018514	29.477
0.00186209	29.5623
0.00187284	29.6479
0.00188365	29.7337
0.00189452	29.8198
0.00190546	29.906
0.00191646	29.9926
0.00192752	30.0794
0.00193865	30.1664
0.00194984	30.2537
0.0019611	30.3413
0.00197242	30.4291
0.00198381	30.5171
0.00199526	30.6054
0.00200678	30.694
0.00201837	30.7828
0.00203002	30.8719
0.00204174	30.9612
0.00205353	31.0508
0.00206538	31.1406
0.0020773	31.2307
0.0020893	31.3211
0.00210136	31.4117
0.00211349	31.5026
0.00212569	31.5937
0.00213796	31.6851
0.0021503	31.7768
0.00216272	31.8687
0.0021752	31.9609
0.00218776	32.0534
0.00220039	32.1461
0.00221309	32.2391
0.00222587	32.3324
0.00223872	32.4259
0.00225165	32.5197
0.00226464	32.6138
0.00227772	32.7082
0.00229087	32.8028
0.00230409	32.8977
0.00231739	32.9928
0.00233077	33.0883
0.00234423	33.184
0.00235776	33.28
0.00237137	33.3762
0.00238506	33.4728
0.00239883	33.5696
0.00241268	33.6667
0.00242661	33.7641
0.00244062	33.8618
0.00245471	33.9597
0.00246888	34.0579
0.00248313	34.1564
0.00249747	34.2552
0.00251189	34.3543
0.00252639	34.4537
0.00254097	34.5533
0.00255564	34.6533
0.0025704	34.7535
0.00258523	34.854
0.00260016	34.9548
0.00261517	35.0559
0.00263027	35.1573
0.00264545	35.2589
0.00266073	35.3609
0.00267609	35.4632
0.00269153	35.5658
0.00270707	35.6686
0.0027227	35.7718
0.00273842	35.8752
0.00275423	35.979
0.00277013	36.083
0.00278612	36.1874
0.00280221	36.292
0.00281838	36.397
0.00283465	36.5022
0.00285102	36.6077
0.00286748	36.7136
0.00288403	36.8198
0.00290068	36.9263
0.00291743	37.033
0.00293427	37.1401
0.00295121	37.2475
0.00296825	37.3552
0.00298538	37.4632
0.00300262	37.5716
0.00301995	37.6802
0.00303739	37.7892
0.00305492	37.8984
0.00307256	38.008
0.0030903	38.1179
0.00310814	38.2281
0.00312608	38.3386
0.00314413	38.4495
0.00316228	38.5606
0.00318053	38.6721
0.0031989	38.7839
0.00321736	38.8961
0.00323594	39.0085
0.00325462	39.1213
0.00327341	39.2344
0.0032923	39.3479
0.00331131	39.4616
0.00333043	39.5757
0.00334965	39.6901
0.00336899	39.8049
0.00338844	39.9199
0.003408	40.0353
0.00342768	40.1511
0.00344747	40.2671
0.00346737	40.3835
0.00348739	40.5003
0.00350752	40.6173
0.00352777	40.7348
0.00354813	40.8525
0.00356862	40.9707
0.00358922	41.0891
0.00360994	41.2078
0.00363078	41.327
0.00365174	41.4464
0.00367282	41.5662
0.00369403	41.6864
0.00371535	41.8069
0.0037368	41.9277
0.00375837	42.0489
0.00378007	42.1705
0.00380189	42.2924
0.00382384	42.4146
0.00384592	42.5372
0.00386812	42.6602
0.00389045	42.7835
0.00391291	42.9071
0.0039355	43.0311
0.00395822	43.1555
0.00398107	43.2802
0.00400405	43.4053
0.00402717	43.5308
0.00405042	43.6903
0.0040738	43.8165
0.00409732	43.943
0.00412098	44.0699
0.00414477	44.1972
0.00416869	44.3249
0.00419276	44.4529
0.00421697	44.5812
0.00424131	44.71
0.0042658	44.8391
0.00429042	44.9686
0.00431519	45.0985
0.0043401	45.2287
0.00436516	45.3593
0.00439036	45.4903
0.0044157	45.6216
0.0044412	45.7534
0.00446684	45.8855
0.00449262	46.018
0.00451856	46.1509
0.00454465	46.2841
0.00457088	46.4178
0.00459727	46.5518
0.00462381	46.6863
0.0046505	46.8211
0.00467735	46.9563
0.00470435	47.0919
0.00473151	47.2279
0.00475883	47.3642
0.0047863	47.501
0.00481393	47.6382
0.00484172	47.7757
0.00486968	47.9137
0.00489779	48.0927
0.00492606	48.2315
0.0049545	48.3706
0.0049831	48.5102
0.00501187	48.6501
0.00504081	48.7905
0.00506991	48.9312
0.00509918	49.0724
0.00512861	49.214
0.00515822	49.3559
0.005188	49.4983
0.00521795	49.6411
0.00524807	49.7844
0.00527837	49.928
0.00530884	50.072
0.00533949	50.2607
0.00537032	50.4056
0.00540132	50.5509
0.0054325	50.6966
0.00546387	50.8427
0.00549541	50.9893
0.00552713	51.1362
0.00555904	51.2836
0.00559114	51.4314
0.00562341	51.5797
0.00565588	51.7283
0.00568853	51.8774
0.00572137	52.027
0.0057544	52.1769
0.00578762	52.3273
0.00582103	52.4782
0.00585464	52.6294
0.00588844	52.7811
0.00592243	52.9332
0.00595662	53.0858
0.00599101	53.2389
0.0060256	53.3923
0.00606038	53.5462
0.00609537	53.7005
0.00613056	53.8553
0.00616595	54.0105
0.00620155	54.1662
0.00623735	54.3224
0.00627336	54.4789
0.00630957	54.636
0.006346	54.7934
0.00638263	54.9514
0.00641948	55.1098
0.00645654	55.2686
0.00649382	55.4279
0.00653131	55.5877
0.00656901	55.7479
0.00660693	55.9086
0.00664508	56.0698
0.00668344	56.2314
0.00672202	56.3935
0.00676083	56.556
0.00679986	56.719
0.00683912	56.8825
0.0068786	57.0465
0.00691831	57.2109
0.00695825	57.3758
0.00699842	57.5412
0.00703882	57.707
0.00707946	57.8733
0.00712033	58.0402
0.00716143	58.2074
0.00720278	58.3752
0.00724436	58.5435
0.00728618	58.7122
0.00732825	58.8815
0.00737055	59.0512
0.0074131	59.2214
0.0074559	59.3921
0.00749894	59.5633
0.00754223	59.7349
0.00758578	59.9071
0.00762957	60.0798
0.00767361	60.253
0.00771792	60.4266
0.00776247	60.6008
0.00780728	60.7755
0.00785236	60.9507
0.00789769	61.1264
0.00794328	61.3026
0.00798914	61.4793
0.00803526	61.6565
0.00808165	61.8342
0.00812831	62.0124
0.00817523	62.1912
0.00822243	62.3704
0.0082699	62.5502
0.00831764	62.7305
0.00836566	62.9113
0.00841395	63.0926
0.00846253	63.2745
0.00851138	63.4569
0.00856052	63.6398
0.00860994	63.8232
0.00865964	64.0072
0.00870964	64.1917
0.00875992	64.3767
0.00881049	64.5622
0.00886135	64.7483
0.00891251	64.9349
0.00896396	65.1221
0.00901571	65.3098
0.00906776	65.4981
0.00912011	65.6869
0.00917276	65.8762
0.00922571	66.0661
0.00927897	66.2565
0.00933254	66.4475
0.00938642	66.639
0.00944061	66.8311
0.00949511	67.0238
0.00954993	67.2169
0.00960506	67.4107
0.00966051	67.605
0.00971628	67.7998
0.00977237	67.9953
0.00982879	68.1912
0.00988553	68.3878
0.0099426	68.5849
0.01	68.7826
0.0100577	68.9809
0.0101158	69.1797
0.0101742	69.3791
0.0102329	69.579
0.010292	69.7796
0.0103514	69.9807
0.0104112	70.1825
0.0104713	70.3848
0.0105317	70.5876
0.0105925	70.7911
0.0106537	70.9951
0.0107152	71.1998
0.0107771	71.405
0.0108393	71.6108
0.0109018	71.8172
0.0109648	72.0242
0.0110281	72.2318
0.0110917	72.44
0.0111558	72.6488
0.0112202	72.8582
0.011285	73.0682
0.0113501	73.2788
0.0114156	73.4901
0.0114815	73.7019
0.0115478	73.9143
0.0116145	74.1273
0.0116815	74.341
0.011749	74.5553
0.0118168	74.7702
0.011885	74.9857
0.0119536	75.2019
0.0120226	75.4186
0.0120921	75.636
0.0121619	75.854
0.0122321	76.0726
0.0123027	76.2919
0.0123737	76.5118
0.0124451	76.7323
0.012517	76.9535
0.0125893	77.1753
0.0126619	77.3978
0.012735	77.6209
0.0128086	77.8446
0.0128825	78.069
0.0129569	78.294
0.0130317	78.5197
0.0131069	78.746
0.0131826	78.973
0.0132587	79.2006
0.0133352	79.4289
0.0134122	79.6578
0.0134896	79.8874
0.0135675	80.1177
0.0136458	80.3487
0.0137246	80.5803
0.0138038	80.8125
0.0138835	81.0454
0.0139637	81.279
0.0140443	81.5133
0.0141254	81.7483
0.0142069	81.9839
0.0142889	82.2202
0.0143714	82.4572
0.0144544	82.6949
0.0145378	82.9332
0.0146218	83.1723
0.0147062	83.412
0.0147911	83.6524
0.0148765	83.8936
0.0149624	84.1353
0.0150487	84.3779
0.0151356	84.6211
0.015223	84.865
0.0153109	85.1096
0.0153993	85.3549
0.0154882	85.601
0.0155776	85.8477
0.0156675	86.0951
0.015758	86.3433
0.0158489	86.5922
0.0159404	86.8417
0.0160325	87.0921
0.016125	87.3431
0.0162181	87.5949
0.0163117	87.8473
0.0164059	88.1006
0.0165006	88.3545
0.0165959	88.6091
0.0166917	88.8646
0.016788	89.1207
0.016885	89.3776
0.0169824	89.6352
0.0170805	89.8936
0.0171791	90.1527
0.0172783	90.4125
0.017378	90.6731
0.0174783	90.9345
0.0175792	91.1966
0.0176807	91.4595
0.0177828	91.7231
0.0178855	91.9874
0.0179887	92.2526
0.0180926	92.5185
0.018197	92.7852
0.0183021	93.0526
0.0184077	93.3208
0.018514	93.5898
0.0186209	93.8596
0.0187284	94.1301
0.0188365	94.4013
0.0189452	94.6737
0.0190546	94.9465
0.0191646	95.2202
0.0192752	95.4944
0.0193865	95.7698
0.0194984	96.0457
0.019611	96.3228
0.0197242	96.6004
0.0198381	96.8788
0.0199526	97.1581
0.0200678	97.438
0.0201837	97.719
0.0203002	98.0005
0.0204174	98.2829
0.0205353	98.5664
0.0206538	98.8506
0.020773	99.1351
0.020893	99.4212
0.0210136	99.7079
0.0211349	99.9952
0.0212569	100.283
0.0213796	100.572
0.021503	100.862
0.0216272	101.153
0.021752	101.445
0.0218776	101.737
0.0220039	102.03
0.0221309	102.325
0.0222587	102.619
0.0223872	102.915
0.0225165	103.212
0.0226464	103.509
0.0227772	103.807
0.0229087	104.107
0.0230409	104.407
0.0231739	104.708
0.0233077	105.009
0.0234423	105.312
0.0235776	105.616
0.0237137	105.92
0.0238506	106.226
0.0239883	106.532
0.0241268	106.839
0.0242661	107.146
0.0244062	107.456
0.0245471	107.765
0.0246888	108.076
0.0248313	108.387
0.0249747	108.7
0.0251189	109.013
0.0252639	109.327
0.0254097	109.642
0.0255564	109.958
0.025704	110.275
0.0258523	110.593
0.0260016	110.912
0.0261517	111.232
0.0263027	111.552
0.0264545	111.874
0.0266073	112.196
0.0267609	112.52
0.0269153	112.844
0.0270707	113.169
0.027227	113.495
0.0273842	113.823
0.0275423	114.151
0.0277013	114.48
0.0278612	114.81
0.0280221	115.141
0.0281838	115.472
0.0283465	115.805
0.0285102	116.139
0.0286748	116.474
0.0288403	116.81
0.0290068	117.146
0.0291743	117.484
0.0293427	117.823
0.0295121	118.162
0.0296825	118.503
0.0298538	118.844
0.0300262	119.187
0.0301995	119.53
0.0303739	119.875
0.0305492	120.221
0.0307256	120.567
0.030903	120.914
0.0310814	121.263
0.0312608	121.612
0.0314413	121.963
0.0316228	122.315
0.0318053	122.667
0.031989	123.021
0.0321736	123.375
0.0323594	123.731
0.0325462	124.087
0.0327341	124.445
0.032923	124.804
0.0331131	125.164
0.0333043	125.525
0.0334965	125.887
0.0336899	126.249
0.0338844	126.613
0.03408	126.978
0.0342768	127.344
0.0344747	127.711
0.0346737	128.079
0.0348739	128.448
0.0350752	128.818
0.0352777	129.19
0.0354813	129.562
0.0356862	129.936
0.0358922	130.31
0.0360994	130.686
0.0363078	131.063
0.0365174	131.44
0.0367282	131.819
0.0369403	132.199
0.0371535	132.58
0.037368	132.962
0.0375837	133.346
0.0378007	133.73
0.0380189	134.115
0.0382384	134.502
0.0384592	134.89
0.0386812	135.279
0.0389045	135.668
0.0391291	136.059
0.039355	136.452
0.0395822	136.845
0.0398107	137.239
0.0400405	137.635
0.0402717	138.032
0.0405042	138.43
0.040738	138.829
0.0409732	139.229
0.0412098	139.63
0.0414477	140.032
0.0416869	140.436
0.0419276	140.841
0.0421697	141.247
0.0424131	141.654
0.042658	142.062
0.0429042	142.472
0.0431519	142.882
0.043401	143.294
0.0436516	143.707
0.0439036	144.122
0.044157	144.537
0.044412	144.953
0.0446684	145.371
0.0449262	145.79
0.0451856	146.211
0.0454465	146.632
0.0457088	147.055
0.0459727	147.479
0.0462381	147.904
0.046505	148.33
0.0467735	148.757
0.0470435	149.186
0.0473151	149.616
0.0475883	150.047
0.047863	150.48
0.0481393	150.914
0.0484172	151.349
0.0486968	151.785
0.0489779	152.222
0.0492606	152.661
0.049545	153.101
0.049831	153.542
0.0501187	153.985
0.0504081	154.429
0.0506991	154.874
0.0509918	155.32
0.0512861	155.768
0.0515822	156.217
0.05188	156.667
0.0521795	157.119
0.0524807	157.572
0.0527837	158.026
0.0530884	158.482
0.0533949	158.938
0.0537032	159.397
0.0540132	159.856
0.054325	160.317
0.0546387	160.779
0.0549541	161.242
0.0552713	161.707
0.0555904	162.173
0.0559114	162.641
0.0562341	163.109
0.0565588	163.579
0.0568853	164.051
0.0572137	164.524
0.057544	164.998
0.0578762	165.474
0.0582103	165.95
0.0585464	166.429
0.0588844	166.908
0.0592243	167.39
0.0595662	167.872
0.0599101	168.356
0.060256	168.842
0.0606038	169.328
0.0609537	169.816
0.0613056	170.306
0.0616595	170.797
0.0620155	171.289
0.0623735	171.782
0.0627336	172.277
0.0630957	172.774
0.06346	173.272
0.0638263	173.772
0.0641948	174.272
0.0645654	174.775
0.0649382	175.278
0.0653131	175.784
0.0656901	176.29
0.0660693	176.798
0.0664508	177.308
0.0668344	177.819
0.0672202	178.332
0.0676083	178.846
0.0679986	179.361
0.0683912	179.878
0.068786	180.396
0.0691831	180.917
0.0695825	181.438
0.0699842	181.961
0.0703882	182.485
0.0707946	183.012
0.0712033	183.539
0.0716143	184.068
0.0720278	184.599
0.0724436	185.131
0.0728618	185.664
0.0732825	186.2
0.0737055	186.736
0.074131	187.275
0.074559	187.814
0.0749894	188.356
0.0754223	188.898
0.0758578	189.443
0.0762957	189.989
0.0767361	190.536
0.0771792	191.086
0.0776247	191.637
0.0780728	192.189
0.0785236	192.743
0.0789769	193.298
0.0794328	193.856
0.0798914	194.414
0.0803526	194.975
0.0808165	195.537
0.0812831	196.101
0.0817523	196.665
0.0822243	197.233
0.082699	197.801
0.0831764	198.371
0.0836566	198.943
0.0841395	199.516
0.0846253	200.092
0.0851138	200.668
0.0856052	201.246
0.0860994	201.827
0.0865964	202.408
0.0870964	202.992
0.0875992	203.577
0.0881049	204.164
0.0886135	204.752
0.0891251	205.342
0.0896396	205.934
0.0901571	206.528
0.0906776	207.123
0.0912011	207.72
0.0917276	208.319
0.0922571	208.919
0.0927897	209.522
0.0933254	210.125
0.0938642	210.731
0.0944061	211.339
0.0949511	211.948
0.0954993	212.559
0.0960506	213.171
0.0966051	213.785
0.0971628	214.402
0.0977237	215.02
0.0982879	215.64
0.0988553	216.261
0.099426	216.884
0.1	217.51
0.100577	218.136
0.101158	218.765
0.101742	219.396
0.102329	220.028
0.10292	220.662
0.103514	221.299
0.104112	221.937
0.104713	222.576
0.105317	223.217
0.105925	223.861
0.106537	224.506
0.107152	225.154
0.107771	225.802
0.108393	226.453
0.109018	227.106
0.109648	227.761
0.110281	228.417
0.110917	229.076
0.111558	229.736
0.112202	230.398
0.11285	231.062
0.113501	231.728
0.114156	232.396
0.114815	233.066
0.115478	233.738
0.116145	234.412
0.116815	235.087
0.11749	235.764
0.118168	236.444
0.11885	237.126
0.119536	237.809
0.120226	238.494
0.120921	239.182
0.121619	239.871
0.122321	240.563
0.123027	241.256
0.123737	241.952
0.124451	242.649
0.12517	243.348
0.125893	244.05
0.126619	244.753
0.12735	245.459
0.128086	246.166
0.128825	246.876
0.129569	247.587
0.130317	248.301
0.131069	249.017
0.131826	249.735
0.132587	250.454
0.133352	251.176
0.134122	251.9
0.134896	252.626
0.135675	253.355
0.136458	254.085
0.137246	254.817
0.138038	255.552
0.138835	256.288
0.139637	257.027
0.140443	257.768
0.141254	258.511
0.142069	259.256
0.142889	260.003
0.143714	260.753
0.144544	261.504
0.145378	262.258
0.146218	263.014
0.147062	263.772
0.147911	264.532
0.148765	265.295
0.149624	266.059
0.150487	266.826
0.151356	267.595
0.15223	268.367
0.153109	269.14
0.153993	269.916
0.154882	270.694
0.155776	271.474
0.156675	272.256
0.15758	273.042
0.158489	273.828
0.159404	274.618
0.160325	275.409
0.16125	276.203
0.162181	276.999
0.163117	277.798
0.164059	278.598
0.165006	279.401
0.165959	280.207
0.166917	281.014
0.16788	281.824
0.16885	282.637
0.169824	283.451
0.170805	284.268
0.171791	285.088
0.172783	285.91
0.17378	286.734
0.174783	287.56
0.175792	288.352
0.176807	289.137
0.177828	289.924
0.178855	290.714
0.179887	291.507
0.180926	292.302
0.18197	293.1
0.183021	293.901
0.184077	294.704
0.18514	295.51
0.186209	296.319
0.187284	297.13
0.188365	297.944
0.189452	298.761
0.190546	299.58
0.191646	300.402
0.192752	301.227
0.193865	302.054
0.194984	302.884
0.19611	303.717
0.197242	304.552
0.198381	305.391
0.199526	306.232
0.200678	307.075
0.201837	307.921
0.203002	308.77
0.204174	309.622
0.205353	310.476
0.206538	311.333
0.20773	312.193
0.20893	313.056
0.210136	313.918
0.211349	314.762
0.212569	315.608
0.213796	316.457
0.21503	317.308
0.216272	318.162
0.21752	319.019
0.218776	319.877
0.220039	320.739
0.221309	321.603
0.222587	322.469
0.223872	323.338
0.225165	324.206
0.226464	325.047
0.227772	325.892
0.229087	326.739
0.230409	327.59
0.231739	328.444
0.233077	329.3
0.234423	330.159
0.235776	331.021
0.237137	331.886
0.238506	332.754
0.239883	333.625
0.241268	334.499
0.242661	335.375
0.244062	336.254
0.245471	337.137
0.246888	338.021
0.248313	338.909
0.249747	339.799
0.251189	340.692
0.252639	341.588
0.254097	342.486
0.255564	343.387
0.25704	344.291
0.258523	345.197
0.260016	346.106
0.261517	347.017
0.263027	347.931
0.264545	348.848
0.266073	349.766
0.267609	350.688
0.269153	351.612
0.270707	352.525
0.27227	353.425
0.273842	354.328
0.275423	355.229
0.277013	356.126
0.278612	357.025
0.280221	357.926
0.281838	358.825
0.283465	359.726
0.285102	360.629
0.286748	361.536
0.288403	362.445
0.290068	363.356
0.291743	364.27
0.293427	365.187
0.295121	366.106
0.296825	367.028
0.298538	367.952
0.300262	368.879
0.301995	369.808
0.303739	370.74
0.305492	371.673
0.307256	372.61
0.30903	373.548
0.310814	374.489
0.312608	375.433
0.314413	376.378
0.316228	377.325
0.318053	378.276
0.31989	379.228
0.321736	380.182
0.323594	381.138
0.325462	382.096
0.327341	383.056
0.32923	384.019
0.331131	384.965
0.333043	385.9
0.334965	386.837
0.336899	387.777
0.338844	388.717
0.3408	389.659
0.342768	390.603
0.344747	391.548
0.346737	392.494
0.348739	393.442
0.350752	394.391
0.352777	395.341
0.354813	396.292
0.356862	397.245
0.358922	398.198
0.360994	399.149
0.363078	400.098
0.365174	401.047
0.367282	401.997
0.369403	402.947
0.371535	403.899
0.37368	404.851
0.375837	405.804
0.378007	406.758
0.380189	407.712
0.382384	408.667
0.384592	409.622
0.386812	410.578
0.389045	411.534
0.391291	412.491
0.39355	413.449
0.395822	414.406
0.398107	415.364
0.400405	416.322
0.402717	417.28
0.405042	418.239
0.40738	419.197
0.409732	420.156
0.412098	421.114
0.414477	422.073
0.416869	423.031
0.419276	423.99
0.421697	424.948
0.424131	425.905
0.42658	426.863
0.429042	427.82
0.431519	428.777
0.43401	429.733
0.436516	430.688
0.439036	431.643
0.44157	432.593
0.44412	433.538
0.446684	434.482
0.449262	435.426
0.451856	436.368
0.454465	437.309
0.457088	438.249
0.459727	439.188
0.462381	440.126
0.46505	441.063
0.467735	441.999
0.470435	442.933
0.473151	443.867
0.475883	444.798
0.47863	445.729
0.481393	446.658
0.484172	447.586
0.486968	448.513
0.489779	449.438
0.492606	450.36
0.49545	451.282
0.49831	452.202
0.501187	453.121
0.504081	454.037
0.506991	454.953
0.509918	455.866
0.512861	456.778
0.515822	457.688
0.5188	458.596
0.521795	459.503
0.524807	460.408
0.527837	461.311
0.530884	462.213
0.533949	463.112
0.537032	464.01
0.540132	464.907
0.54325	465.801
0.546387	466.694
0.549541	467.584
0.552713	468.473
0.555904	469.36
0.559114	470.245
0.562341	471.128
0.565588	472.01
0.568853	472.889
0.572137	473.767
0.57544	474.642
0.578762	475.515
0.582103	476.386
0.585464	477.255
0.588844	478.121
0.592243	478.985
0.595662	479.846
0.599101	480.705
0.60256	481.561
0.606038	482.414
0.609537	483.264
0.613056	484.111
0.616595	484.956
0.620155	485.797
0.623735	486.635
0.627336	487.471
0.630957	488.302
0.6346	489.13
0.638263	489.955
0.641948	490.777
0.645654	491.594
0.649382	492.408
0.653131	493.219
0.656901	494.026
0.660693	494.83
0.664508	495.63
0.668344	496.426
0.672202	497.219
0.676083	498.008
0.679986	498.794
0.683912	499.576
0.68786	500.353
0.691831	501.128
0.695825	501.898
0.699842	502.665
0.703882	503.429
0.707946	504.189
0.712033	504.945
0.716143	505.697
0.720278	506.445
0.724436	507.189
0.728618	507.93
0.732825	508.665
0.737055	509.398
0.74131	510.125
0.74559	510.849
0.749894	511.568
0.754223	512.283
0.758578	512.994
0.762957	513.701
0.767361	514.403
0.771792	515.101
0.776247	515.794
0.780728	516.483
0.785236	517.168
0.789769	517.848
0.794328	518.524
0.798914	519.195
0.803526	519.861
0.808165	520.524
0.812831	521.182
0.817523	521.834
0.822243	522.483
0.82699	523.127
0.831764	523.766
0.836566	524.4
0.841395	525.029
0.846253	525.654
0.851138	526.274
0.856052	526.888
0.860994	527.498
0.865964	528.102
0.870964	528.701
0.875992	529.296
0.881049	529.885
0.886135	530.468
0.891251	531.047
0.896396	531.62
0.901571	532.188
0.906776	532.751
0.912011	533.309
0.917276	533.86
0.922571	534.407
0.927897	534.947
0.933254	535.482
0.938642	536.012
0.944061	536.535
0.949511	537.054
0.954993	537.566
0.960506	538.072
0.966051	538.573
0.971628	539.067
0.977237	539.556
0.982879	540.038
0.988553	540.515
0.99426	540.986
1	541.451
1.00577	541.91
1.01158	542.362
1.01742	542.809
1.02329	543.25
1.0292	543.685
1.03514	544.113
1.04112	544.536
1.04713	544.953
1.05317	545.362
1.05925	545.762
1.06537	546.157
1.07152	546.546
1.07771	546.928
1.08393	547.305
1.09018	547.675
1.09648	548.039
1.10281	548.397
1.10917	548.75
1.11558	549.096
1.12202	549.436
1.1285	549.77
1.13501	550.098
1.14156	550.419
1.14815	550.734
1.15478	551.042
1.16145	551.345
1.16815	551.64
1.1749	551.93
1.18168	552.212
1.1885	552.488
1.19536	552.759
1.20226	553.022
1.20921	553.279
1.21619	553.529
1.22321	553.773
1.23027	554.01
1.23737	554.241
1.24451	554.466
1.2517	554.684
1.25893	554.895
1.26619	555.101
1.2735	555.299
1.28086	555.492
1.28825	555.678
1.29569	555.857
1.30317	556.031
1.31069	556.198
1.31826	556.359
1.32587	556.513
1.33352	556.662
1.34122	556.805
1.34896	556.941
1.35675	557.065
1.36458	557.183
1.37246	557.294
1.38038	557.399
1.38835	557.498
1.39637	557.592
1.40443	557.679
1.41254	557.761
1.42069	557.836
1.42889	557.906
1.43714	557.97
1.44544	558.027
1.45378	558.079
1.46218	558.124
1.47062	558.164
1.47911	558.197
1.48765	558.224
1.49624	558.245
1.50487	558.261
1.51356	558.27
1.5223	558.273
1.53109	558.27
1.53993	558.261
1.54882	558.246
1.55776	558.226
1.56675	558.199
1.5758	558.167
1.58489	558.129
1.59404	558.085
1.60325	558.035
1.6125	557.98
1.62181	557.919
1.63117	557.852
1.64059	557.78
1.65006	557.702
1.65959	557.61
1.66917	557.511
1.6788	557.408
1.6885	557.299
1.69824	557.184
1.70805	557.064
1.71791	556.939
1.72783	556.808
1.7378	556.671
1.74783	556.529
1.75792	556.382
1.76807	556.229
1.77828	556.07
1.78855	555.907
1.79887	555.737
1.80926	555.563
1.8197	555.383
1.83021	555.198
1.84077	555.007
1.8514	554.811
1.86209	554.61
1.87284	554.403
1.88365	554.189
1.89452	553.972
1.90546	553.747
1.91646	553.518
1.92752	553.283
1.93865	553.042
1.94984	552.796
1.9611	552.545
1.97242	552.287
1.98381	552.025
1.99526	551.757
2.00678	551.483
2.01837	551.204
2.03002	550.919
2.04174	550.63
2.05353	550.334
2.06538	550.033
2.0773	549.727
2.0893	549.416
2.10136	549.099
2.11349	548.778
2.12569	548.451
2.13796	548.119
2.1503	547.782
2.16272	547.439
2.1752	547.093
2.18776	546.74
2.20039	546.383
2.21309	546.023
2.22587	545.658
2.23872	545.289
2.25165	544.914
2.26464	544.535
2.27772	544.152
2.29087	543.763
2.30409	543.369
2.31739	542.972
2.33077	542.569
2.34423	542.161
2.35776	541.749
2.37137	541.333
2.38506	540.911
2.39883	540.484
2.41268	540.054
2.42661	539.618
2.44062	539.178
2.45471	538.733
2.46888	538.284
2.48313	537.829
2.49747	537.37
2.51189	536.907
2.52639	536.439
2.54097	535.967
2.55564	535.49
2.5704	535.009
2.58523	534.524
2.60016	534.033
2.61517	533.539
2.63027	533.04
2.64545	532.537
2.66073	532.03
2.67609	531.519
2.69153	531.003
2.70707	530.484
2.7227	529.96
2.73842	529.433
2.75423	528.901
2.77013	528.366
2.78612	527.827
2.80221	527.284
2.81838	526.737
2.83465	526.187
2.85102	525.633
2.86748	525.074
2.88403	524.512
2.90068	523.947
2.91743	523.377
2.93427	522.804
2.95121	522.227
2.96825	521.645
2.98538	521.06
3.00262	520.472
3.01995	519.88
3.03739	519.284
3.05492	518.684
3.07256	518.081
3.0903	517.473
3.10814	516.863
3.12608	516.249
3.14413	515.63
3.16228	515.009
3.18053	514.384
3.1989	513.756
3.21736	513.124
3.23594	512.488
3.25462	511.85
3.27341	511.207
3.2923	510.562
3.31131	509.913
3.33043	509.262
3.34965	508.607
3.36899	507.949
3.38844	507.287
3.408	506.623
3.42768	505.955
3.44747	505.284
3.46737	504.61
3.48739	503.933
3.50752	503.252
3.52777	502.569
3.54813	501.883
3.56862	501.193
3.58922	500.501
3.60994	499.805
3.63078	499.107
3.65174	498.406
3.67282	497.702
3.69403	496.994
3.71535	496.284
3.7368	495.572
3.75837	494.856
3.78007	494.137
3.80189	493.416
3.82384	492.691
3.84592	491.964
3.86812	491.234
3.89045	490.502
3.91291	489.766
3.9355	489.028
3.95822	488.287
3.98107	487.543
4.00405	486.796
4.02717	486.047
4.05042	485.295
4.0738	484.541
4.09732	483.783
4.12098	483.024
4.14477	482.261
4.16869	481.496
4.19276	480.728
4.21697	479.958
4.24131	479.186
4.2658	478.411
4.29042	477.633
4.31519	476.854
4.3401	476.071
4.36516	475.287
4.39036	474.5
4.4157	473.711
4.4412	472.919
4.46684	472.125
4.49262	471.328
4.51856	470.53
4.54465	469.729
4.57088	468.926
4.59727	468.121
4.62381	467.314
4.6505	466.504
4.67735	465.692
4.70435	464.878
4.73151	464.062
4.75883	463.245
4.7863	462.424
4.81393	461.602
4.84172	460.778
4.86968	459.951
4.89779	459.123
4.92606	458.292
4.9545	457.46
4.9831	456.625
5.01187	455.789
5.04081	454.95
5.06991	454.11
5.09918	453.268
5.12861	452.423
5.15822	451.577
5.188	450.729
5.21795	449.879
5.24807	449.028
5.27837	448.174
5.30884	447.319
5.33949	446.462
5.37032	445.603
5.40132	444.743
5.4325	443.881
5.46387	443.017
5.49541	442.152
5.52713	441.285
5.55904	440.416
5.59114	439.546
5.62341	438.674
5.65588	437.801
5.68853	436.926
5.72137	436.049
5.7544	435.171
5.78762	434.292
5.82103	433.411
5.85464	432.529
5.88844	431.645
5.92243	430.759
5.95662	429.873
5.99101	428.985
6.0256	428.096
6.06038	427.205
6.09537	426.313
6.13056	425.419
6.16595	424.525
6.20155	423.629
6.23735	422.731
6.27336	421.834
6.30957	420.934
6.346	420.033
6.38263	419.131
6.41948	418.228
6.45654	417.324
6.49382	416.419
6.53131	415.512
6.56901	414.605
6.60693	413.697
6.64508	412.787
6.68344	411.877
6.72202	410.965
6.76083	410.053
6.79986	409.14
6.83912	408.226
6.8786	407.31
6.91831	406.394
6.95825	405.477
6.99842	404.559
7.03882	403.64
7.07946	402.72
7.12033	401.799
7.16143	400.878
7.20278	399.955
7.24436	399.032
7.28618	398.108
7.32825	397.183
7.37055	396.257
7.4131	395.331
7.4559	394.404
7.49894	393.476
7.54223	392.547
7.58578	391.618
7.62957	390.688
7.67361	389.757
7.71792	388.825
7.76247	387.893
7.80728	386.96
7.85236	386.026
7.89769	385.092
7.94328	384.157
7.98914	383.221
8.03526	382.284
8.08165	381.347
8.12831	380.41
8.17523	379.472
8.22243	378.534
8.2699	377.595
8.31764	376.655
8.36566	375.715
8.41395	374.774
8.46253	373.834
8.51138	372.893
8.56052	371.952
8.60994	371.01
8.65964	370.069
8.70964	369.127
8.75992	368.185
8.81049	367.243
8.86135	366.302
8.91251	365.36
8.96396	364.418
9.01571	363.476
9.06776	362.534
9.12011	361.591
9.17276	360.649
9.22571	359.706
9.27897	358.764
9.33254	357.822
9.38642	356.88
9.44061	355.937
9.49511	354.995
9.54993	354.052
9.60506	353.109
9.66051	352.167
9.71628	351.224
9.77237	350.282
9.82879	349.338
9.88553	348.395
9.9426	347.452
10	346.508
10.0577	345.565
10.1158	344.621
10.1742	343.677
10.2329	342.733
10.292	341.789
10.3514	340.844
10.4112	339.9
10.4713	338.956
10.5317	338.013
10.5925	337.072
10.6537	336.131
10.7152	335.191
10.7771	334.25
10.8393	333.309
10.9018	332.369
10.9648	331.429
11.0281	330.489
11.0917	329.549
11.1558	328.609
11.2202	327.67
11.285	326.731
11.3501	325.792
11.4156	324.855
11.4815	323.916
11.5478	322.979
11.6145	322.043
11.6815	321.106
11.749	320.17
11.8168	319.234
11.885	318.3
11.9536	317.365
12.0226	316.431
12.0921	315.498
12.1619	314.565
12.2321	313.633
12.3027	312.701
12.3737	311.77
12.4451	310.84
12.517	309.91
12.5893	308.981
12.6619	308.053
12.735	307.125
12.8086	306.198
12.8825	305.271
12.9569	304.345
13.0317	303.42
13.1069	302.496
13.1826	301.572
13.2587	300.649
13.3352	299.726
13.4122	298.804
13.4896	297.883
13.5675	296.966
13.6458	296.05
13.7246	295.136
13.8038	294.222
13.8835	293.308
13.9637	292.396
14.0443	291.484
14.1254	290.572
14.2069	289.66
14.2889	288.75
14.3714	287.841
14.4544	286.932
14.5378	286.025
14.6218	285.118
14.7062	284.212
14.7911	283.307
14.8765	282.403
14.9624	281.5
15.0487	280.598
15.1356	279.696
15.223	278.796
15.3109	277.897
15.3993	276.998
15.4882	276.101
15.5776	275.205
15.6675	274.309
15.758	273.415
15.8489	272.521
15.9404	271.629
16.0325	270.738
16.125	269.847
16.2181	268.958
16.3117	268.069
16.4059	267.182
16.5006	266.295
16.5959	265.415
16.6917	264.536
16.788	263.657
16.885	262.78
16.9824	261.904
17.0805	261.028
17.1791	260.154
17.2783	259.281
17.378	258.409
17.4783	257.538
17.5792	256.668
17.6807	255.799
17.7828	254.932
17.8855	254.066
17.9887	253.2
18.0926	252.336
18.197	251.472
18.3021	250.609
18.4077	249.748
18.514	248.888
18.6209	248.029
18.7284	247.172
18.8365	246.317
18.9452	245.462
19.0546	244.609
19.1646	243.758
19.2752	242.908
19.3865	242.059
19.4984	241.212
19.611	240.367
19.7242	239.523
19.8381	238.681
19.9526	237.84
20.0678	237.001
20.1837	236.164
20.3002	235.328
20.4174	234.493
20.5353	233.661
20.6538	232.83
20.773	232
20.893	231.173
21.0136	230.347
21.1349	229.522
21.2569	228.699
21.3796	227.878
21.503	227.058
21.6272	226.24
21.752	225.424
21.8776	224.609
22.0039	223.797
22.1309	222.984
22.2587	222.173
22.3872	221.364
22.5165	220.556
22.6464	219.75
22.7772	218.946
22.9087	218.144
23.0409	217.343
23.1739	216.544
23.3077	215.747
23.4423	214.951
23.5776	214.158
23.7137	213.366
23.8506	212.576
23.9883	211.788
24.1268	211.002
24.2661	210.217
24.4062	209.435
24.5471	208.654
24.6888	207.875
24.8313	207.098
24.9747	206.323
25.1189	205.55
25.2639	204.779
25.4097	204.009
25.5564	203.242
25.704	202.476
25.8523	201.712
26.0016	200.951
26.1517	200.19
26.3027	199.432
26.4545	198.676
26.6073	197.921
26.7609	197.168
26.9153	196.417
27.0707	195.667
27.227	194.919
27.3842	194.173
27.5423	193.428
27.7013	192.684
27.8612	191.943
28.0221	191.203
28.1838	190.466
28.3465	189.73
28.5102	188.996
28.6748	188.264
28.8403	187.534
29.0068	186.805
29.1743	186.078
29.3427	185.353
29.5121	184.63
29.6825	183.909
29.8538	183.189
30.0262	182.472
30.1995	181.755
30.3739	181.042
30.5492	180.33
30.7256	179.62
30.903	178.912
31.0814	178.206
31.2608	177.502
31.4413	176.8
31.6228	176.099
31.8053	175.401
31.989	174.705
32.1736	174.011
32.3594	173.318
32.5462	172.628
32.7341	171.939
32.923	171.253
33.1131	170.568
33.3043	169.885
33.4965	169.204
33.6899	168.525
33.8844	167.847
34.08	167.172
34.2768	166.499
34.4747	165.827
34.6737	165.157
34.8739	164.49
35.0752	163.824
35.2777	163.16
35.4813	162.498
35.6862	161.838
35.8922	161.18
36.0994	160.524
36.3078	159.871
36.5174	159.22
36.7282	158.571
36.9403	157.924
37.1535	157.279
37.368	156.635
37.5837	155.994
37.8007	155.355
38.0189	154.717
38.2384	154.082
38.4592	153.448
38.6812	152.817
38.9045	152.188
39.1291	151.561
39.355	150.935
39.5822	150.312
39.8107	149.69
40.0405	149.071
40.2717	148.454
40.5042	147.838
40.738	147.225
40.9732	146.614
41.2098	146.004
41.4477	145.397
41.6869	144.791
41.9276	144.187
42.1697	143.586
42.4131	142.986
42.658	142.387
42.9042	141.791
43.1519	141.197
43.401	140.604
43.6516	140.014
43.9036	139.425
44.157	138.838
44.412	138.255
44.6684	137.673
44.9262	137.093
45.1856	136.514
45.4465	135.937
45.7088	135.362
45.9727	134.789
46.2381	134.218
46.505	133.648
46.7735	133.08
47.0435	132.514
47.3151	131.95
47.5883	131.388
47.863	130.828
48.1393	130.27
48.4172	129.713
48.6968	129.158
48.9779	128.606
49.2606	128.055
49.545	127.506
49.831	126.96
50.1187	126.415
50.4081	125.872
50.6991	125.331
50.9918	124.792
51.2861	124.255
51.5822	123.72
51.88	123.186
52.1795	122.655
52.4807	122.125
52.7837	121.598
53.0884	121.072
53.3949	120.549
53.7032	120.027
54.0132	119.507
54.325	118.989
54.6387	118.473
54.9541	117.959
55.2713	117.446
55.5904	116.935
55.9114	116.426
56.2341	115.918
56.5588	115.413
56.8853	114.909
57.2137	114.408
57.544	113.908
57.8762	113.41
58.2103	112.914
58.5464	112.419
58.8844	111.927
59.2243	111.437
59.5662	110.949
59.9101	110.462
60.256	109.978
60.6038	109.495
60.9537	109.014
61.3056	108.535
61.6595	108.058
62.0155	107.583
62.3735	107.11
62.7336	106.638
63.0957	106.169
63.46	105.701
63.8263	105.235
64.1948	104.771
64.5654	104.308
64.9382	103.847
65.3131	103.388
65.6901	102.931
66.0693	102.475
66.4508	102.022
66.8344	101.569
67.2202	101.119
67.6083	100.67
67.9986	100.223
68.3912	99.7777
68.786	99.3344
69.1831	98.8922
69.5825	98.4518
69.9842	98.0133
70.3882	97.5765
70.7946	97.1411
71.2033	96.7071
71.6143	96.2753
72.0278	95.8447
72.4436	95.4161
72.8618	94.989
73.2825	94.5634
73.7055	94.1399
74.131	93.7176
74.559	93.2973
74.9894	92.8786
75.4223	92.4614
75.8578	92.046
76.2957	91.632
76.7361	91.22
77.1792	90.8097
77.6247	90.4009
78.0728	89.9936
78.5236	89.5882
78.9769	89.1843
79.4328	88.7821
79.8914	88.3815
80.3526	87.9824
80.8165	87.5854
81.2831	87.1896
81.7523	86.7959
82.2243	86.4034
82.699	86.013
83.1764	85.6238
83.6566	85.2367
84.1395	84.8508
84.6253	84.4669
85.1138	84.0843
85.6052	83.7037
86.0994	83.3243
86.5964	82.9466
87.0964	82.5707
87.5992	82.1963
88.1049	81.8232
88.6135	81.4519
89.1251	81.082
89.6396	80.7135
90.1571	80.3466
90.6776	79.9809
91.2011	79.6169
91.7276	79.2543
92.2571	78.8931
92.7897	78.5335
93.3254	78.1754
93.8642	77.8189
94.4061	77.4638
94.9511	77.1105
95.4993	76.7585
96.0506	76.4082
96.6051	76.0589
97.1628	75.7117
97.7237	75.3659
98.2879	75.0214
98.8553	74.6783
99.426	74.3369
100	73.9969
100.577	73.6585
101.158	73.3215
101.742	72.9858
102.329	72.6518
102.92	72.3191
103.514	71.9877
104.112	71.6576
104.713	71.3292
105.317	71.0024
105.925	70.678
106.537	70.3548
107.152	70.0329
107.771	69.7123
108.393	69.3931
109.018	69.0751
109.648	68.7584
110.281	68.4428
110.917	68.1281
111.558	67.8147
112.202	67.5026
112.85	67.1919
113.501	66.8824
114.156	66.5743
114.815	66.2672
115.478	65.9617
116.145	65.6575
116.815	65.3543
117.49	65.0527
118.168	64.7524
118.85	64.4531
119.536	64.1554
120.226	63.8591
120.921	63.5643
121.619	63.2705
122.321	62.9779
123.027	62.6869
123.737	62.3972
124.451	62.1088
125.17	61.8216
125.893	61.5359
126.619	61.2511
127.35	60.9683
128.086	60.6862
128.825	60.4054
129.569	60.1261
130.317	59.848
131.069	59.5711
131.826	59.2954
132.587	59.021
133.352	58.7477
134.122	58.4756
134.896	58.2047
135.675	57.937
136.458	57.6708
137.246	57.4057
138.038	57.1418
138.835	56.879
139.637	56.6174
140.443	56.3568
141.254	56.0973
142.069	55.8389
142.889	55.5817
143.714	55.3256
144.544	55.0707
145.378	54.8169
146.218	54.5643
147.062	54.3128
147.911	54.0624
148.765	53.8131
149.624	53.565
150.487	53.3179
151.356	53.0719
152.23	52.8271
153.109	52.5832
153.993	52.3405
154.882	52.0987
155.776	51.858
156.675	51.6184
157.58	51.3796
158.489	51.1419
159.404	50.9051
160.325	50.6692
161.25	50.4343
162.181	50.2002
163.117	49.967
164.059	49.7346
165.006	49.5029
165.959	49.2758
166.917	49.0494
167.88	48.8238
168.85	48.599
169.824	48.375
170.805	48.1518
171.791	47.9294
172.783	47.7079
173.78	47.4871
174.783	47.2672
175.792	47.0481
176.807	46.8299
177.828	46.6125
178.855	46.3959
179.887	46.1801
180.926	45.9649
181.97	45.7505
183.021	45.5371
184.077	45.3244
185.14	45.1127
186.209	44.9019
187.284	44.692
188.365	44.483
189.452	44.2749
190.546	44.0678
191.646	43.8615
192.752	43.6562
193.865	43.4519
194.984	43.2484
196.11	43.046
197.242	42.8445
198.381	42.6439
199.526	42.4443
200.678	42.2457
201.837	42.048
203.002	41.8512
204.174	41.6554
205.353	41.4606
206.538	41.2667
207.73	41.0738
208.93	40.8819
210.136	40.6909
211.349	40.5007
212.569	40.3115
213.796	40.1233
215.03	39.936
216.272	39.7496
217.52	39.5641
218.776	39.3796
220.039	39.1959
221.309	39.0126
222.587	38.8302
223.872	38.6486
225.165	38.468
226.464	38.2882
227.772	38.1093
229.087	37.9312
230.409	37.754
231.739	37.5778
233.077	37.4024
234.423	37.2279
235.776	37.0542
237.137	36.8815
238.506	36.7097
239.883	36.5387
241.268	36.3686
242.661	36.1994
244.062	36.0311
245.471	35.8636
246.888	35.697
248.313	35.5313
249.747	35.3664
251.189	35.2024
252.639	35.0392
254.097	34.8768
255.564	34.7153
257.04	34.5546
258.523	34.3947
260.016	34.2355
261.517	34.0772
263.027	33.9196
264.545	33.7628
266.073	33.6067
267.609	33.4513
269.153	33.2967
270.707	33.1427
272.27	32.9892
273.842	32.8365
275.423	32.6843
277.013	32.5328
278.612	32.3819
280.221	32.2316
281.838	32.0821
283.465	31.9333
285.102	31.7851
286.748	31.6375
288.403	31.4905
290.068	31.3442
291.743	31.1986
293.427	31.0536
295.121	30.9093
296.825	30.7656
298.538	30.6226
300.262	30.4802
301.995	30.3385
303.739	30.1975
305.492	30.0572
307.256	29.9175
309.03	29.7785
310.814	29.6401
312.608	29.5025
314.413	29.3655
316.228	29.2291
318.053	29.0934
319.89	28.9584
321.736	28.8241
323.594	28.6904
325.462	28.5573
327.341	28.4249
329.23	28.2931
331.131	28.1619
333.043	28.0313
334.965	27.9012
336.899	27.7719
338.844	27.6431
340.8	27.515
342.768	27.3874
344.747	27.2606
346.737	27.1343
348.739	27.0086
350.752	26.8836
352.777	26.7591
354.813	26.6352
356.862	26.512
358.922	26.3893
360.994	26.2673
363.078	26.1461
365.174	26.0255
367.282	25.9055
369.403	25.7861
371.535	25.6673
373.68	25.549
375.837	25.4314
378.007	25.3143
380.189	25.1978
382.384	25.0819
384.592	24.9666
386.812	24.8519
389.045	24.7377
391.291	24.6242
393.55	24.5112
395.822	24.3988
398.107	24.287
400.405	24.1757
402.717	24.065
405.042	23.9549
407.38	23.8453
409.732	23.7363
412.098	23.6277
414.477	23.5198
416.869	23.4123
419.276	23.3054
421.697	23.1989
424.131	23.0929
426.58	22.9875
429.042	22.8825
431.519	22.778
434.01	22.6739
436.516	22.5704
439.036	22.4672
441.57	22.3648
444.12	22.263
446.684	22.1617
449.262	22.0608
451.856	21.9602
454.465	21.8601
457.088	21.7604
459.727	21.6611
462.381	21.5623
465.05	21.464
467.735	21.3661
470.435	21.2686
473.151	21.1716
475.883	21.075
478.63	20.9789
481.393	20.8833
484.172	20.7881
486.968	20.6933
489.779	20.599
492.606	20.5052
495.45	20.4118
498.31	20.3189
501.187	20.2265
504.081	20.1344
506.991	20.0429
509.918	19.9518
512.861	19.8612
515.822	19.771
518.8	19.6813
521.795	19.592
524.807	19.5031
527.837	19.4147
530.884	19.3268
533.949	19.2392
537.032	19.1521
540.132	19.0655
543.25	18.9792
546.387	18.8934
549.541	18.8079
552.713	18.7228
555.904	18.6382
559.114	18.5538
562.341	18.47
565.588	18.3865
568.853	18.3035
572.137	18.2209
575.44	18.1387
578.762	18.0569
582.103	17.9756
585.464	17.8946
588.844	17.8141
592.243	17.734
595.662	17.6543
599.101	17.575
602.56	17.4961
606.038	17.4177
609.537	17.3396
613.056	17.262
616.595	17.1848
620.155	17.1079
623.735	17.0315
627.336	16.9554
630.957	16.8798
634.6	16.8045
638.263	16.7296
641.948	16.6551
645.654	16.5809
649.382	16.5071
653.131	16.4337
656.901	16.3607
660.693	16.288
664.508	16.2156
668.344	16.1436
672.202	16.0719
676.083	16.0005
679.986	15.9291
683.912	15.8577
687.86	15.7867
691.831	15.716
695.825	15.6457
699.842	15.5758
703.882	15.5061
707.946	15.4368
712.033	15.3678
716.143	15.2992
720.278	15.2308
724.436	15.1629
728.618	15.0953
732.825	15.0279
737.055	14.9609
741.31	14.8943
745.59	14.828
749.894	14.762
754.223	14.6964
758.578	14.6311
762.957	14.5661
767.361	14.5015
771.792	14.4372
776.247	14.3732
780.728	14.3095
785.236	14.2461
789.769	14.1831
794.328	14.1205
798.914	14.0581
803.526	13.9961
808.165	13.9344
812.831	13.8729
817.523	13.8119
822.243	13.7511
826.99	13.6908
831.764	13.6307
836.566	13.5709
841.395	13.5114
846.253	13.4523
851.138	13.3934
856.052	13.3349
860.994	13.2767
865.964	13.2187
870.964	13.1608
875.992	13.1022
881.049	13.0439
886.135	12.986
891.251	12.9283
896.396	12.8709
901.571	12.8138
906.776	12.7569
912.011	12.7003
917.276	12.644
922.571	12.588
927.897	12.5323
933.254	12.4769
938.642	12.4218
944.061	12.3669
949.511	12.3123
954.993	12.2581
960.506	12.2041
966.051	12.1504
971.628	12.097
977.237	12.0438
982.879	11.991
988.553	11.9384
994.26	11.8861
1000	11.8341
1005.77	11.7823
1011.58	11.7308
1017.42	11.6796
1023.29	11.6286
1029.2	11.5779
1035.14	11.5274
1041.12	11.4772
1047.13	11.4273
1053.17	11.3777
1059.25	11.3285
1065.37	11.2786
1071.52	11.2279
1077.71	11.1775
1083.93	11.1273
1090.18	11.0774
1096.48	11.0277
1102.81	10.9783
1109.17	10.9291
1115.58	10.8801
1122.02	10.8314
1128.5	10.7829
1135.01	10.7347
1141.56	10.6867
1148.15	10.639
1154.78	10.5916
1161.45	10.5444
1168.15	10.4974
1174.9	10.4508
1181.68	10.4043
1188.5	10.3581
1195.36	10.3122
1202.26	10.2666
1209.21	10.2212
1216.19	10.1761
1223.21	10.1311
1230.27	10.0865
1237.37	10.0422
1244.51	9.99803
1251.7	9.95415
1258.93	9.91053
1266.19	9.86715
1273.5	9.82402
1280.86	9.78117
1288.25	9.7385
1295.69	9.69613
1303.17	9.65398
1310.69	9.61205
1318.26	9.57036
1325.87	9.5289
1333.52	9.48768
1341.22	9.44669
1348.96	9.40592
1356.75	9.36567
1364.58	9.32571
1372.46	9.28596
1380.38	9.24644
1388.35	9.20713
1396.37	9.16806
1404.43	9.12914
1412.54	9.09045
1420.69	9.05201
1428.89	9.01373
1437.14	8.9757
1445.44	8.93788
1453.78	8.90027
1462.18	8.86288
1470.62	8.82566
1479.11	8.78868
1487.65	8.75192
1496.24	8.71534
1504.87	8.67897
1513.56	8.64281
1522.3	8.60684
1531.09	8.57104
1539.93	8.53546
1548.82	8.50007
1557.76	8.46488
1566.75	8.42985
1575.8	8.39499
1584.89	8.36033
1594.04	8.32584
1603.25	8.2915
1612.5	8.25731
1621.81	8.22331
1631.17	8.18945
1640.59	8.15575
1650.06	8.12215
1659.59	8.08935
1669.17	8.05662
1678.8	8.02407
1688.5	7.99164
1698.24	7.95939
1708.05	7.92726
1717.91	7.89526
1727.83	7.86342
1737.8	7.83172
1747.83	7.80013
1757.92	7.76873
1768.07	7.73746
1778.28	7.70634
1788.55	7.67536
1798.87	7.64452
1809.26	7.61378
1819.7	7.58318
1830.21	7.55276
1840.77	7.52245
1851.4	7.49231
1862.09	7.46232
1872.84	7.43251
1883.65	7.40285
1894.52	7.37333
1905.46	7.34396
1916.46	7.31476
1927.52	7.28571
1938.65	7.2568
1949.84	7.22808
1961.1	7.19953
1972.42	7.17112
1983.81	7.14286
1995.26	7.11478
2006.78	7.08687
2018.37	7.0591
2030.02	7.03147
2041.74	7.00405
2053.53	6.97675
2065.38	6.94964
2077.3	6.92268
2089.3	6.89588
2101.36	6.86922
2113.49	6.84273
2125.69	6.8164
2137.96	6.79021
2150.3	6.76418
2162.72	6.73832
2175.2	6.71262
2187.76	6.68706
2200.39	6.66165
2213.09	6.63631
2225.87	6.61113
2238.72	6.58607
2251.65	6.56117
2264.64	6.53643
2277.72	6.51184
2290.87	6.4874
2304.09	6.46309
2317.39	6.43893
2330.77	6.4149
2344.23	6.39103
2357.76	6.36732
2371.37	6.34375
2385.06	6.32035
2398.83	6.29707
2412.68	6.27392
2426.61	6.25096
2440.62	6.22812
2454.71	6.2054
2468.88	6.18288
2483.13	6.16044
2497.47	6.1382
2511.89	6.11606
2526.39	6.09407
2540.97	6.07222
2555.64	6.0505
2570.4	6.02892
2585.23	6.00746
2600.16	5.98615
2615.17	5.96495
2630.27	5.94389
2645.45	5.92295
2660.73	5.90213
2676.09	5.88142
2691.53	5.86084
2707.07	5.84036
2722.7	5.81998
2738.42	5.79971
2754.23	5.77954
2770.13	5.75948
2786.12	5.73952
2802.21	5.71966
2818.38	5.69993
2834.65	5.6803
2851.02	5.66078
2867.48	5.64135
2884.03	5.62204
2900.68	5.60283
2917.43	5.58373
2934.27	5.56473
2951.21	5.54584
2968.25	5.52706
2985.38	5.50838
3002.62	5.48981
3019.95	5.47135
3037.39	5.45299
3054.92	5.43474
3072.56	5.4166
3090.3	5.39856
3108.14	5.38063
3126.08	5.3628
3144.13	5.34509
3162.28	5.32748
3180.53	5.30997
3198.9	5.29257
3217.36	5.27527
3235.94	5.25807
3254.62	5.24098
3273.41	5.22399
3292.3	5.2071
3311.31	5.1903
3330.43	5.17358
3349.65	5.15697
3368.99	5.14046
3388.44	5.12404
3408	5.10772
3427.68	5.0915
3447.47	5.07537
3467.37	5.05934
3487.39	5.04341
3507.52	5.02757
3527.77	5.01183
3548.13	4.99617
3568.62	4.98061
3589.22	4.96514
3609.94	4.94978
3630.78	4.93454
3651.74	4.91939
3672.82	4.90433
3694.03	4.88937
3715.35	4.87449
3736.8	4.8597
3758.37	4.84501
3780.07	4.83041
3801.89	4.8159
3823.84	4.80148
3845.92	4.78715
3868.12	4.77291
3890.45	4.75877
3912.91	4.74471
3935.5	4.73074
3958.22	4.71686
3981.07	4.70307
4004.05	4.68937
4027.17	4.67575
4050.42	4.66222
4073.8	4.64877
4097.32	4.63541
4120.98	4.62213
4144.77	4.60894
4168.69	4.59583
4192.76	4.58279
4216.97	4.56984
4241.31	4.55696
4265.8	4.54415
4290.42	4.53143
4315.19	4.51877
4340.1	4.50619
4365.16	4.49368
4390.36	4.48123
4415.7	4.4689
4441.2	4.45667
4466.84	4.44449
4492.62	4.43239
4518.56	4.42035
4544.65	4.40837
4570.88	4.39646
4597.27	4.38462
4623.81	4.37285
4650.5	4.36115
4677.35	4.34951
4704.35	4.33795
4731.51	4.32645
4758.83	4.31502
4786.3	4.30367
4813.93	4.29238
4841.72	4.28116
4869.68	4.27002
4897.79	4.25894
4926.06	4.24793
4954.5	4.237
4983.1	4.22613
5011.87	4.21533
5040.81	4.2046
5069.91	4.19394
5099.18	4.18335
5128.61	4.17283
5158.22	4.16238
5188	4.152
5217.95	4.14168
5248.07	4.13144
5278.37	4.12126
5308.84	4.11114
5339.49	4.1011
5370.32	4.09111
5401.32	4.0812
5432.5	4.07135
5463.87	4.06156
5495.41	4.05184
5527.13	4.04216
5559.04	4.03255
5591.14	4.023
5623.41	4.01352
5655.88	4.0041
5688.53	3.99474
5721.37	3.98545
5754.4	3.97622
5787.62	3.96705
5821.03	3.95794
5854.64	3.94891
5888.44	3.93993
5922.43	3.93101
5956.62	3.92216
5991.01	3.91337
6025.6	3.90465
6060.38	3.89598
6095.37	3.88737
6130.56	3.87883
6165.95	3.87034
6201.55	3.86192
6237.35	3.85355
6273.36	3.84524
6309.57	3.83699
6346	3.8288
6382.63	3.82066
6419.48	3.81258
6456.54	3.80454
6493.82	3.79657
6531.31	3.78865
6569.01	3.78078
6606.93	3.77296
6645.08	3.76518
6683.44	3.75747
6722.02	3.74979
6760.83	3.74217
6799.86	3.7346
6839.12	3.72708
6878.6	3.7196
6918.31	3.71218
6958.25	3.7048
6998.42	3.69748
7038.82	3.69015
7079.46	3.68287
7120.33	3.67564
7161.43	3.66847
7202.78	3.66134
7244.36	3.65427
7286.18	3.64724
7328.25	3.64026
7370.55	3.63333
7413.1	3.62645
7455.9	3.61962
7498.94	3.61284
7542.23	3.6061
7585.78	3.59942
7629.57	3.59278
7673.61	3.58619
7717.92	3.57965
7762.47	3.57315
7807.28	3.5667
7852.36	3.56029
7897.69	3.55393
7943.28	3.54762
7989.14	3.54136
8035.26	3.53514
8081.65	3.52896
8128.31	3.52283
8175.23	3.51675
8222.43	3.51071
8269.9	3.50471
8317.64	3.49875
8365.66	3.49284
8413.95	3.48697
8462.53	3.48115
8511.38	3.47536
8560.52	3.46961
8609.94	3.46391
8659.64	3.45824
8709.64	3.45261
8759.92	3.44702
8810.49	3.44146
8861.35	3.43595
8912.51	3.43046
8963.96	3.42501
9015.71	3.41958
9067.76	3.41412
9120.11	3.4087
9172.76	3.40333
9225.71	3.39799
9278.97	3.39269
9332.54	3.38743
9386.42	3.38222
9440.61	3.37703
9495.11	3.37189
9549.93	3.36679
9605.06	3.36172
9660.51	3.3567
9716.28	3.35171
9772.37	3.34676
9828.79	3.34185
9885.53	3.33697
9942.6	3.33213
10000	3.32732
10057.7	3.32256
10115.8	3.31783
10174.2	3.31313
10232.9	3.30848
10292	3.30385
10351.4	3.29926
10411.2	3.29471
10471.3	3.29018
10531.7	3.28569
10592.5	3.28123
10653.7	3.27681
10715.2	3.27241
10777.1	3.26805
10839.3	3.26372
10901.8	3.25941
10964.8	3.25514
11028.1	3.25083
11091.7	3.24647
11155.8	3.24215
11220.2	3.23786
11285	3.23361
11350.1	3.22938
11415.6	3.22519
11481.5	3.22103
11547.8	3.21691
11614.5	3.21282
11681.5	3.20876
11749	3.20473
11816.8	3.20073
11885	3.19677
11953.6	3.19283
12022.6	3.18893
12092.1	3.18506
12161.9	3.18122
12232.1	3.1774
12302.7	3.17363
12373.7	3.16987
12445.1	3.16615
12517	3.16246
12589.3	3.15881
12661.9	3.15517
12735	3.15157
12808.6	3.148
12882.5	3.14446
12956.9	3.14094
13031.7	3.13746
13106.9	3.134
13182.6	3.13057
13258.7	3.12717
13335.2	3.1238
13412.2	3.12045
13489.6	3.11714
13567.5	3.11385
13645.8	3.11059
13724.6	3.10735
13803.8	3.10415
13883.5	3.10096
13963.7	3.09781
14044.3	3.09468
14125.4	3.09158
14206.9	3.0885
14288.9	3.08546
14371.4	3.08244
14454.4	3.07944
14537.8	3.07647
14621.8	3.07352
14706.2	3.0706
14791.1	3.0677
14876.5	3.06483
14962.4	3.06199
15048.7	3.05917
15135.6	3.05637
15223	3.0536
15310.9	3.05085
15399.3	3.04813
15488.2	3.04543
15577.6	3.04275
15667.5	3.0401
15758	3.03747
15848.9	3.03487
15940.4	3.03228
16032.5	3.02973
16125	3.02719
16218.1	3.02467
16311.7	3.02218
16405.9	3.01971
16500.6	3.01727
16595.9	3.01484
16691.7	3.01244
16788	3.01006
16885	3.0077
16982.4	3.00537
17080.5	3.00306
17179.1	3.00076
17278.3	2.99849
17378	2.99624
17478.3	2.99401
17579.2	2.9918
17680.7	2.98961
17782.8	2.98744
17885.5	2.98529
17988.7	2.98316
18092.6	2.98106
18197	2.97897
18302.1	2.9769
18407.7	2.97486
18514	2.97283
18620.9	2.97082
18728.4	2.96883
18836.5	2.96686
18945.2	2.96491
19054.6	2.96298
19164.6	2.96106
19275.2	2.95917
19386.5	2.9573
19498.4	2.95544
19611	2.9536
19724.2	2.95178
19838.1	2.94998
19952.6	2.94819
20067.8	2.94643
20183.7	2.94468
20300.2	2.94295
20417.4	2.94124
20535.3	2.93954
20653.8	2.93786
20773	2.9362
20893	2.93455
21013.6	2.93293
21134.9	2.93132
21256.9	2.92972
21379.6	2.92814
21503	2.92658
21627.2	2.92504
21752	2.92351
21877.6	2.922
22003.9	2.9205
22130.9	2.91902
22258.7	2.91756
22387.2	2.91611
22516.5	2.91467
22646.4	2.91326
22777.2	2.91185
22908.7	2.91047
23040.9	2.9091
23173.9	2.90774
23307.7	2.9064
23442.3	2.90507
23577.6	2.90376
23713.7	2.90246
23850.6	2.90118
23988.3	2.89991
24126.8	2.89865
24266.1	2.89741
24406.2	2.89619
24547.1	2.89497
24688.8	2.89378
24831.3	2.89259
24974.7	2.89142
25118.9	2.89026
25263.9	2.88911
25409.7	2.88798
25556.4	2.88687
25704	2.88576
25852.3	2.88467
26001.6	2.88359
26151.7	2.88252
26302.7	2.88147
26454.5	2.88043
26607.3	2.8794
26760.9	2.87839
26915.3	2.87738
27070.7	2.8764
27227	2.87542
27384.2	2.87445
27542.3	2.87349
27701.3	2.87256
27861.2	2.87162
28022.1	2.87071
28183.8	2.8698
28346.5	2.8689
28510.2	2.86802
28674.8	2.86714
28840.3	2.86628
29006.8	2.86543
29174.3	2.86459
29342.7	2.86377
29512.1	2.86295
29682.5	2.86214
29853.8	2.86134
30026.2	2.86056
30199.5	2.85979
30373.9	2.85902
30549.2	2.85827
30725.6	2.85752
30903	2.85679
31081.4	2.85607
31260.8	2.85535
31441.3	2.85465
31622.8	2.85396
31805.3	2.85327
31989	2.8526
32173.6	2.85194
32359.4	2.85128
32546.2	2.85064
32734.1	2.85
32923	2.84938
33113.1	2.84876
33304.3	2.84815
33496.5	2.84755
33689.9	2.84696
33884.4	2.84638
34080	2.84581
34276.8	2.84525
34474.7	2.8447
34673.7	2.84415
34873.9	2.84361
35075.2	2.84308
35277.7	2.84256
35481.3	2.84205
35686.2	2.84154
35892.2	2.84105
36099.4	2.84056
36307.8	2.84008
36517.4	2.83961
36728.2	2.83915
36940.3	2.83869
37153.5	2.83824
37368	2.8378
37583.7	2.83737
37800.7	2.83695
38018.9	2.83653
38238.4	2.83612
38459.2	2.83571
38681.2	2.83532
38904.5	2.83493
39129.1	2.83455
39355	2.83417
39582.2	2.83381
39810.7	2.83345
40040.5	2.8331
40271.7	2.83275
40504.2	2.83241
40738	2.83207
40973.2	2.83175
41209.8	2.83143
41447.7	2.83111
41686.9	2.83081
41927.6	2.8305
42169.7	2.83021
42413.1	2.82992
42658	2.82964
42904.2	2.82936
43151.9	2.82909
43401	2.82883
43651.6	2.82857
43903.6	2.82832
44157	2.82807
44412	2.82783
44668.4	2.8276
44926.2	2.82737
45185.6	2.82714
45446.5	2.82693
45708.8	2.82672
45972.7	2.82651
46238.1	2.82631
46505	2.82611
46773.5	2.82592
47043.5	2.82573
47315.1	2.82555
47588.3	2.82537
47863	2.8252
48139.3	2.82504
48417.2	2.82487
48696.8	2.82472
48977.9	2.82457
49260.6	2.82442
49545	2.82428
49831	2.82414
50118.7	2.82401
50408.1	2.82388
50699.1	2.82375
50991.8	2.82364
51286.1	2.82352
51582.2	2.82341
51880	2.82331
52179.5	2.8232
52480.7	2.82311
52783.7	2.82301
53088.4	2.82292
53394.9	2.82284
53703.2	2.82276
54013.2	2.82268
54325	2.82261
54638.7	2.82254
54954.1	2.82247
55271.3	2.82241
55590.4	2.82235
55911.4	2.8223
56234.1	2.82224
56558.8	2.8222
56885.3	2.82215
57213.7	2.82211
57544	2.82208
57876.2	2.82204
58210.3	2.82201
58546.4	2.82199
58884.4	2.82196
59224.3	2.82194
59566.2	2.82193
59910.1	2.82192
60256	2.8219
60603.8	2.8219
60953.7	2.82189
61305.6	2.82189
61659.5	2.82189
62015.5	2.8219
62373.5	2.8219
62733.6	2.82192
63095.7	2.82193
63460	2.82195
63826.3	2.82197
64194.8	2.82199
64565.4	2.82201
64938.2	2.82204
65313.1	2.82207
65690.1	2.8221
66069.3	2.82213
66450.8	2.82217
66834.4	2.82221
67220.2	2.82225
67608.3	2.8223
67998.6	2.82234
68391.2	2.8224
68786	2.82244
69183.1	2.8225
69582.5	2.82255
69984.2	2.82261
70388.2	2.82267
70794.6	2.82273
71203.3	2.8228
71614.3	2.82286
72027.8	2.82294
72443.6	2.82301
72861.8	2.82308
73282.5	2.82315
73705.5	2.82323
74131	2.82331
74559	2.82338
74989.4	2.82347
75422.3	2.82355
75857.8	2.82364
76295.7	2.82373
76736.1	2.82381
77179.2	2.8239
77624.7	2.824
78072.8	2.82409
78523.6	2.82418
78976.9	2.82428
79432.8	2.82438
79891.4	2.82448
80352.6	2.82458
80816.5	2.82469
81283.1	2.82479
81752.3	2.82489
82224.3	2.825
82699	2.82511
83176.4	2.82522
83656.6	2.82533
84139.5	2.82544
84625.3	2.82555
85113.8	2.82567
85605.2	2.82579
86099.4	2.8259
86596.4	2.82602
87096.4	2.82614
87599.2	2.82626
88104.9	2.82638
88613.5	2.8265
89125.1	2.82663
89639.6	2.82675
90157.1	2.82688
90677.6	2.827
91201.1	2.82713
91727.6	2.82726
92257.1	2.82738
92789.7	2.82752
93325.4	2.82765
93864.2	2.82778
94406.1	2.82791
94951.1	2.82804
95499.3	2.82818
96050.6	2.82831
96605.1	2.82845
97162.8	2.82858
97723.7	2.82872
98287.9	2.82886
98855.3	2.82899
99426	2.82913
100000	2.82927
100577	2.82941
101158	2.82955
101742	2.82969
102329	2.82984
102920	2.82998
103514	2.83012
104112	2.83026
104713	2.83041
105317	2.83055
105925	2.83069
106537	2.83084
107152	2.83099
107771	2.83113
108393	2.83128
109018	2.83142
109648	2.83157
110281	2.83172
110917	2.83186
111558	2.83201
112202	2.83215
112850	2.8323
113501	2.83245
114156	2.8326
114815	2.83275
115478	2.8329
116145	2.83304
116815	2.83319
117490	2.83334
118168	2.83349
118850	2.83364
119536	2.83379
120226	2.83394
120921	2.83409
121619	2.83424
122321	2.83439
123027	2.83454
123737	2.83469
124451	2.83484
125170	2.83499
125893	2.83514
126619	2.83529
127350	2.83544
128086	2.83559
128825	2.83574
129569	2.83588
130317	2.83603
131069	2.83619
131826	2.83633
132587	2.83648
133352	2.83663
134122	2.83678
134896	2.83693
135675	2.83708
136458	2.83723
137246	2.83737
138038	2.83752
138835	2.83767
139637	2.83782
140443	2.83797
141254	2.83811
142069	2.83826
142889	2.8384
143714	2.83855
144544	2.83869
145378	2.83884
146218	2.83899
147062	2.83913
147911	2.83928
148765	2.83942
149624	2.83957
150487	2.83971
151356	2.83985
152230	2.84
153109	2.84014
153993	2.84028
154882	2.84042
155776	2.84057
156675	2.84071
157580	2.84085
158489	2.84099
159404	2.84113
160325	2.84127
161250	2.84141
162181	2.84155
163117	2.84169
164059	2.84183
165006	2.84196
165959	2.8421
166917	2.84223
167880	2.84237
168850	2.84251
169824	2.84264
170805	2.84278
171791	2.84291
172783	2.84304
173780	2.84318
174783	2.84331
175792	2.84344
176807	2.84358
177828	2.84371
178855	2.84383
179887	2.84397
180926	2.8441
181970	2.84423
183021	2.84436
184077	2.84448
185140	2.84461
186209	2.84474
187284	2.84487
188365	2.84499
189452	2.84512
190546	2.84524
191646	2.84536
192752	2.84549
193865	2.84561
194984	2.84573
196110	2.84585
197242	2.84598
198381	2.8461
199526	2.84622
200678	2.84634
201837	2.84646
203002	2.84658
204174	2.84669
205353	2.84681
206538	2.84693
207730	2.84704
208930	2.84716
210136	2.84727
211349	2.84738
212569	2.8475
213796	2.84761
215030	2.84772
216272	2.84784
217520	2.84795
218776	2.84806
220039	2.84817
221309	2.84827
222587	2.84838
223872	2.84849
225165	2.8486
226464	2.8487
227772	2.84881
229087	2.84891
230409	2.84902
231739	2.84912
233077	2.84922
234423	2.84933
235776	2.84943
237137	2.84953
238506	2.84963
239883	2.84973
241268	2.84983
242661	2.84992
244062	2.85002
245471	2.85012
246888	2.85021
248313	2.85031
249747	2.8504
251189	2.8505
252639	2.85059
254097	2.85068
255564	2.85078
257040	2.85087
258523	2.85096
260016	2.85105
261517	2.85114
263027	2.85123
264545	2.85131
266073	2.8514
267609	2.85149
269153	2.85157
270707	2.85166
272270	2.85174
273842	2.85183
275423	2.85191
277013	2.85199
278612	2.85208
280221	2.85216
281838	2.85224
283465	2.85232
285102	2.8524
286748	2.85247
288403	2.85255
290068	2.85263
291743	2.85271
293427	2.85278
295121	2.85286
296825	2.85293
298538	2.85301
300262	2.85308
301995	2.85315
303739	2.85323
305492	2.8533
307256	2.85337
309030	2.85344
310814	2.85351
312608	2.85357
314413	2.85364
316228	2.85371
318053	2.85377
319890	2.85384
321736	2.85391
323594	2.85397
325462	2.85403
327341	2.8541
329230	2.85416
331131	2.85422
333043	2.85428
334965	2.85435
336899	2.8544
338844	2.85446
340800	2.85452
342768	2.85458
344747	2.85464
346737	2.8547
348739	2.85475
350752	2.85481
352777	2.85486
354813	2.85492
356862	2.85497
358922	2.85502
360994	2.85507
363078	2.85513
365174	2.85518
367282	2.85523
369403	2.85528
371535	2.85533
373680	2.85538
375837	2.85542
378007	2.85547
380189	2.85552
382384	2.85557
384592	2.85561
386812	2.85566
389045	2.8557
391291	2.85574
393550	2.85579
395822	2.85583
398107	2.85588
400405	2.85592
402717	2.85595
405042	2.856
407380	2.85604
409732	2.85608
412098	2.85612
414477	2.85615
416869	2.85619
419276	2.85623
421697	2.85627
424131	2.8563
426580	2.85634
429042	2.85637
431519	2.85641
434010	2.85644
436516	2.85648
439036	2.85651
441570	2.85654
444120	2.85657
446684	2.8566
449262	2.85663
451856	2.85667
454465	2.85669
457088	2.85672
459727	2.85675
462381	2.85678
465050	2.85681
467735	2.85684
470435	2.85686
473151	2.85689
475883	2.85691
478630	2.85694
481393	2.85697
484172	2.85699
486968	2.85701
489779	2.85703
492606	2.85706
495450	2.85708
498310	2.85711
501187	2.85713
504081	2.85715
506991	2.85717
509918	2.85719
512861	2.85721
515822	2.85723
518800	2.85725
521795	2.85727
524807	2.85728
527837	2.8573
530884	2.85732
533949	2.85734
537032	2.85735
540132	2.85737
543250	2.85739
546387	2.8574
549541	2.85741
552713	2.85743
555904	2.85744
559114	2.85746
562341	2.85747
565588	2.85748
568853	2.8575
572137	2.85751
575440	2.85752
578762	2.85753
582103	2.85754
585464	2.85756
588844	2.85757
592243	2.85757
595662	2.85758
599101	2.8576
602560	2.8576
606038	2.85762
609537	2.85762
613056	2.85763
616595	2.85764
620155	2.85765
623735	2.85765
627336	2.85766
630957	2.85767
634600	2.85767
638263	2.85768
641948	2.85768
645654	2.85769
649382	2.8577
653131	2.8577
656901	2.85771
660693	2.85771
664508	2.85772
668344	2.85772
672202	2.85772
676083	2.85773
679986	2.85773
683912	2.85774
687860	2.85774
691831	2.85774
695825	2.85774
699842	2.85775
703882	2.85775
707946	2.85775
712033	2.85775
716143	2.85775
720278	2.85775
724436	2.85775
728618	2.85776
732825	2.85776
737055	2.85776
741310	2.85776
745590	2.85776
749894	2.85776
754223	2.85776
758578	2.85776
762957	2.85775
767361	2.85776
771792	2.85776
776247	2.85775
780728	2.85775
785236	2.85775
789769	2.85775
794328	2.85775
798914	2.85775
803526	2.85774
808165	2.85774
812831	2.85774
817523	2.85774
822243	2.85774
826990	2.85773
831764	2.85773
836566	2.85773
841395	2.85773
846253	2.85773
851138	2.85772
856052	2.85772
860994	2.85772
865964	2.85771
870964	2.85771
875992	2.85771
881049	2.8577
886135	2.8577
891251	2.8577
896396	2.85769
901571	2.85769
906776	2.85769
912011	2.85768
917276	2.85768
922571	2.85767
927897	2.85767
933254	2.85767
938642	2.85766
944061	2.85766
949511	2.85765
954993	2.85765
960506	2.85765
966051	2.85764
971628	2.85764
977237	2.85764
982879	2.85763
988553	2.85763
994260	2.85762
1e+06	2.85762
1.00577e+06	2.85762
1.01158e+06	2.85761
1.01742e+06	2.85761
1.02329e+06	2.85761
1.0292e+06	2.8576
1.03514e+06	2.8576
1.04112e+06	2.85759
1.04713e+06	2.85759
1.05317e+06	2.85759
1.05925e+06	2.85758
1.06537e+06	2.85758
1.07152e+06	2.85758
1.07771e+06	2.85757
1.08393e+06	2.85757
1.09018e+06	2.85756
1.09648e+06	2.85756
1.10281e+06	2.85756
1.10917e+06	2.85755
1.11558e+06	2.85755
1.12202e+06	2.85755
1.1285e+06	2.85754
1.13501e+06	2.85753
1.14156e+06	2.85753
1.14815e+06	2.85753
1.15478e+06	2.85753
1.16145e+06	2.85752
1.16815e+06	2.85752
1.1749e+06	2.85752
1.18168e+06	2.85751
1.1885e+06	2.85751
1.19536e+06	2.85751
1.20226e+06	2.8575
1.20921e+06	2.8575
1.21619e+06	2.8575
1.22321e+06	2.85749
1.23027e+06	2.85749
1.23737e+06	2.85749
1.24451e+06	2.85749
1.2517e+06	2.85748
1.25893e+06	2.85747
1.26619e+06	2.85747
1.2735e+06	2.85747
1.28086e+06	2.85747
1.28825e+06	2.85746
1.29569e+06	2.85746
1.30317e+06	2.85746
1.31069e+06	2.85746
1.31826e+06	2.85745
1.32587e+06	2.85745
1.33352e+06	2.85745
1.34122e+06	2.85745
1.34896e+06	2.85744
1.35675e+06	2.85744
1.36458e+06	2.85744
1.37246e+06	2.85744
1.38038e+06	2.85743
1.38835e+06	2.85743
1.39637e+06	2.85743
1.40443e+06	2.85743
1.41254e+06	2.85742
1.42069e+06	2.85742
1.42889e+06	2.85741
1.43714e+06	2.85741
1.44544e+06	2.85741
1.45378e+06	2.85741
1.46218e+06	2.85741
1.47062e+06	2.8574
1.47911e+06	2.8574
1.48765e+06	2.8574
1.49624e+06	2.8574
1.50487e+06	2.85739
1.51356e+06	2.85739
1.5223e+06	2.85739
1.53109e+06	2.85739
1.53993e+06	2.85739
1.54882e+06	2.85738
1.55776e+06	2.85738
1.56675e+06	2.85738
1.5758e+06	2.85738
1.58489e+06	2.85738
1.59404e+06	2.85737
1.60325e+06	2.85737
1.6125e+06	2.85737
1.62181e+06	2.85737
1.63117e+06	2.85737
1.64059e+06	2.85737
1.65006e+06	2.85736
1.65959e+06	2.85736
1.66917e+06	2.85736
1.6788e+06	2.85735
1.6885e+06	2.85735
1.69824e+06	2.85735
1.70805e+06	2.85735
1.71791e+06	2.85735
1.72783e+06	2.85734
1.7378e+06	2.85734
1.74783e+06	2.85734
1.75792e+06	2.85734
1.76807e+06	2.85734
1.77828e+06	2.85734
1.78855e+06	2.85733
1.79887e+06	2.85733
1.80926e+06	2.85733
1.8197e+06	2.85733
1.83021e+06	2.85733
1.84077e+06	2.85732
1.8514e+06	2.85732
1.86209e+06	2.85732
1.87284e+06	2.85732
1.88365e+06	2.85732
1.89452e+06	2.85732
1.90546e+06	2.85732
1.91646e+06	2.85731
1.92752e+06	2.85731
1.93865e+06	2.85731
1.94984e+06	2.85731
1.9611e+06	2.85731
1.97242e+06	2.85731
1.98381e+06	2.85731
1.99526e+06	2.85731
2.00678e+06	2.8573
2.01837e+06	2.8573
2.03002e+06	2.8573
2.04174e+06	2.8573
2.05353e+06	2.85729
2.06538e+06	2.85729
2.0773e+06	2.85729
2.0893e+06	2.85729
2.10136e+06	2.85729
2.11349e+06	2.85729
2.12569e+06	2.85729
2.13796e+06	2.85729
2.1503e+06	2.85728
2.16272e+06	2.85728
2.1752e+06	2.85728
2.18776e+06	2.85728
2.20039e+06	2.85728
2.21309e+06	2.85728
2.22587e+06	2.85728
2.23872e+06	2.85728
2.25165e+06	2.85728
2.26464e+06	2.85727
2.27772e+06	2.85727
2.29087e+06	2.85727
2.30409e+06	2.85727
2.31739e+06	2.85727
2.33077e+06	2.85726
2.34423e+06	2.85726
2.35776e+06	2.85726
2.37137e+06	2.85726
2.38506e+06	2.85726
2.39883e+06	2.85726
2.41268e+06	2.85726
2.42661e+06	2.85726
2.44062e+06	2.85726
2.45471e+06	2.85726
2.46888e+06	2.85725
2.48313e+06	2.85725
2.49747e+06	2.85725
2.51189e+06	2.85725
2.52639e+06	2.85725
2.54097e+06	2.85725
2.55564e+06	2.85725
2.5704e+06	2.85725
2.58523e+06	2.85725
2.60016e+06	2.85725
2.61517e+06	2.85725
2.63027e+06	2.85724
2.64545e+06	2.85724
2.66073e+06	2.85724
2.67609e+06	2.85724
2.69153e+06	2.85724
2.70707e+06	2.85724
2.7227e+06	2.85724
2.73842e+06	2.85724
2.75423e+06	2.85724
2.77013e+06	2.85723
2.78612e+06	2.85723
2.80221e+06	2.85723
2.81838e+06	2.85723
2.83465e+06	2.85723
2.85102e+06	2.85723
2.86748e+06	2.85723
2.88403e+06	2.85723
2.90068e+06	2.85723
2.91743e+06	2.85723
2.93427e+06	2.85723
2.95121e+06	2.85723
2.96825e+06	2.85723
2.98538e+06	2.85722
3.00262e+06	2.85722
3.01995e+06	2.85722
3.03739e+06	2.85722
3.05492e+06	2.85722
3.07256e+06	2.85722
3.0903e+06	2.85722
3.10814e+06	2.85722
3.12608e+06	2.85722
3.14413e+06	2.85722
3.16228e+06	2.85722
3.18053e+06	2.85722
3.1989e+06	2.85722
3.21736e+06	2.85721
3.23594e+06	2.85721
3.25462e+06	2.85721
3.27341e+06	2.85721
3.2923e+06	2.85721
3.31131e+06	2.85721
3.33043e+06	2.85721
3.34965e+06	2.85721
3.36899e+06	2.8572
3.38844e+06	2.8572
3.408e+06	2.8572
3.42768e+06	2.8572
3.44747e+06	2.8572
3.46737e+06	2.8572
3.48739e+06	2.8572
3.50752e+06	2.8572
3.52777e+06	2.8572
3.54813e+06	2.8572
3.56862e+06	2.8572
3.58922e+06	2.8572
3.60994e+06	2.8572
3.63078e+06	2.8572
3.65174e+06	2.8572
3.67282e+06	2.8572
3.69403e+06	2.85719
3.71535e+06	2.85719
3.7368e+06	2.85719
3.75837e+06	2.85719
3.78007e+06	2.85719
3.80189e+06	2.85719
3.82384e+06	2.85719
3.84592e+06	2.85719
3.86812e+06	2.85719
3.89045e+06	2.85719
3.91291e+06	2.85719
3.9355e+06	2.85719
3.95822e+06	2.85719
3.98107e+06	2.85719
4.00405e+06	2.85719
4.02717e+06	2.85719
4.05042e+06	2.85719
4.0738e+06	2.85719
4.09732e+06	2.85719
4.12098e+06	2.85718
4.14477e+06	2.85718
4.16869e+06	2.85718
4.19276e+06	2.85718
4.21697e+06	2.85718
4.24131e+06	2.85718
4.2658e+06	2.85718
4.29042e+06	2.85718
4.31519e+06	2.85718
4.3401e+06	2.85718
4.36516e+06	2.85718
4.39036e+06	2.85718
4.4157e+06	2.85718
4.4412e+06	2.85718
4.46684e+06	2.85718
4.49262e+06	2.85718
4.51856e+06	2.85718
4.54465e+06	2.85718
4.57088e+06	2.85717
4.59727e+06	2.85717
4.62381e+06	2.85717
4.6505e+06	2.85717
4.67735e+06	2.85717
4.70435e+06	2.85717
4.73151e+06	2.85717
4.75883e+06	2.85717
4.7863e+06	2.85717
4.81393e+06	2.85717
4.84172e+06	2.85717
4.86968e+06	2.85717
4.89779e+06	2.85717
4.92606e+06	2.85717
4.9545e+06	2.85717
4.9831e+06	2.85717
5.01187e+06	2.85717
5.04081e+06	2.85717
5.06991e+06	2.85717
5.09918e+06	2.85717
5.12861e+06	2.85717
5.15822e+06	2.85717
5.188e+06	2.85717
5.21795e+06	2.85717
5.24807e+06	2.85717
5.27837e+06	2.85716
5.30884e+06	2.85716
5.33949e+06	2.85716
5.37032e+06	2.85716
5.40132e+06	2.85716
5.4325e+06	2.85716
5.46387e+06	2.85716
5.49541e+06	2.85716
5.52713e+06	2.85716
5.55904e+06	2.85716
5.59114e+06	2.85716
5.62341e+06	2.85716
5.65588e+06	2.85716
5.68853e+06	2.85716
5.72137e+06	2.85716
5.7544e+06	2.85716
5.78762e+06	2.85716
5.82103e+06	2.85716
5.85464e+06	2.85716
5.88844e+06	2.85716
5.92243e+06	2.85716
5.95662e+06	2.85716
5.99101e+06	2.85716
6.0256e+06	2.85716
6.06038e+06	2.85716
6.09537e+06	2.85716
6.13056e+06	2.85716
6.16595e+06	2.85716
6.20155e+06	2.85716
6.23735e+06	2.85716
6.27336e+06	2.85716
6.30957e+06	2.85716
6.346e+06	2.85715
6.38263e+06	2.85715
6.41948e+06	2.85715
6.45654e+06	2.85715
6.49382e+06	2.85715
6.53131e+06	2.85715
6.56901e+06	2.85715
6.60693e+06	2.85715
6.64508e+06	2.85715
6.68344e+06	2.85715
6.72202e+06	2.85715
6.76083e+06	2.85715
6.79986e+06	2.85715
6.83912e+06	2.85715
6.8786e+06	2.85715
6.91831e+06	2.85715
6.95825e+06	2.85715
6.99842e+06	2.85715
7.03882e+06	2.85715
7.07946e+06	2.85715
7.12033e+06	2.85715
7.16143e+06	2.85715
7.20278e+06	2.85715
7.24436e+06	2.85714
7.28618e+06	2.85714
7.32825e+06	2.85714
7.37055e+06	2.85714
7.4131e+06	2.85714
7.4559e+06	2.85714
7.49894e+06	2.85714
7.54223e+06	2.85714
7.58578e+06	2.85714
7.62957e+06	2.85714
7.67361e+06	2.85714
7.71792e+06	2.85714
7.76247e+06	2.85714
7.80728e+06	2.85714
7.85236e+06	2.85714
7.89769e+06	2.85714
7.94328e+06	2.85714
7.98914e+06	2.85714
8.03526e+06	2.85714
8.08165e+06	2.85714
8.12831e+06	2.85714
8.17523e+06	2.85714
8.22243e+06	2.85714
8.2699e+06	2.85714
8.31764e+06	2.85714
8.36566e+06	2.85714
8.41395e+06	2.85714
8.46253e+06	2.85714
8.51138e+06	2.85714
8.56052e+06	2.85714
8.60994e+06	2.85714
8.65964e+06	2.85714
8.70964e+06	2.85714
8.75992e+06	2.85714
8.81049e+06	2.85714
8.86135e+06	2.85714
8.91251e+06	2.85714
8.96396e+06	2.85714
9.01571e+06	2.85714
9.06776e+06	2.85714
9.12011e+06	2.85714
9.17276e+06	2.85714
9.22571e+06	2.85714
9.27897e+06	2.85714
9.33254e+06	2.85714
9.38642e+06	2.85714
9.44061e+06	2.85714
9.49511e+06	2.85714
9.54993e+06	2.85713
9.60506e+06	2.85713
9.66051e+06	2.85713
9.71628e+06	2.85713
9.77237e+06	2.85713
9.82879e+06	2.85713
9.88553e+06	2.85713
9.9426e+06	2.85713
1e+07	2.85713
