E [MeV]	dEdx [keV/microm]
0.001	28.7795
0.00100577	28.863
0.00101158	28.9468
0.00101742	29.0309
0.00102329	29.1152
0.0010292	29.1997
0.00103514	29.2845
0.00104112	29.3695
0.00104713	29.4548
0.00105317	29.5403
0.00105925	29.626
0.00106537	29.712
0.00107152	29.7983
0.00107771	29.8848
0.00108393	29.9715
0.00109018	30.0585
0.00109648	30.1457
0.00110281	30.2332
0.00110917	30.321
0.00111558	30.409
0.00112202	30.4973
0.0011285	30.5858
0.00113501	30.6745
0.00114156	30.7635
0.00114815	30.8528
0.00115478	30.9423
0.00116145	31.0322
0.00116815	31.1222
0.0011749	31.2125
0.00118168	31.3031
0.0011885	31.3939
0.00119536	31.485
0.00120226	31.5764
0.00120921	31.668
0.00121619	31.7599
0.00122321	31.8521
0.00123027	31.9445
0.00123737	32.0371
0.00124451	32.1301
0.0012517	32.2233
0.00125893	32.3168
0.00126619	32.4105
0.0012735	32.5046
0.00128086	32.5989
0.00128825	32.6935
0.00129569	32.7883
0.00130317	32.8834
0.00131069	32.9788
0.00131826	33.0745
0.00132587	33.1704
0.00133352	33.2666
0.00134122	33.3631
0.00134896	33.4599
0.00135675	33.5569
0.00136458	33.6543
0.00137246	33.7519
0.00138038	33.8498
0.00138835	33.9479
0.00139637	34.0464
0.00140443	34.1452
0.00141254	34.2441
0.00142069	34.3435
0.00142889	34.4431
0.00143714	34.543
0.00144544	34.6432
0.00145378	34.7436
0.00146218	34.8444
0.00147062	34.9454
0.00147911	35.0467
0.00148765	35.1483
0.00149624	35.2503
0.00150487	35.3525
0.00151356	35.455
0.0015223	35.5578
0.00153109	35.6609
0.00153993	35.7643
0.00154882	35.868
0.00155776	35.9719
0.00156675	36.0762
0.0015758	36.1809
0.00158489	36.2857
0.00159404	36.3909
0.00160325	36.4964
0.0016125	36.6022
0.00162181	36.7084
0.00163117	36.8147
0.00164059	36.9215
0.00165006	37.0285
0.00165959	37.1358
0.00166917	37.2435
0.0016788	37.3515
0.0016885	37.4597
0.00169824	37.5683
0.00170805	37.6772
0.00171791	37.7864
0.00172783	37.8959
0.0017378	38.0058
0.00174783	38.1159
0.00175792	38.2264
0.00176807	38.3372
0.00177828	38.4483
0.00178855	38.5597
0.00179887	38.6715
0.00180926	38.7835
0.0018197	38.8959
0.00183021	39.0086
0.00184077	39.1217
0.0018514	39.2351
0.00186209	39.3488
0.00187284	39.4628
0.00188365	39.5771
0.00189452	39.6918
0.00190546	39.8068
0.00191646	39.9222
0.00192752	40.0379
0.00193865	40.1539
0.00194984	40.2702
0.0019611	40.3869
0.00197242	40.5039
0.00198381	40.6213
0.00199526	40.739
0.00200678	40.857
0.00201837	40.9754
0.00203002	41.0941
0.00204174	41.2132
0.00205353	41.3326
0.00206538	41.4523
0.0020773	41.5724
0.0020893	41.6928
0.00210136	41.8136
0.00211349	41.9347
0.00212569	42.0562
0.00213796	42.178
0.0021503	42.3002
0.00216272	42.4227
0.0021752	42.5456
0.00218776	42.6689
0.00220039	42.7925
0.00221309	42.9164
0.00222587	43.0407
0.00223872	43.1654
0.00225165	43.2904
0.00226464	43.4158
0.00227772	43.5415
0.00229087	43.6676
0.00230409	43.7941
0.00231739	43.921
0.00233077	44.0481
0.00234423	44.1757
0.00235776	44.3037
0.00237137	44.4319
0.00238506	44.5607
0.00239883	44.6897
0.00241268	44.8191
0.00242661	44.9489
0.00244062	45.0791
0.00245471	45.2096
0.00246888	45.3405
0.00248313	45.4718
0.00249747	45.6035
0.00251189	45.7356
0.00252639	45.868
0.00254097	46.0008
0.00255564	46.134
0.0025704	46.2676
0.00258523	46.4016
0.00260016	46.5359
0.00261517	46.6707
0.00263027	46.8058
0.00264545	46.9413
0.00266073	47.0772
0.00267609	47.2135
0.00269153	47.3502
0.00270707	47.4873
0.0027227	47.6248
0.00273842	47.7627
0.00275423	47.9009
0.00277013	48.0396
0.00278612	48.1787
0.00280221	48.3182
0.00281838	48.458
0.00283465	48.5983
0.00285102	48.739
0.00286748	48.8801
0.00288403	49.0216
0.00290068	49.1635
0.00291743	49.3058
0.00293427	49.4485
0.00295121	49.5917
0.00296825	49.7352
0.00298538	49.8792
0.00300262	50.0236
0.00301995	50.1683
0.00303739	50.3136
0.00305492	50.4592
0.00307256	50.6052
0.0030903	50.7517
0.00310814	50.8986
0.00312608	51.0459
0.00314413	51.1937
0.00316228	51.3418
0.00318053	51.4904
0.0031989	51.6394
0.00321736	51.7889
0.00323594	51.9388
0.00325462	52.0891
0.00327341	52.2398
0.0032923	52.391
0.00331131	52.5427
0.00333043	52.6947
0.00334965	52.8472
0.00336899	53.0001
0.00338844	53.1535
0.003408	53.3073
0.00342768	53.4616
0.00344747	53.6163
0.00346737	53.7714
0.00348739	53.927
0.00350752	54.0831
0.00352777	54.2396
0.00354813	54.3965
0.00356862	54.5539
0.00358922	54.7118
0.00360994	54.87
0.00363078	55.0288
0.00365174	55.188
0.00367282	55.3478
0.00369403	55.5079
0.00371535	55.6685
0.0037368	55.8295
0.00375837	55.9911
0.00378007	56.1531
0.00380189	56.3155
0.00382384	56.4785
0.00384592	56.6418
0.00386812	56.8057
0.00389045	56.9701
0.00391291	57.1349
0.0039355	57.3002
0.00395822	57.4659
0.00398107	57.6322
0.00400405	57.7989
0.00402717	57.9661
0.00405042	58.1338
0.0040738	58.302
0.00409732	58.4706
0.00412098	58.6398
0.00414477	58.8094
0.00416869	58.9795
0.00419276	59.1501
0.00421697	59.3212
0.00424131	59.4928
0.0042658	59.6649
0.00429042	59.8375
0.00431519	60.0106
0.0043401	60.1842
0.00436516	60.3582
0.00439036	60.5328
0.0044157	60.7079
0.0044412	60.8835
0.00446684	61.0596
0.00449262	61.2362
0.00451856	61.4133
0.00454465	61.5909
0.00457088	61.7691
0.00459727	61.9477
0.00462381	62.1269
0.0046505	62.3066
0.00467735	62.4868
0.00470435	62.6675
0.00473151	62.8487
0.00475883	63.0305
0.0047863	63.2128
0.00481393	63.3956
0.00484172	63.5789
0.00486968	63.7628
0.00489779	63.9472
0.00492606	64.1321
0.0049545	64.3175
0.0049831	64.5035
0.00501187	64.6901
0.00504081	64.8771
0.00506991	65.0648
0.00509918	65.2529
0.00512861	65.4416
0.00515822	65.6308
0.005188	65.8206
0.00521795	66.0109
0.00524807	66.2018
0.00527837	66.3932
0.00530884	66.5852
0.00533949	66.7777
0.00537032	66.9708
0.00540132	67.1645
0.0054325	67.3587
0.00546387	67.5534
0.00549541	67.7487
0.00552713	67.9446
0.00555904	68.1411
0.00559114	68.3381
0.00562341	68.5357
0.00565588	68.7338
0.00568853	68.9325
0.00572137	69.1319
0.0057544	69.3317
0.00578762	69.5322
0.00582103	69.7332
0.00585464	69.9348
0.00588844	70.137
0.00592243	70.3398
0.00595662	70.5431
0.00599101	70.747
0.0060256	70.9516
0.00606038	71.1567
0.00609537	71.3624
0.00613056	71.5687
0.00616595	71.7756
0.00620155	71.9831
0.00623735	72.1912
0.00627336	72.3999
0.00630957	72.6091
0.006346	72.819
0.00638263	73.0295
0.00641948	73.2406
0.00645654	73.4524
0.00649382	73.6647
0.00653131	73.8777
0.00656901	74.0912
0.00660693	74.3053
0.00664508	74.5201
0.00668344	74.7355
0.00672202	74.9515
0.00676083	75.1682
0.00679986	75.3855
0.00683912	75.6033
0.0068786	75.8219
0.00691831	76.041
0.00695825	76.2608
0.00699842	76.4813
0.00703882	76.7023
0.00707946	76.924
0.00712033	77.1463
0.00716143	77.3693
0.00720278	77.5929
0.00724436	77.8172
0.00728618	78.0421
0.00732825	78.2676
0.00737055	78.4938
0.0074131	78.7821
0.0074559	79.0096
0.00749894	79.2378
0.00754223	79.4666
0.00758578	79.6961
0.00762957	79.9262
0.00767361	80.157
0.00771792	80.3885
0.00776247	80.6207
0.00780728	80.8535
0.00785236	81.0869
0.00789769	81.3211
0.00794328	81.5559
0.00798914	81.7914
0.00803526	82.0276
0.00808165	82.2645
0.00812831	82.502
0.00817523	82.7403
0.00822243	82.9792
0.0082699	83.2188
0.00831764	83.4591
0.00836566	83.7001
0.00841395	83.9418
0.00846253	84.1842
0.00851138	84.4272
0.00856052	84.671
0.00860994	84.9155
0.00865964	85.2325
0.00870964	85.4784
0.00875992	85.725
0.00881049	85.9723
0.00886135	86.2204
0.00891251	86.4691
0.00896396	86.7186
0.00901571	86.9687
0.00906776	87.2196
0.00912011	87.4712
0.00917276	87.7236
0.00922571	87.9767
0.00927897	88.2305
0.00933254	88.5623
0.00938642	88.8176
0.00944061	89.0736
0.00949511	89.3304
0.00954993	89.5878
0.00960506	89.8461
0.00966051	90.105
0.00971628	90.3647
0.00977237	90.6252
0.00982879	90.8865
0.00988553	91.1484
0.0099426	91.4111
0.01	91.6746
0.0100577	91.9389
0.0101158	92.2039
0.0101742	92.4696
0.0102329	92.7362
0.010292	93.0035
0.0103514	93.2715
0.0104112	93.5403
0.0104713	93.81
0.0105317	94.0804
0.0105925	94.3515
0.0106537	94.6235
0.0107152	94.8962
0.0107771	95.1697
0.0108393	95.4439
0.0109018	95.7193
0.0109648	95.9949
0.0110281	96.2717
0.0110917	96.5493
0.0111558	96.8275
0.0112202	97.1065
0.011285	97.3867
0.0113501	97.6674
0.0114156	97.9487
0.0114815	98.2311
0.0115478	98.5144
0.0116145	98.7983
0.0116815	99.0828
0.011749	99.3686
0.0118168	99.6551
0.011885	99.9424
0.0119536	100.23
0.0120226	100.519
0.0120921	100.809
0.0121619	101.1
0.0122321	101.391
0.0123027	101.683
0.0123737	101.976
0.0124451	102.27
0.012517	102.565
0.0125893	102.861
0.0126619	103.157
0.012735	103.454
0.0128086	103.753
0.0128825	104.052
0.0129569	104.352
0.0130317	104.652
0.0131069	104.954
0.0131826	105.256
0.0132587	105.56
0.0133352	105.864
0.0134122	106.169
0.0134896	106.476
0.0135675	106.782
0.0136458	107.09
0.0137246	107.399
0.0138038	107.708
0.0138835	108.019
0.0139637	108.33
0.0140443	108.642
0.0141254	108.955
0.0142069	109.269
0.0142889	109.584
0.0143714	109.9
0.0144544	110.217
0.0145378	110.535
0.0146218	110.854
0.0147062	111.173
0.0147911	111.494
0.0148765	111.815
0.0149624	112.137
0.0150487	112.46
0.0151356	112.784
0.015223	113.109
0.0153109	113.435
0.0153993	113.763
0.0154882	114.09
0.0155776	114.419
0.0156675	114.749
0.015758	115.08
0.0158489	115.412
0.0159404	115.744
0.0160325	116.078
0.016125	116.412
0.0162181	116.748
0.0163117	117.084
0.0164059	117.422
0.0165006	117.76
0.0165959	118.1
0.0166917	118.44
0.016788	118.782
0.016885	119.124
0.0169824	119.467
0.0170805	119.812
0.0171791	120.157
0.0172783	120.503
0.017378	120.851
0.0174783	121.199
0.0175792	121.548
0.0176807	121.899
0.0177828	122.25
0.0178855	122.603
0.0179887	122.956
0.0180926	123.31
0.018197	123.666
0.0183021	124.022
0.0184077	124.38
0.018514	124.738
0.0186209	125.097
0.0187284	125.458
0.0188365	125.82
0.0189452	126.182
0.0190546	126.546
0.0191646	126.911
0.0192752	127.277
0.0193865	127.644
0.0194984	128.011
0.019611	128.381
0.0197242	128.751
0.0198381	129.122
0.0199526	129.494
0.0200678	129.867
0.0201837	130.241
0.0203002	130.617
0.0204174	130.993
0.0205353	131.371
0.0206538	131.749
0.020773	132.129
0.020893	132.51
0.0210136	132.892
0.0211349	133.275
0.0212569	133.659
0.0213796	134.045
0.021503	134.431
0.0216272	134.818
0.021752	135.207
0.0218776	135.597
0.0220039	135.987
0.0221309	136.379
0.0222587	136.772
0.0223872	137.167
0.0225165	137.562
0.0226464	137.959
0.0227772	138.356
0.0229087	138.755
0.0230409	139.155
0.0231739	139.556
0.0233077	139.959
0.0234423	140.362
0.0235776	140.767
0.0237137	141.172
0.0238506	141.579
0.0239883	141.987
0.0241268	142.396
0.0242661	142.807
0.0244062	143.218
0.0245471	143.631
0.0246888	144.045
0.0248313	144.46
0.0249747	144.877
0.0251189	145.295
0.0252639	145.713
0.0254097	146.133
0.0255564	146.555
0.025704	146.977
0.0258523	147.401
0.0260016	147.825
0.0261517	148.251
0.0263027	148.679
0.0264545	149.107
0.0266073	149.537
0.0267609	149.968
0.0269153	150.401
0.0270707	150.834
0.027227	151.269
0.0273842	151.704
0.0275423	152.142
0.0277013	152.581
0.0278612	153.02
0.0280221	153.461
0.0281838	153.904
0.0283465	154.347
0.0285102	154.792
0.0286748	155.238
0.0288403	155.686
0.0290068	156.135
0.0291743	156.584
0.0293427	157.036
0.0295121	157.489
0.0296825	157.943
0.0298538	158.398
0.0300262	158.854
0.0301995	159.312
0.0303739	159.772
0.0305492	160.232
0.0307256	160.694
0.030903	161.157
0.0310814	161.622
0.0312608	162.087
0.0314413	162.554
0.0316228	163.023
0.0318053	163.493
0.031989	163.964
0.0321736	164.437
0.0323594	164.911
0.0325462	165.386
0.0327341	165.863
0.032923	166.341
0.0331131	166.82
0.0333043	167.301
0.0334965	167.783
0.0336899	168.267
0.0338844	168.752
0.03408	169.238
0.0342768	169.726
0.0344747	170.216
0.0346737	170.706
0.0348739	171.198
0.0350752	171.692
0.0352777	172.187
0.0354813	172.683
0.0356862	173.18
0.0358922	173.68
0.0360994	174.18
0.0363078	174.682
0.0365174	175.186
0.0367282	175.691
0.0369403	176.197
0.0371535	176.705
0.037368	177.215
0.0375837	177.725
0.0378007	178.238
0.0380189	178.751
0.0382384	179.266
0.0384592	179.783
0.0386812	180.302
0.0389045	180.821
0.0391291	181.342
0.039355	181.865
0.0395822	182.389
0.0398107	182.915
0.0400405	183.442
0.0402717	183.971
0.0405042	184.501
0.040738	185.033
0.0409732	185.566
0.0412098	186.101
0.0414477	186.638
0.0416869	187.175
0.0419276	187.715
0.0421697	188.256
0.0424131	188.798
0.042658	189.343
0.0429042	189.889
0.0431519	190.436
0.043401	190.985
0.0436516	191.535
0.0439036	192.087
0.044157	192.641
0.044412	193.196
0.0446684	193.753
0.0449262	194.311
0.0451856	194.872
0.0454465	195.434
0.0457088	195.997
0.0459727	196.562
0.0462381	197.128
0.046505	197.696
0.0467735	198.266
0.0470435	198.838
0.0473151	199.411
0.0475883	199.986
0.047863	200.562
0.0481393	201.14
0.0484172	201.72
0.0486968	202.302
0.0489779	202.884
0.0492606	203.47
0.049545	204.056
0.049831	204.644
0.0501187	205.234
0.0504081	205.826
0.0506991	206.419
0.0509918	207.014
0.0512861	207.61
0.0515822	208.209
0.05188	208.809
0.0521795	209.411
0.0524807	210.014
0.0527837	210.62
0.0530884	211.227
0.0533949	211.836
0.0537032	212.446
0.0540132	213.059
0.054325	213.673
0.0546387	214.288
0.0549541	214.906
0.0552713	215.526
0.0555904	216.147
0.0559114	216.77
0.0562341	217.395
0.0565588	218.022
0.0568853	218.65
0.0572137	219.28
0.057544	219.912
0.0578762	220.546
0.0582103	221.181
0.0585464	221.819
0.0588844	222.458
0.0592243	223.1
0.0595662	223.743
0.0599101	224.388
0.060256	225.035
0.0606038	225.683
0.0609537	226.334
0.0613056	226.986
0.0616595	227.64
0.0620155	228.296
0.0623735	228.955
0.0627336	229.614
0.0630957	230.276
0.06346	230.94
0.0638263	231.606
0.0641948	232.273
0.0645654	232.943
0.0649382	233.614
0.0653131	234.288
0.0656901	234.963
0.0660693	235.64
0.0664508	236.319
0.0668344	237
0.0672202	237.684
0.0676083	238.369
0.0679986	239.056
0.0683912	239.745
0.068786	240.436
0.0691831	241.129
0.0695825	241.824
0.0699842	242.521
0.0703882	243.22
0.0707946	243.921
0.0712033	244.624
0.0716143	245.329
0.0720278	246.036
0.0724436	246.745
0.0728618	247.456
0.0732825	248.17
0.0737055	248.885
0.074131	249.603
0.074559	250.322
0.0749894	251.043
0.0754223	251.767
0.0758578	252.493
0.0762957	253.221
0.0767361	253.951
0.0771792	254.682
0.0776247	255.417
0.0780728	256.153
0.0785236	256.891
0.0789769	257.632
0.0794328	258.374
0.0798914	259.119
0.0803526	259.866
0.0808165	260.615
0.0812831	261.366
0.0817523	262.119
0.0822243	262.875
0.082699	263.632
0.0831764	264.393
0.0836566	265.155
0.0841395	265.919
0.0846253	266.685
0.0851138	267.454
0.0856052	268.225
0.0860994	268.998
0.0865964	269.773
0.0870964	270.551
0.0875992	271.331
0.0881049	272.113
0.0886135	272.897
0.0891251	273.684
0.0896396	274.473
0.0901571	275.264
0.0906776	276.057
0.0912011	276.853
0.0917276	277.651
0.0922571	278.451
0.0927897	279.254
0.0933254	280.058
0.0938642	280.866
0.0944061	281.676
0.0949511	282.487
0.0954993	283.302
0.0960506	284.118
0.0966051	284.937
0.0971628	285.758
0.0977237	286.582
0.0982879	287.408
0.0988553	288.236
0.099426	289.067
0.1	289.901
0.100577	290.736
0.101158	291.574
0.101742	292.415
0.102329	293.257
0.10292	294.103
0.103514	294.95
0.104112	295.8
0.104713	296.653
0.105317	297.508
0.105925	298.366
0.106537	299.226
0.107152	300.088
0.107771	300.954
0.108393	301.821
0.109018	302.691
0.109648	303.563
0.110281	304.438
0.110917	305.316
0.111558	306.196
0.112202	307.078
0.11285	307.964
0.113501	308.851
0.114156	309.741
0.114815	310.634
0.115478	311.529
0.116145	312.427
0.116815	313.328
0.11749	314.231
0.118168	315.137
0.11885	316.045
0.119536	316.956
0.120226	317.87
0.120921	318.786
0.121619	319.705
0.122321	320.626
0.123027	321.551
0.123737	322.477
0.124451	323.407
0.12517	324.339
0.125893	325.274
0.126619	326.211
0.12735	327.152
0.128086	328.095
0.128825	329.04
0.129569	329.989
0.130317	330.94
0.131069	331.894
0.131826	332.85
0.132587	333.81
0.133352	334.772
0.134122	335.737
0.134896	336.705
0.135675	337.675
0.136458	338.649
0.137246	339.625
0.138038	340.603
0.138835	341.585
0.139637	342.57
0.140443	343.557
0.141254	344.547
0.142069	345.541
0.142889	346.537
0.143714	347.535
0.144544	348.537
0.145378	349.542
0.146218	350.549
0.147062	351.56
0.147911	352.573
0.148765	353.589
0.149624	354.608
0.150487	355.63
0.151356	356.655
0.15223	357.684
0.153109	358.715
0.153993	359.749
0.154882	360.785
0.155776	361.825
0.156675	362.868
0.15758	363.914
0.158489	364.963
0.159404	366.015
0.160325	367.07
0.16125	368.128
0.162181	369.189
0.163117	370.253
0.164059	371.32
0.165006	372.391
0.165959	373.464
0.166917	374.541
0.16788	375.62
0.16885	376.703
0.169824	377.789
0.170805	378.878
0.171791	379.97
0.172783	381.065
0.17378	382.164
0.174783	383.265
0.175792	384.357
0.176807	385.45
0.177828	386.546
0.178855	387.645
0.179887	388.748
0.180926	389.854
0.18197	390.964
0.183021	392.077
0.184077	393.193
0.18514	394.313
0.186209	395.437
0.187284	396.563
0.188365	397.693
0.189452	398.827
0.190546	399.964
0.191646	401.105
0.192752	402.248
0.193865	403.396
0.194984	404.546
0.19611	405.701
0.197242	406.858
0.198381	408.019
0.199526	409.183
0.200678	410.351
0.201837	411.521
0.203002	412.696
0.204174	413.873
0.205353	415.054
0.206538	416.238
0.20773	417.425
0.20893	418.616
0.210136	419.803
0.211349	420.943
0.212569	422.085
0.213796	423.23
0.21503	424.378
0.216272	425.529
0.21752	426.683
0.218776	427.84
0.220039	428.999
0.221309	430.162
0.222587	431.327
0.223872	432.494
0.225165	433.67
0.226464	434.886
0.227772	436.106
0.229087	437.33
0.230409	438.557
0.231739	439.789
0.233077	441.023
0.234423	442.262
0.235776	443.504
0.237137	444.75
0.238506	445.999
0.239883	447.252
0.241268	448.508
0.242661	449.768
0.244062	451.031
0.245471	452.297
0.246888	453.566
0.248313	454.839
0.249747	456.115
0.251189	457.394
0.252639	458.676
0.254097	459.961
0.255564	461.249
0.25704	462.54
0.258523	463.833
0.260016	465.13
0.261517	466.429
0.263027	467.73
0.264545	469.034
0.266073	470.341
0.267609	471.649
0.269153	472.96
0.270707	474.246
0.27227	475.501
0.273842	476.757
0.275423	478.035
0.277013	479.372
0.278612	480.713
0.280221	482.054
0.281838	483.385
0.283465	484.719
0.285102	486.057
0.286748	487.396
0.288403	488.739
0.290068	490.085
0.291743	491.433
0.293427	492.784
0.295121	494.137
0.296825	495.493
0.298538	496.852
0.300262	498.213
0.301995	499.577
0.303739	500.942
0.305492	502.31
0.307256	503.681
0.30903	505.053
0.310814	506.428
0.312608	507.804
0.314413	509.182
0.316228	510.563
0.318053	511.945
0.31989	513.328
0.321736	514.714
0.323594	516.101
0.325462	517.489
0.327341	518.879
0.32923	520.27
0.331131	521.633
0.333043	522.976
0.334965	524.319
0.336899	525.663
0.338844	527.008
0.3408	528.354
0.342768	529.699
0.344747	531.045
0.346737	532.391
0.348739	533.738
0.350752	535.084
0.352777	536.429
0.354813	537.775
0.356862	539.119
0.358922	540.463
0.360994	541.799
0.363078	543.125
0.365174	544.449
0.367282	545.773
0.369403	547.096
0.371535	548.417
0.37368	549.736
0.375837	551.055
0.378007	552.371
0.380189	553.686
0.382384	554.999
0.384592	556.31
0.386812	557.619
0.389045	558.927
0.391291	560.232
0.39355	561.535
0.395822	562.835
0.398107	564.134
0.400405	565.429
0.402717	566.723
0.405042	568.013
0.40738	569.301
0.409732	570.587
0.412098	571.869
0.414477	573.148
0.416869	574.425
0.419276	575.697
0.421697	576.967
0.424131	578.233
0.42658	579.496
0.429042	580.756
0.431519	582.011
0.43401	583.263
0.436516	584.511
0.439036	585.755
0.44157	586.986
0.44412	588.207
0.446684	589.425
0.449262	590.638
0.451856	591.846
0.454465	593.05
0.457088	594.25
0.459727	595.444
0.462381	596.635
0.46505	597.821
0.467735	599.002
0.470435	600.18
0.473151	601.352
0.475883	602.52
0.47863	603.683
0.481393	604.842
0.484172	605.996
0.486968	607.145
0.489779	608.29
0.492606	609.43
0.49545	610.565
0.49831	611.696
0.501187	612.821
0.504081	613.942
0.506991	615.058
0.509918	616.17
0.512861	617.276
0.515822	618.377
0.5188	619.474
0.521795	620.565
0.524807	621.652
0.527837	622.733
0.530884	623.81
0.533949	624.882
0.537032	625.949
0.540132	627.011
0.54325	628.068
0.546387	629.12
0.549541	630.167
0.552713	631.208
0.555904	632.245
0.559114	633.276
0.562341	634.303
0.565588	635.324
0.568853	636.34
0.572137	637.351
0.57544	638.357
0.578762	639.358
0.582103	640.353
0.585464	641.344
0.588844	642.329
0.592243	643.309
0.595662	644.284
0.599101	645.253
0.60256	646.218
0.606038	647.177
0.609537	648.131
0.613056	649.08
0.616595	650.023
0.620155	650.962
0.623735	651.895
0.627336	652.823
0.630957	653.746
0.6346	654.663
0.638263	655.576
0.641948	656.483
0.645654	657.386
0.649382	658.283
0.653131	659.175
0.656901	660.062
0.660693	660.944
0.664508	661.821
0.668344	662.692
0.672202	663.559
0.676083	664.42
0.679986	665.277
0.683912	666.128
0.68786	666.974
0.691831	667.815
0.695825	668.651
0.699842	669.482
0.703882	670.308
0.707946	671.129
0.712033	671.945
0.716143	672.756
0.720278	673.562
0.724436	674.363
0.728618	675.159
0.732825	675.95
0.737055	676.736
0.74131	677.517
0.74559	678.293
0.749894	679.064
0.754223	679.83
0.758578	680.59
0.762957	681.346
0.767361	682.097
0.771792	682.843
0.776247	683.584
0.780728	684.32
0.785236	685.051
0.789769	685.777
0.794328	686.498
0.798914	687.214
0.803526	687.925
0.808165	688.631
0.812831	689.332
0.817523	690.028
0.822243	690.719
0.82699	691.405
0.831764	692.086
0.836566	692.762
0.841395	693.433
0.846253	694.099
0.851138	694.76
0.856052	695.416
0.860994	696.067
0.865964	696.713
0.870964	697.355
0.875992	697.991
0.881049	698.623
0.886135	699.25
0.891251	699.872
0.896396	700.49
0.901571	701.103
0.906776	701.711
0.912011	702.315
0.917276	702.914
0.922571	703.508
0.927897	704.098
0.933254	704.682
0.938642	705.262
0.944061	705.837
0.949511	706.407
0.954993	706.973
0.960506	707.533
0.966051	708.089
0.971628	708.64
0.977237	709.187
0.982879	709.728
0.988553	710.265
0.99426	710.797
1	711.323
1.00577	711.846
1.01158	712.364
1.01742	712.877
1.02329	713.385
1.0292	713.888
1.03514	714.387
1.04112	714.882
1.04713	715.372
1.05317	715.856
1.05925	716.333
1.06537	716.806
1.07152	717.275
1.07771	717.739
1.08393	718.199
1.09018	718.654
1.09648	719.105
1.10281	719.552
1.10917	719.994
1.11558	720.433
1.12202	720.866
1.1285	721.296
1.13501	721.721
1.14156	722.141
1.14815	722.556
1.15478	722.968
1.16145	723.374
1.16815	723.776
1.1749	724.173
1.18168	724.566
1.1885	724.954
1.19536	725.336
1.20226	725.715
1.20921	726.088
1.21619	726.457
1.22321	726.821
1.23027	727.181
1.23737	727.535
1.24451	727.885
1.2517	728.231
1.25893	728.571
1.26619	728.907
1.2735	729.238
1.28086	729.564
1.28825	729.886
1.29569	730.203
1.30317	730.515
1.31069	730.823
1.31826	731.126
1.32587	731.424
1.33352	731.718
1.34122	732.007
1.34896	732.292
1.35675	732.567
1.36458	732.838
1.37246	733.103
1.38038	733.365
1.38835	733.621
1.39637	733.873
1.40443	734.121
1.41254	734.364
1.42069	734.603
1.42889	734.837
1.43714	735.067
1.44544	735.292
1.45378	735.512
1.46218	735.728
1.47062	735.939
1.47911	736.146
1.48765	736.348
1.49624	736.546
1.50487	736.738
1.51356	736.926
1.5223	737.11
1.53109	737.29
1.53993	737.465
1.54882	737.635
1.55776	737.8
1.56675	737.962
1.5758	738.119
1.58489	738.272
1.59404	738.42
1.60325	738.564
1.6125	738.703
1.62181	738.839
1.63117	738.971
1.64059	739.098
1.65006	739.221
1.65959	739.332
1.66917	739.439
1.6788	739.541
1.6885	739.64
1.69824	739.734
1.70805	739.824
1.71791	739.91
1.72783	739.992
1.7378	740.07
1.74783	740.143
1.75792	740.212
1.76807	740.277
1.77828	740.337
1.78855	740.393
1.79887	740.445
1.80926	740.493
1.8197	740.537
1.83021	740.576
1.84077	740.611
1.8514	740.641
1.86209	740.666
1.87284	740.687
1.88365	740.703
1.89452	740.715
1.90546	740.722
1.91646	740.724
1.92752	740.722
1.93865	740.715
1.94984	740.703
1.9611	740.686
1.97242	740.664
1.98381	740.638
1.99526	740.606
2.00678	740.57
2.01837	740.528
2.03002	740.482
2.04174	740.431
2.05353	740.375
2.06538	740.314
2.0773	740.248
2.0893	740.177
2.10136	740.101
2.11349	740.02
2.12569	739.934
2.13796	739.843
2.1503	739.747
2.16272	739.646
2.1752	739.54
2.18776	739.429
2.20039	739.313
2.21309	739.193
2.22587	739.068
2.23872	738.938
2.25165	738.803
2.26464	738.663
2.27772	738.518
2.29087	738.368
2.30409	738.213
2.31739	738.052
2.33077	737.887
2.34423	737.716
2.35776	737.541
2.37137	737.36
2.38506	737.174
2.39883	736.982
2.41268	736.785
2.42661	736.583
2.44062	736.376
2.45471	736.164
2.46888	735.946
2.48313	735.723
2.49747	735.495
2.51189	735.262
2.52639	735.023
2.54097	734.779
2.55564	734.53
2.5704	734.275
2.58523	734.015
2.60016	733.75
2.61517	733.48
2.63027	733.205
2.64545	732.924
2.66073	732.638
2.67609	732.347
2.69153	732.051
2.70707	731.75
2.7227	731.443
2.73842	731.132
2.75423	730.816
2.77013	730.495
2.78612	730.169
2.80221	729.838
2.81838	729.501
2.83465	729.159
2.85102	728.812
2.86748	728.461
2.88403	728.103
2.90068	727.741
2.91743	727.373
2.93427	727.001
2.95121	726.623
2.96825	726.24
2.98538	725.851
3.00262	725.457
3.01995	725.058
3.03739	724.654
3.05492	724.244
3.07256	723.829
3.0903	723.409
3.10814	722.983
3.12608	722.552
3.14413	722.116
3.16228	721.674
3.18053	721.227
3.1989	720.774
3.21736	720.316
3.23594	719.853
3.25462	719.384
3.27341	718.91
3.2923	718.43
3.31131	717.946
3.33043	717.456
3.34965	716.961
3.36899	716.461
3.38844	715.955
3.408	715.443
3.42768	714.927
3.44747	714.405
3.46737	713.878
3.48739	713.345
3.50752	712.807
3.52777	712.264
3.54813	711.715
3.56862	711.161
3.58922	710.602
3.60994	710.037
3.63078	709.467
3.65174	708.891
3.67282	708.309
3.69403	707.723
3.71535	707.131
3.7368	706.534
3.75837	705.931
3.78007	705.324
3.80189	704.71
3.82384	704.092
3.84592	703.468
3.86812	702.839
3.89045	702.204
3.91291	701.564
3.9355	700.919
3.95822	700.269
3.98107	699.613
4.00405	698.952
4.02717	698.285
4.05042	697.614
4.0738	696.937
4.09732	696.255
4.12098	695.567
4.14477	694.875
4.16869	694.177
4.19276	693.474
4.21697	692.766
4.24131	692.052
4.2658	691.334
4.29042	690.611
4.31519	689.882
4.3401	689.149
4.36516	688.41
4.39036	687.667
4.4157	686.918
4.4412	686.164
4.46684	685.404
4.49262	684.64
4.51856	683.87
4.54465	683.097
4.57088	682.317
4.59727	681.534
4.62381	680.745
4.6505	679.952
4.67735	679.153
4.70435	678.351
4.73151	677.542
4.75883	676.73
4.7863	675.912
4.81393	675.09
4.84172	674.262
4.86968	673.43
4.89779	672.593
4.92606	671.751
4.9545	670.905
4.9831	670.054
5.01187	669.198
5.04081	668.337
5.06991	667.472
5.09918	666.602
5.12861	665.727
5.15822	664.847
5.188	663.963
5.21795	663.075
5.24807	662.182
5.27837	661.284
5.30884	660.381
5.33949	659.474
5.37032	658.563
5.40132	657.647
5.4325	656.727
5.46387	655.802
5.49541	654.873
5.52713	653.94
5.55904	653.003
5.59114	652.061
5.62341	651.115
5.65588	650.164
5.68853	649.21
5.72137	648.251
5.7544	647.287
5.78762	646.32
5.82103	645.348
5.85464	644.372
5.88844	643.392
5.92243	642.407
5.95662	641.419
5.99101	640.426
6.0256	639.43
6.06038	638.429
6.09537	637.424
6.13056	636.415
6.16595	635.402
6.20155	634.386
6.23735	633.365
6.27336	632.34
6.30957	631.312
6.346	630.279
6.38263	629.244
6.41948	628.204
6.45654	627.161
6.49382	626.114
6.53131	625.062
6.56901	624.008
6.60693	622.95
6.64508	621.889
6.68344	620.824
6.72202	619.755
6.76083	618.683
6.79986	617.608
6.83912	616.529
6.8786	615.447
6.91831	614.362
6.95825	613.272
6.99842	612.18
7.03882	611.084
7.07946	609.985
7.12033	608.883
7.16143	607.777
7.20278	606.669
7.24436	605.557
7.28618	604.442
7.32825	603.323
7.37055	602.202
7.4131	601.078
7.4559	599.951
7.49894	598.821
7.54223	597.688
7.58578	596.552
7.62957	595.413
7.67361	594.271
7.71792	593.127
7.76247	591.98
7.80728	590.83
7.85236	589.678
7.89769	588.523
7.94328	587.365
7.98914	586.205
8.03526	585.042
8.08165	583.877
8.12831	582.709
8.17523	581.539
8.22243	580.366
8.2699	579.191
8.31764	578.013
8.36566	576.833
8.41395	575.651
8.46253	574.466
8.51138	573.28
8.56052	572.09
8.60994	570.899
8.65964	569.706
8.70964	568.51
8.75992	567.313
8.81049	566.114
8.86135	564.912
8.91251	563.709
8.96396	562.503
9.01571	561.296
9.06776	560.086
9.12011	558.875
9.17276	557.662
9.22571	556.446
9.27897	555.23
9.33254	554.011
9.38642	552.79
9.44061	551.568
9.49511	550.344
9.54993	549.119
9.60506	547.891
9.66051	546.663
9.71628	545.432
9.77237	544.2
9.82879	542.966
9.88553	541.731
9.9426	540.494
10	539.256
10.0577	538.016
10.1158	536.774
10.1742	535.532
10.2329	534.288
10.292	533.042
10.3514	531.795
10.4112	530.546
10.4713	529.297
10.5317	528.048
10.5925	526.799
10.6537	525.55
10.7152	524.299
10.7771	523.047
10.8393	521.793
10.9018	520.539
10.9648	519.283
11.0281	518.027
11.0917	516.769
11.1558	515.511
11.2202	514.251
11.285	512.99
11.3501	511.729
11.4156	510.467
11.4815	509.204
11.5478	507.94
11.6145	506.675
11.6815	505.409
11.749	504.143
11.8168	502.876
11.885	501.609
11.9536	500.341
12.0226	499.071
12.0921	497.802
12.1619	496.532
12.2321	495.262
12.3027	493.991
12.3737	492.718
12.4451	491.446
12.517	490.174
12.5893	488.901
12.6619	487.627
12.735	486.353
12.8086	485.078
12.8825	483.803
12.9569	482.528
13.0317	481.252
13.1069	479.977
13.1826	478.7
13.2587	477.424
13.3352	476.147
13.4122	474.869
13.4896	473.592
13.5675	472.319
13.6458	471.046
13.7246	469.772
13.8038	468.499
13.8835	467.225
13.9637	465.951
14.0443	464.677
14.1254	463.402
14.2069	462.127
14.2889	460.852
14.3714	459.577
14.4544	458.302
14.5378	457.027
14.6218	455.753
14.7062	454.478
14.7911	453.204
14.8765	451.93
14.9624	450.656
15.0487	449.382
15.1356	448.109
15.223	446.836
15.3109	445.563
15.3993	444.29
15.4882	443.018
15.5776	441.746
15.6675	440.476
15.758	439.205
15.8489	437.934
15.9404	436.664
16.0325	435.395
16.125	434.126
16.2181	432.858
16.3117	431.59
16.4059	430.323
16.5006	429.056
16.5959	427.795
16.6917	426.535
16.788	425.276
16.885	424.016
16.9824	422.758
17.0805	421.501
17.1791	420.244
17.2783	418.988
17.378	417.732
17.4783	416.478
17.5792	415.224
17.6807	413.971
17.7828	412.719
17.8855	411.467
17.9887	410.217
18.0926	408.966
18.197	407.716
18.3021	406.467
18.4077	405.219
18.514	403.972
18.6209	402.727
18.7284	401.482
18.8365	400.238
18.9452	398.996
19.0546	397.755
19.1646	396.515
19.2752	395.277
19.3865	394.039
19.4984	392.804
19.611	391.569
19.7242	390.336
19.8381	389.104
19.9526	387.874
20.0678	386.645
20.1837	385.417
20.3002	384.192
20.4174	382.967
20.5353	381.744
20.6538	380.523
20.773	379.303
20.893	378.084
21.0136	376.867
21.1349	375.651
21.2569	374.438
21.3796	373.225
21.503	372.014
21.6272	370.805
21.752	369.597
21.8776	368.391
22.0039	367.187
22.1309	365.983
22.2587	364.78
22.3872	363.579
22.5165	362.38
22.6464	361.182
22.7772	359.986
22.9087	358.791
23.0409	357.599
23.1739	356.408
23.3077	355.219
23.4423	354.032
23.5776	352.847
23.7137	351.664
23.8506	350.483
23.9883	349.303
24.1268	348.126
24.2661	346.95
24.4062	345.776
24.5471	344.605
24.6888	343.436
24.8313	342.268
24.9747	341.103
25.1189	339.939
25.2639	338.778
25.4097	337.618
25.5564	336.461
25.704	335.306
25.8523	334.153
26.0016	333.002
26.1517	331.853
26.3027	330.706
26.4545	329.56
26.6073	328.417
26.7609	327.276
26.9153	326.137
27.0707	325
27.227	323.863
27.3842	322.729
27.5423	321.597
27.7013	320.467
27.8612	319.338
28.0221	318.211
28.1838	317.088
28.3465	315.966
28.5102	314.847
28.6748	313.729
28.8403	312.614
29.0068	311.5
29.1743	310.389
29.3427	309.28
29.5121	308.173
29.6825	307.067
29.8538	305.965
30.0262	304.864
30.1995	303.766
30.3739	302.67
30.5492	301.576
30.7256	300.485
30.903	299.396
31.0814	298.309
31.2608	297.225
31.4413	296.143
31.6228	295.063
31.8053	293.986
31.989	292.911
32.1736	291.839
32.3594	290.768
32.5462	289.701
32.7341	288.635
32.923	287.573
33.1131	286.512
33.3043	285.453
33.4965	284.397
33.6899	283.343
33.8844	282.291
34.08	281.242
34.2768	280.196
34.4747	279.151
34.6737	278.109
34.8739	277.07
35.0752	276.033
35.2777	274.998
35.4813	273.965
35.6862	272.935
35.8922	271.907
36.0994	270.883
36.3078	269.862
36.5174	268.843
36.7282	267.827
36.9403	266.813
37.1535	265.802
37.368	264.793
37.5837	263.787
37.8007	262.784
38.0189	261.782
38.2384	260.784
38.4592	259.788
38.6812	258.794
38.9045	257.804
39.1291	256.816
39.355	255.83
39.5822	254.847
39.8107	253.867
40.0405	252.889
40.2717	251.914
40.5042	250.942
40.738	249.972
40.9732	249.004
41.2098	248.04
41.4477	247.078
41.6869	246.118
41.9276	245.161
42.1697	244.207
42.4131	243.255
42.658	242.305
42.9042	241.358
43.1519	240.413
43.401	239.471
43.6516	238.531
43.9036	237.594
44.157	236.661
44.412	235.731
44.6684	234.803
44.9262	233.878
45.1856	232.955
45.4465	232.035
45.7088	231.116
45.9727	230.201
46.2381	229.288
46.505	228.376
46.7735	227.468
47.0435	226.563
47.3151	225.66
47.5883	224.76
47.863	223.862
48.1393	222.967
48.4172	222.075
48.6968	221.185
48.9779	220.298
49.2606	219.413
49.545	218.532
49.831	217.653
50.1187	216.776
50.4081	215.903
50.6991	215.032
50.9918	214.164
51.2861	213.299
51.5822	212.436
51.88	211.576
52.1795	210.718
52.4807	209.864
52.7837	209.012
53.0884	208.163
53.3949	207.316
53.7032	206.473
54.0132	205.632
54.325	204.793
54.6387	203.957
54.9541	203.124
55.2713	202.293
55.5904	201.464
55.9114	200.638
56.2341	199.814
56.5588	198.993
56.8853	198.175
57.2137	197.36
57.544	196.547
57.8762	195.737
58.2103	194.93
58.5464	194.125
58.8844	193.324
59.2243	192.525
59.5662	191.728
59.9101	190.934
60.256	190.143
60.6038	189.355
60.9537	188.57
61.3056	187.787
61.6595	187.008
62.0155	186.23
62.3735	185.456
62.7336	184.684
63.0957	183.914
63.46	183.148
63.8263	182.384
64.1948	181.623
64.5654	180.864
64.9382	180.108
65.3131	179.354
65.6901	178.603
66.0693	177.855
66.4508	177.108
66.8344	176.365
67.2202	175.624
67.6083	174.885
67.9986	174.149
68.3912	173.416
68.786	172.685
69.1831	171.956
69.5825	171.23
69.9842	170.506
70.3882	169.785
70.7946	169.066
71.2033	168.35
71.6143	167.636
72.0278	166.925
72.4436	166.216
72.8618	165.51
73.2825	164.805
73.7055	164.104
74.131	163.405
74.559	162.708
74.9894	162.015
75.4223	161.323
75.8578	160.634
76.2957	159.948
76.7361	159.264
77.1792	158.583
77.6247	157.904
78.0728	157.227
78.5236	156.553
78.9769	155.882
79.4328	155.214
79.8914	154.547
80.3526	153.884
80.8165	153.222
81.2831	152.564
81.7523	151.908
82.2243	151.254
82.699	150.603
83.1764	149.955
83.6566	149.309
84.1395	148.665
84.6253	148.024
85.1138	147.386
85.6052	146.75
86.0994	146.116
86.5964	145.485
87.0964	144.857
87.5992	144.23
88.1049	143.607
88.6135	142.984
89.1251	142.365
89.6396	141.748
90.1571	141.133
90.6776	140.521
91.2011	139.91
91.7276	139.302
92.2571	138.696
92.7897	138.092
93.3254	137.491
93.8642	136.892
94.4061	136.296
94.9511	135.701
95.4993	135.11
96.0506	134.52
96.6051	133.933
97.1628	133.348
97.7237	132.765
98.2879	132.185
98.8553	131.607
99.426	131.031
100	130.457
100.577	129.886
101.158	129.317
101.742	128.75
102.329	128.186
102.92	127.623
103.514	127.063
104.112	126.505
104.713	125.949
105.317	125.396
105.925	124.847
106.537	124.3
107.152	123.754
107.771	123.211
108.393	122.669
109.018	122.13
109.648	121.593
110.281	121.057
110.917	120.523
111.558	119.991
112.202	119.462
112.85	118.933
113.501	118.408
114.156	117.884
114.815	117.362
115.478	116.842
116.145	116.325
116.815	115.809
117.49	115.296
118.168	114.784
118.85	114.275
119.536	113.768
120.226	113.263
120.921	112.76
121.619	112.259
122.321	111.761
123.027	111.264
123.737	110.77
124.451	110.277
125.17	109.787
125.893	109.299
126.619	108.813
127.35	108.329
128.086	107.847
128.825	107.367
129.569	106.889
130.317	106.413
131.069	105.94
131.826	105.468
132.587	104.998
133.352	104.53
134.122	104.064
134.896	103.6
135.675	103.141
136.458	102.684
137.246	102.229
138.038	101.776
138.835	101.325
139.637	100.876
140.443	100.429
141.254	99.9829
142.069	99.5391
142.889	99.0973
143.714	98.6568
144.544	98.2188
145.378	97.7821
146.218	97.3475
147.062	96.9147
147.911	96.4839
148.765	96.0545
149.624	95.6272
150.487	95.2017
151.356	94.778
152.23	94.3561
153.109	93.9356
153.993	93.5172
154.882	93.1002
155.776	92.6851
156.675	92.2714
157.58	91.8596
158.489	91.4492
159.404	91.0402
160.325	90.6331
161.25	90.2271
162.181	89.8226
163.117	89.4196
164.059	89.0181
165.006	88.6177
165.959	88.2248
166.917	87.833
167.88	87.4424
168.85	87.0532
169.824	86.6655
170.805	86.279
171.791	85.8939
172.783	85.5102
173.78	85.1277
174.783	84.7466
175.792	84.3666
176.807	83.9884
177.828	83.6113
178.855	83.2356
179.887	82.8613
180.926	82.488
181.97	82.116
183.021	81.7454
184.077	81.3763
185.14	81.0087
186.209	80.6425
187.284	80.2778
188.365	79.9146
189.452	79.5528
190.546	79.1928
191.646	78.8343
192.752	78.4772
193.865	78.1216
194.984	77.7675
196.11	77.4151
197.242	77.0642
198.381	76.7151
199.526	76.3675
200.678	76.0213
201.837	75.6768
203.002	75.3339
204.174	74.9923
205.353	74.6525
206.538	74.3144
207.73	73.9778
208.93	73.6429
210.136	73.3093
211.349	72.9771
212.569	72.6469
213.796	72.3177
215.03	71.9905
216.272	71.6647
217.52	71.3402
218.776	71.0174
220.039	70.6962
221.309	70.3753
222.587	70.0561
223.872	69.7385
225.165	69.4221
226.464	69.1072
227.772	68.7937
229.087	68.4816
230.409	68.1713
231.739	67.8621
233.077	67.5546
234.423	67.2483
235.776	66.9439
237.137	66.6408
238.506	66.339
239.883	66.0388
241.268	65.7402
242.661	65.4429
244.062	65.1471
245.471	64.8531
246.888	64.5602
248.313	64.2686
249.747	63.9787
251.189	63.6903
252.639	63.4032
254.097	63.1174
255.564	62.8331
257.04	62.5501
258.523	62.2688
260.016	61.9886
261.517	61.7097
263.027	61.432
264.545	61.1556
266.073	60.8807
267.609	60.6067
269.153	60.3342
270.707	60.0625
272.27	59.7922
273.842	59.5229
275.423	59.2547
277.013	58.9874
278.612	58.7213
280.221	58.4563
281.838	58.1926
283.465	57.9299
285.102	57.6685
286.748	57.4081
288.403	57.1488
290.068	56.8907
291.743	56.6336
293.427	56.3777
295.121	56.1229
296.825	55.8693
298.538	55.6168
300.262	55.3654
301.995	55.1152
303.739	54.8661
305.492	54.6181
307.256	54.3713
309.03	54.1257
310.814	53.8812
312.608	53.6378
314.413	53.3956
316.228	53.1545
318.053	52.9145
319.89	52.6757
321.736	52.438
323.594	52.2014
325.462	51.9658
327.341	51.7314
329.23	51.4981
331.131	51.2657
333.043	51.0343
334.965	50.8039
336.899	50.5745
338.844	50.3463
340.8	50.1191
342.768	49.8929
344.747	49.6678
346.737	49.4438
348.739	49.2207
350.752	48.9988
352.777	48.7777
354.813	48.5577
356.862	48.3387
358.922	48.1207
360.994	47.9039
363.078	47.6885
365.174	47.474
367.282	47.2605
369.403	47.0481
371.535	46.8366
373.68	46.6261
375.837	46.4166
378.007	46.2082
380.189	46.0007
382.384	45.7943
384.592	45.5888
386.812	45.3844
389.045	45.1809
391.291	44.9784
393.55	44.7769
395.822	44.5764
398.107	44.377
400.405	44.1784
402.717	43.9808
405.042	43.7842
407.38	43.5885
409.732	43.3938
412.098	43.2
414.477	43.0071
416.869	42.8151
419.276	42.624
421.697	42.4338
424.131	42.2444
426.58	42.056
429.042	41.8683
431.519	41.6815
434.01	41.4954
436.516	41.3102
439.036	41.1257
441.57	40.9425
444.12	40.7604
446.684	40.5791
449.262	40.3985
451.856	40.2186
454.465	40.0394
457.088	39.8611
459.727	39.6834
462.381	39.5065
465.05	39.3305
467.735	39.1552
470.435	38.9807
473.151	38.807
475.883	38.6341
478.63	38.462
481.393	38.2907
484.172	38.1202
486.968	37.9505
489.779	37.7815
492.606	37.6134
495.45	37.4461
498.31	37.2795
501.187	37.1138
504.081	36.9489
506.991	36.7848
509.918	36.6214
512.861	36.4589
515.822	36.2971
518.8	36.1361
521.795	35.9759
524.807	35.8165
527.837	35.6579
530.884	35.5
533.949	35.3429
537.032	35.1865
540.132	35.0309
543.25	34.876
546.387	34.7218
549.541	34.5684
552.713	34.4156
555.904	34.2634
559.114	34.1119
562.341	33.9612
565.588	33.8112
568.853	33.662
572.137	33.5134
575.44	33.3657
578.762	33.2186
582.103	33.0723
585.464	32.9266
588.844	32.7818
592.243	32.6376
595.662	32.4942
599.101	32.3515
602.56	32.2096
606.038	32.0683
609.537	31.9278
613.056	31.7879
616.595	31.6488
620.155	31.5104
623.735	31.3727
627.336	31.2356
630.957	31.0992
634.6	30.9635
638.263	30.8284
641.948	30.6941
645.654	30.5603
649.382	30.4272
653.131	30.2948
656.901	30.1629
660.693	30.0317
664.508	29.901
668.344	29.771
672.202	29.6416
676.083	29.5128
679.986	29.3846
683.912	29.2569
687.86	29.1299
691.831	29.0035
695.825	28.8777
699.842	28.7525
703.882	28.6278
707.946	28.5037
712.033	28.3802
716.143	28.2573
720.278	28.135
724.436	28.0132
728.618	27.8921
732.825	27.7714
737.055	27.6514
741.31	27.532
745.59	27.4132
749.894	27.2949
754.223	27.1772
758.578	27.0601
762.957	26.9436
767.361	26.8276
771.792	26.7122
776.247	26.5974
780.728	26.4831
785.236	26.3694
789.769	26.2563
794.328	26.1437
798.914	26.0317
803.526	25.9202
808.165	25.8094
812.831	25.6991
817.523	25.5893
822.243	25.4801
826.99	25.3715
831.764	25.2634
836.566	25.1559
841.395	25.0489
846.253	24.9424
851.138	24.8365
856.052	24.7311
860.994	24.6263
865.964	24.522
870.964	24.4182
875.992	24.3149
881.049	24.2121
886.135	24.1098
891.251	24.008
896.396	23.9066
901.571	23.8058
906.776	23.7054
912.011	23.6054
917.276	23.506
922.571	23.407
927.897	23.3085
933.254	23.2105
938.642	23.113
944.061	23.016
949.511	22.9194
954.993	22.8234
960.506	22.7278
966.051	22.6327
971.628	22.5381
977.237	22.4439
982.879	22.3503
988.553	22.2571
994.26	22.1643
1000	22.0721
1005.77	21.9799
1011.58	21.8875
1017.42	21.7957
1023.29	21.7043
1029.2	21.6133
1035.14	21.5228
1041.12	21.4327
1047.13	21.3431
1053.17	21.2541
1059.25	21.1657
1065.37	21.0778
1071.52	20.9902
1077.71	20.9031
1083.93	20.8164
1090.18	20.7301
1096.48	20.6442
1102.81	20.5587
1109.17	20.4735
1115.58	20.3887
1122.02	20.3043
1128.5	20.2203
1135.01	20.1367
1141.56	20.0535
1148.15	19.9707
1154.78	19.8883
1161.45	19.8064
1168.15	19.7248
1174.9	19.6437
1181.68	19.563
1188.5	19.4827
1195.36	19.4028
1202.26	19.3234
1209.21	19.2443
1216.19	19.1657
1223.21	19.0874
1230.27	19.0097
1237.37	18.9323
1244.51	18.8553
1251.7	18.7787
1258.93	18.7026
1266.19	18.6268
1273.5	18.5515
1280.86	18.4766
1288.25	18.402
1295.69	18.3263
1303.17	18.2508
1310.69	18.1756
1318.26	18.101
1325.87	18.0267
1333.52	17.9527
1341.22	17.8792
1348.96	17.8061
1356.75	17.7339
1364.58	17.6621
1372.46	17.5908
1380.38	17.5198
1388.35	17.4492
1396.37	17.379
1404.43	17.3091
1412.54	17.2396
1420.69	17.1704
1428.89	17.1016
1437.14	17.0331
1445.44	16.9651
1453.78	16.8973
1462.18	16.83
1470.62	16.7631
1479.11	16.6964
1487.65	16.6302
1496.24	16.5643
1504.87	16.4987
1513.56	16.4335
1522.3	16.3686
1531.09	16.3041
1539.93	16.2398
1548.82	16.176
1557.76	16.1124
1566.75	16.0491
1575.8	15.9858
1584.89	15.9204
1594.04	15.8554
1603.25	15.7907
1612.5	15.7262
1621.81	15.662
1631.17	15.5982
1640.59	15.5346
1650.06	15.4713
1659.59	15.4094
1669.17	15.3477
1678.8	15.2862
1688.5	15.2251
1698.24	15.1642
1708.05	15.1035
1717.91	15.0432
1727.83	14.9831
1737.8	14.9233
1747.83	14.8637
1757.92	14.8045
1768.07	14.7455
1778.28	14.6868
1788.55	14.6284
1798.87	14.5702
1809.26	14.5122
1819.7	14.4545
1830.21	14.3971
1840.77	14.34
1851.4	14.2831
1862.09	14.2266
1872.84	14.1704
1883.65	14.1144
1894.52	14.0587
1905.46	14.0034
1916.46	13.9483
1927.52	13.8935
1938.65	13.839
1949.84	13.7848
1961.1	13.731
1972.42	13.6774
1983.81	13.6241
1995.26	13.5711
2006.78	13.5185
2018.37	13.4661
2030.02	13.414
2041.74	13.3623
2053.53	13.3108
2065.38	13.2596
2077.3	13.2088
2089.3	13.1582
2101.36	13.1079
2113.49	13.058
2125.69	13.0083
2137.96	12.9589
2150.3	12.9097
2162.72	12.8609
2175.2	12.8124
2187.76	12.7642
2200.39	12.7163
2213.09	12.6685
2225.87	12.6209
2238.72	12.5736
2251.65	12.5267
2264.64	12.48
2277.72	12.4336
2290.87	12.3874
2304.09	12.3415
2317.39	12.2959
2330.77	12.2506
2344.23	12.2055
2357.76	12.1608
2371.37	12.1163
2385.06	12.0721
2398.83	12.0281
2412.68	11.9844
2426.61	11.9411
2440.62	11.8979
2454.71	11.8551
2468.88	11.8125
2483.13	11.7701
2497.47	11.7281
2511.89	11.6863
2526.39	11.6448
2540.97	11.6035
2555.64	11.5625
2570.4	11.5217
2585.23	11.4812
2600.16	11.4409
2615.17	11.4009
2630.27	11.3611
2645.45	11.3215
2660.73	11.2822
2676.09	11.2431
2691.53	11.2042
2707.07	11.1655
2722.7	11.1271
2738.42	11.0887
2754.23	11.0506
2770.13	11.0127
2786.12	10.975
2802.21	10.9375
2818.38	10.9002
2834.65	10.8631
2851.02	10.8263
2867.48	10.7896
2884.03	10.7531
2900.68	10.7168
2917.43	10.6807
2934.27	10.6449
2951.21	10.6092
2968.25	10.5737
2985.38	10.5384
3002.62	10.5034
3019.95	10.4685
3037.39	10.4338
3054.92	10.3993
3072.56	10.365
3090.3	10.331
3108.14	10.2971
3126.08	10.2634
3144.13	10.23
3162.28	10.1967
3180.53	10.1636
3198.9	10.1308
3217.36	10.0981
3235.94	10.0656
3254.62	10.0333
3273.41	10.0012
3292.3	9.96931
3311.31	9.93757
3330.43	9.90601
3349.65	9.87464
3368.99	9.84342
3388.44	9.81241
3408	9.78159
3427.68	9.75094
3447.47	9.72051
3467.37	9.69022
3487.39	9.66011
3507.52	9.6302
3527.77	9.60046
3548.13	9.57089
3568.62	9.54149
3589.22	9.51225
3609.94	9.48326
3630.78	9.45444
3651.74	9.42582
3672.82	9.39737
3694.03	9.36912
3715.35	9.341
3736.8	9.31308
3758.37	9.28533
3780.07	9.25772
3801.89	9.23034
3823.84	9.20309
3845.92	9.17601
3868.12	9.1491
3890.45	9.12239
3912.91	9.09582
3935.5	9.06945
3958.22	9.04321
3981.07	9.01717
4004.05	8.99127
4027.17	8.96554
4050.42	8.93998
4073.8	8.91458
4097.32	8.88935
4120.98	8.86426
4144.77	8.83936
4168.69	8.81457
4192.76	8.78994
4216.97	8.76547
4241.31	8.74114
4265.8	8.71697
4290.42	8.69293
4315.19	8.66903
4340.1	8.64526
4365.16	8.62165
4390.36	8.59815
4415.7	8.57487
4441.2	8.55176
4466.84	8.52878
4492.62	8.50592
4518.56	8.48319
4544.65	8.46055
4570.88	8.43807
4597.27	8.41572
4623.81	8.3935
4650.5	8.37142
4677.35	8.34946
4704.35	8.32763
4731.51	8.30593
4758.83	8.28436
4786.3	8.26292
4813.93	8.24164
4841.72	8.22046
4869.68	8.19944
4897.79	8.17852
4926.06	8.15775
4954.5	8.13711
4983.1	8.1166
5011.87	8.09626
5040.81	8.076
5069.91	8.0559
5099.18	8.03593
5128.61	8.01608
5158.22	7.99636
5188	7.97676
5217.95	7.95728
5248.07	7.93796
5278.37	7.91876
5308.84	7.89969
5339.49	7.88073
5370.32	7.86189
5401.32	7.84317
5432.5	7.8246
5463.87	7.80612
5495.41	7.78778
5527.13	7.76953
5559.04	7.75139
5591.14	7.73338
5623.41	7.71547
5655.88	7.69769
5688.53	7.68002
5721.37	7.6625
5754.4	7.64507
5787.62	7.62778
5821.03	7.61058
5854.64	7.59353
5888.44	7.57656
5922.43	7.55974
5956.62	7.54304
5991.01	7.52645
6025.6	7.50994
6060.38	7.49359
6095.37	7.47735
6130.56	7.46122
6165.95	7.44517
6201.55	7.42927
6237.35	7.41349
6273.36	7.39778
6309.57	7.38218
6346	7.36673
6382.63	7.35136
6419.48	7.3361
6456.54	7.32092
6493.82	7.30585
6531.31	7.29089
6569.01	7.27603
6606.93	7.26126
6645.08	7.24659
6683.44	7.23204
6722.02	7.21756
6760.83	7.20315
6799.86	7.18885
6839.12	7.17466
6878.6	7.16057
6918.31	7.14656
6958.25	7.13261
6998.42	7.1188
7038.82	7.10502
7079.46	7.0913
7120.33	7.0777
7161.43	7.06421
7202.78	7.05078
7244.36	7.03747
7286.18	7.02427
7328.25	7.01113
7370.55	6.99811
7413.1	6.98515
7455.9	6.97231
7498.94	6.95954
7542.23	6.94687
7585.78	6.93431
7629.57	6.92182
7673.61	6.90945
7717.92	6.89714
7762.47	6.8849
7807.28	6.87277
7852.36	6.86074
7897.69	6.84879
7943.28	6.8369
7989.14	6.82512
8035.26	6.81341
8081.65	6.8018
8128.31	6.7903
8175.23	6.77886
8222.43	6.76749
8269.9	6.75622
8317.64	6.74502
8365.66	6.73389
8413.95	6.72289
8462.53	6.71192
8511.38	6.70105
8560.52	6.69025
8609.94	6.67953
8659.64	6.66889
8709.64	6.6583
8759.92	6.64781
8810.49	6.63738
8861.35	6.62704
8912.51	6.61673
8963.96	6.6065
9015.71	6.59631
9067.76	6.58614
9120.11	6.57605
9172.76	6.56602
9225.71	6.55606
9278.97	6.54619
9332.54	6.5364
9386.42	6.52667
9440.61	6.51704
9495.11	6.50744
9549.93	6.49794
9605.06	6.48851
9660.51	6.47918
9716.28	6.46987
9772.37	6.46067
9828.79	6.45153
9885.53	6.44246
9942.6	6.43346
10000	6.42452
10057.7	6.41566
10115.8	6.40686
10174.2	6.39812
10232.9	6.38945
10292	6.38084
10351.4	6.3723
10411.2	6.36382
10471.3	6.35539
10531.7	6.34703
10592.5	6.33872
10653.7	6.33048
10715.2	6.32228
10777.1	6.31414
10839.3	6.30606
10901.8	6.29802
10964.8	6.29003
11028.1	6.28202
11091.7	6.274
11155.8	6.26603
11220.2	6.25814
11285	6.2503
11350.1	6.24253
11415.6	6.23483
11481.5	6.22718
11547.8	6.2196
11614.5	6.21208
11681.5	6.20462
11749	6.19723
11816.8	6.18989
11885	6.18261
11953.6	6.1754
12022.6	6.16825
12092.1	6.16115
12161.9	6.15411
12232.1	6.14714
12302.7	6.14022
12373.7	6.13336
12445.1	6.12656
12517	6.11982
12589.3	6.11313
12661.9	6.1065
12735	6.09993
12808.6	6.09341
12882.5	6.08695
12956.9	6.08055
13031.7	6.0742
13106.9	6.0679
13182.6	6.06166
13258.7	6.05548
13335.2	6.04935
13412.2	6.04327
13489.6	6.03725
13567.5	6.03127
13645.8	6.02536
13724.6	6.01949
13803.8	6.01367
13883.5	6.00791
13963.7	6.0022
14044.3	5.99655
14125.4	5.99094
14206.9	5.98538
14288.9	5.97988
14371.4	5.97442
14454.4	5.96902
14537.8	5.96366
14621.8	5.95835
14706.2	5.95309
14791.1	5.94788
14876.5	5.94272
14962.4	5.93761
15048.7	5.93254
15135.6	5.92752
15223	5.92255
15310.9	5.91763
15399.3	5.91275
15488.2	5.90792
15577.6	5.90313
15667.5	5.8984
15758	5.8937
15848.9	5.88905
15940.4	5.88445
16032.5	5.87989
16125	5.87537
16218.1	5.8709
16311.7	5.86648
16405.9	5.86209
16500.6	5.85775
16595.9	5.85346
16691.7	5.8492
16788	5.84499
16885	5.84082
16982.4	5.8367
17080.5	5.83261
17179.1	5.82857
17278.3	5.82457
17378	5.8206
17478.3	5.81668
17579.2	5.81281
17680.7	5.80896
17782.8	5.80516
17885.5	5.8014
17988.7	5.79768
18092.6	5.794
18197	5.79036
18302.1	5.78675
18407.7	5.78319
18514	5.77966
18620.9	5.77617
18728.4	5.77272
18836.5	5.7693
18945.2	5.76593
19054.6	5.76259
19164.6	5.75928
19275.2	5.75602
19386.5	5.75279
19498.4	5.74959
19611	5.74644
19724.2	5.74331
19838.1	5.74022
19952.6	5.73717
20067.8	5.73415
20183.7	5.73117
20300.2	5.72822
20417.4	5.72531
20535.3	5.72243
20653.8	5.71958
20773	5.71677
20893	5.71398
21013.6	5.71124
21134.9	5.70852
21256.9	5.70584
21379.6	5.70319
21503	5.70058
21627.2	5.69799
21752	5.69544
21877.6	5.69292
22003.9	5.69043
22130.9	5.68797
22258.7	5.68554
22387.2	5.68314
22516.5	5.68077
22646.4	5.67844
22777.2	5.67613
22908.7	5.67385
23040.9	5.67161
23173.9	5.66939
23307.7	5.6672
23442.3	5.66504
23577.6	5.66291
23713.7	5.66081
23850.6	5.65874
23988.3	5.65669
24126.8	5.65467
24266.1	5.65268
24406.2	5.65072
24547.1	5.64878
24688.8	5.64688
24831.3	5.645
24974.7	5.64314
25118.9	5.64131
25263.9	5.63951
25409.7	5.63774
25556.4	5.63599
25704	5.63427
25852.3	5.63257
26001.6	5.6309
26151.7	5.62925
26302.7	5.62763
26454.5	5.62603
26607.3	5.62447
26760.9	5.62292
26915.3	5.6214
27070.7	5.6199
27227	5.61842
27384.2	5.61698
27542.3	5.61555
27701.3	5.61414
27861.2	5.61277
28022.1	5.61141
28183.8	5.61008
28346.5	5.60876
28510.2	5.60747
28674.8	5.60621
28840.3	5.60496
29006.8	5.60375
29174.3	5.60255
29342.7	5.60137
29512.1	5.60021
29682.5	5.59908
29853.8	5.59796
30026.2	5.59687
30199.5	5.5958
30373.9	5.59475
30549.2	5.59372
30725.6	5.59271
30903	5.59172
31081.4	5.59075
31260.8	5.5898
31441.3	5.58887
31622.8	5.58796
31805.3	5.58707
31989	5.5862
32173.6	5.58534
32359.4	5.58451
32546.2	5.5837
32734.1	5.5829
32923	5.58212
33113.1	5.58137
33304.3	5.58062
33496.5	5.5799
33689.9	5.5792
33884.4	5.57851
34080	5.57784
34276.8	5.57719
34474.7	5.57655
34673.7	5.57594
34873.9	5.57534
35075.2	5.57475
35277.7	5.57419
35481.3	5.57363
35686.2	5.5731
35892.2	5.57259
36099.4	5.57208
36307.8	5.5716
36517.4	5.57113
36728.2	5.57068
36940.3	5.57024
37153.5	5.56982
37368	5.56941
37583.7	5.56902
37800.7	5.56864
38018.9	5.56828
38238.4	5.56793
38459.2	5.5676
38681.2	5.56728
38904.5	5.56698
39129.1	5.56669
39355	5.56642
39582.2	5.56616
39810.7	5.56591
40040.5	5.56568
40271.7	5.56546
40504.2	5.56525
40738	5.56506
40973.2	5.56488
41209.8	5.56471
41447.7	5.56456
41686.9	5.56442
41927.6	5.56429
42169.7	5.56418
42413.1	5.56408
42658	5.56399
42904.2	5.56391
43151.9	5.56384
43401	5.56379
43651.6	5.56375
43903.6	5.56372
44157	5.5637
44412	5.5637
44668.4	5.56371
44926.2	5.56372
45185.6	5.56375
45446.5	5.56379
45708.8	5.56384
45972.7	5.5639
46238.1	5.56398
46505	5.56406
46773.5	5.56415
47043.5	5.56425
47315.1	5.56437
47588.3	5.56449
47863	5.56463
48139.3	5.56477
48417.2	5.56493
48696.8	5.56509
48977.9	5.56527
49260.6	5.56545
49545	5.56564
49831	5.56585
50118.7	5.56606
50408.1	5.56628
50699.1	5.56652
50991.8	5.56676
51286.1	5.56701
51582.2	5.56726
51880	5.56753
52179.5	5.56781
52480.7	5.56809
52783.7	5.56838
53088.4	5.56868
53394.9	5.56899
53703.2	5.56931
54013.2	5.56964
54325	5.56997
54638.7	5.57031
54954.1	5.57066
55271.3	5.57101
55590.4	5.57138
55911.4	5.57175
56234.1	5.57213
56558.8	5.57252
56885.3	5.57292
57213.7	5.57332
57544	5.57373
57876.2	5.57414
58210.3	5.57456
58546.4	5.575
58884.4	5.57543
59224.3	5.57588
59566.2	5.57633
59910.1	5.57678
60256	5.57725
60603.8	5.57771
60953.7	5.57819
61305.6	5.57867
61659.5	5.57916
62015.5	5.57965
62373.5	5.58015
62733.6	5.58066
63095.7	5.58117
63460	5.58169
63826.3	5.58221
64194.8	5.58274
64565.4	5.58328
64938.2	5.58382
65313.1	5.58437
65690.1	5.58492
66069.3	5.58547
66450.8	5.58603
66834.4	5.5866
67220.2	5.58717
67608.3	5.58775
67998.6	5.58833
68391.2	5.58892
68786	5.58951
69183.1	5.5901
69582.5	5.5907
69984.2	5.59131
70388.2	5.59192
70794.6	5.59253
71203.3	5.59315
71614.3	5.59377
72027.8	5.5944
72443.6	5.59503
72861.8	5.59566
73282.5	5.5963
73705.5	5.59694
74131	5.59759
74559	5.59824
74989.4	5.5989
75422.3	5.59955
75857.8	5.60022
76295.7	5.60088
76736.1	5.60155
77179.2	5.60222
77624.7	5.6029
78072.8	5.60358
78523.6	5.60427
78976.9	5.60495
79432.8	5.60564
79891.4	5.60633
80352.6	5.60702
80816.5	5.60772
81283.1	5.60843
81752.3	5.60913
82224.3	5.60984
82699	5.61055
83176.4	5.61126
83656.6	5.61198
84139.5	5.61269
84625.3	5.61342
85113.8	5.61414
85605.2	5.61487
86099.4	5.61559
86596.4	5.61633
87096.4	5.61706
87599.2	5.6178
88104.9	5.61853
88613.5	5.61927
89125.1	5.62002
89639.6	5.62076
90157.1	5.6215
90677.6	5.62225
91201.1	5.623
91727.6	5.62376
92257.1	5.62451
92789.7	5.62526
93325.4	5.62602
93864.2	5.62678
94406.1	5.62754
94951.1	5.62831
95499.3	5.62907
96050.6	5.62984
96605.1	5.63061
97162.8	5.63138
97723.7	5.63215
98287.9	5.63292
98855.3	5.63369
99426	5.63447
100000	5.63524
100577	5.63602
101158	5.6368
101742	5.63758
102329	5.63836
102920	5.63914
103514	5.63993
104112	5.64071
104713	5.64149
105317	5.64228
105925	5.64307
106537	5.64385
107152	5.64464
107771	5.64543
108393	5.64622
109018	5.64702
109648	5.64781
110281	5.6486
110917	5.64939
111558	5.65018
112202	5.65098
112850	5.65177
113501	5.65257
114156	5.65336
114815	5.65416
115478	5.65496
116145	5.65575
116815	5.65655
117490	5.65735
118168	5.65814
118850	5.65894
119536	5.65974
120226	5.66054
120921	5.66134
121619	5.66213
122321	5.66293
123027	5.66373
123737	5.66453
124451	5.66533
125170	5.66613
125893	5.66693
126619	5.66773
127350	5.66852
128086	5.66932
128825	5.67012
129569	5.67092
130317	5.67171
131069	5.67251
131826	5.67331
132587	5.67411
133352	5.6749
134122	5.6757
134896	5.6765
135675	5.67729
136458	5.67809
137246	5.67888
138038	5.67968
138835	5.68047
139637	5.68126
140443	5.68205
141254	5.68285
142069	5.68364
142889	5.68443
143714	5.68522
144544	5.68601
145378	5.6868
146218	5.68759
147062	5.68837
147911	5.68916
148765	5.68995
149624	5.69073
150487	5.69152
151356	5.6923
152230	5.69309
153109	5.69387
153993	5.69465
154882	5.69543
155776	5.69621
156675	5.69699
157580	5.69777
158489	5.69854
159404	5.69932
160325	5.7001
161250	5.70087
162181	5.70164
163117	5.70242
164059	5.70318
165006	5.70395
165959	5.70472
166917	5.70549
167880	5.70625
168850	5.70702
169824	5.70779
170805	5.70855
171791	5.70931
172783	5.71007
173780	5.71083
174783	5.71159
175792	5.71235
176807	5.7131
177828	5.71386
178855	5.71461
179887	5.71536
180926	5.71611
181970	5.71686
183021	5.71761
184077	5.71836
185140	5.7191
186209	5.71985
187284	5.72059
188365	5.72133
189452	5.72207
190546	5.72281
191646	5.72354
192752	5.72428
193865	5.72501
194984	5.72575
196110	5.72648
197242	5.72721
198381	5.72793
199526	5.72866
200678	5.72938
201837	5.73011
203002	5.73083
204174	5.73155
205353	5.73227
206538	5.73299
207730	5.7337
208930	5.73442
210136	5.73513
211349	5.73584
212569	5.73655
213796	5.73726
215030	5.73796
216272	5.73867
217520	5.73937
218776	5.74007
220039	5.74077
221309	5.74147
222587	5.74217
223872	5.74286
225165	5.74355
226464	5.74424
227772	5.74493
229087	5.74562
230409	5.7463
231739	5.74699
233077	5.74767
234423	5.74835
235776	5.74903
237137	5.7497
238506	5.75038
239883	5.75105
241268	5.75173
242661	5.7524
244062	5.75307
245471	5.75373
246888	5.75439
248313	5.75506
249747	5.75572
251189	5.75638
252639	5.75703
254097	5.75769
255564	5.75835
257040	5.759
258523	5.75965
260016	5.76029
261517	5.76094
263027	5.76158
264545	5.76223
266073	5.76287
267609	5.7635
269153	5.76414
270707	5.76477
272270	5.76541
273842	5.76604
275423	5.76667
277013	5.7673
278612	5.76792
280221	5.76855
281838	5.76917
283465	5.76979
285102	5.7704
286748	5.77102
288403	5.77163
290068	5.77225
291743	5.77286
293427	5.77346
295121	5.77407
296825	5.77467
298538	5.77527
300262	5.77588
301995	5.77647
303739	5.77707
305492	5.77766
307256	5.77825
309030	5.77884
310814	5.77943
312608	5.78002
314413	5.7806
316228	5.78119
318053	5.78177
319890	5.78235
321736	5.78292
323594	5.7835
325462	5.78407
327341	5.78464
329230	5.78521
331131	5.78578
333043	5.78634
334965	5.78691
336899	5.78746
338844	5.78802
340800	5.78858
342768	5.78913
344747	5.78969
346737	5.79024
348739	5.79079
350752	5.79133
352777	5.79188
354813	5.79242
356862	5.79296
358922	5.7935
360994	5.79404
363078	5.79457
365174	5.7951
367282	5.79564
369403	5.79616
371535	5.79669
373680	5.79722
375837	5.79774
378007	5.79826
380189	5.79878
382384	5.7993
384592	5.79981
386812	5.80033
389045	5.80084
391291	5.80135
393550	5.80185
395822	5.80236
398107	5.80286
400405	5.80336
402717	5.80386
405042	5.80436
407380	5.80485
409732	5.80535
412098	5.80584
414477	5.80632
416869	5.80681
419276	5.8073
421697	5.80778
424131	5.80826
426580	5.80874
429042	5.80922
431519	5.80969
434010	5.81017
436516	5.81064
439036	5.81111
441570	5.81157
444120	5.81204
446684	5.81251
449262	5.81296
451856	5.81342
454465	5.81388
457088	5.81434
459727	5.81479
462381	5.81524
465050	5.8157
467735	5.81614
470435	5.81659
473151	5.81703
475883	5.81747
478630	5.81791
481393	5.81835
484172	5.81879
486968	5.81922
489779	5.81966
492606	5.82008
495450	5.82051
498310	5.82094
501187	5.82136
504081	5.82179
506991	5.82221
509918	5.82263
512861	5.82304
515822	5.82346
518800	5.82387
521795	5.82428
524807	5.82469
527837	5.8251
530884	5.82551
533949	5.82591
537032	5.82631
540132	5.82671
543250	5.82711
546387	5.8275
549541	5.8279
552713	5.82829
555904	5.82868
559114	5.82907
562341	5.82946
565588	5.82984
568853	5.83023
572137	5.83061
575440	5.83099
578762	5.83136
582103	5.83174
585464	5.83212
588844	5.83248
592243	5.83286
595662	5.83323
599101	5.83359
602560	5.83395
606038	5.83432
609537	5.83468
613056	5.83504
616595	5.8354
620155	5.83575
623735	5.8361
627336	5.83646
630957	5.83681
634600	5.83715
638263	5.8375
641948	5.83785
645654	5.83819
649382	5.83853
653131	5.83887
656901	5.83921
660693	5.83954
664508	5.83988
668344	5.84021
672202	5.84054
676083	5.84087
679986	5.8412
683912	5.84152
687860	5.84185
691831	5.84217
695825	5.84249
699842	5.84281
703882	5.84312
707946	5.84344
712033	5.84375
716143	5.84406
720278	5.84437
724436	5.84468
728618	5.84499
732825	5.84529
737055	5.8456
741310	5.84589
745590	5.8462
749894	5.84649
754223	5.84679
758578	5.84709
762957	5.84738
767361	5.84767
771792	5.84796
776247	5.84825
780728	5.84853
785236	5.84882
789769	5.8491
794328	5.84938
798914	5.84966
803526	5.84994
808165	5.85022
812831	5.85049
817523	5.85077
822243	5.85103
826990	5.85131
831764	5.85158
836566	5.85184
841395	5.85211
846253	5.85237
851138	5.85263
856052	5.85289
860994	5.85315
865964	5.85341
870964	5.85367
875992	5.85392
881049	5.85417
886135	5.85442
891251	5.85467
896396	5.85492
901571	5.85517
906776	5.85541
912011	5.85566
917276	5.8559
922571	5.85614
927897	5.85638
933254	5.85662
938642	5.85685
944061	5.85709
949511	5.85732
954993	5.85755
960506	5.85778
966051	5.85801
971628	5.85823
977237	5.85846
982879	5.85868
988553	5.8589
994260	5.85913
1e+06	5.85934
1.00577e+06	5.85956
1.01158e+06	5.85978
1.01742e+06	5.86
1.02329e+06	5.86021
1.0292e+06	5.86042
1.03514e+06	5.86063
1.04112e+06	5.86084
1.04713e+06	5.86105
1.05317e+06	5.86126
1.05925e+06	5.86146
1.06537e+06	5.86166
1.07152e+06	5.86187
1.07771e+06	5.86207
1.08393e+06	5.86227
1.09018e+06	5.86247
1.09648e+06	5.86266
1.10281e+06	5.86286
1.10917e+06	5.86305
1.11558e+06	5.86325
1.12202e+06	5.86344
1.1285e+06	5.86363
1.13501e+06	5.86381
1.14156e+06	5.864
1.14815e+06	5.86419
1.15478e+06	5.86438
1.16145e+06	5.86456
1.16815e+06	5.86474
1.1749e+06	5.86492
1.18168e+06	5.8651
1.1885e+06	5.86528
1.19536e+06	5.86545
1.20226e+06	5.86563
1.20921e+06	5.8658
1.21619e+06	5.86598
1.22321e+06	5.86615
1.23027e+06	5.86632
1.23737e+06	5.86649
1.24451e+06	5.86666
1.2517e+06	5.86683
1.25893e+06	5.86699
1.26619e+06	5.86715
1.2735e+06	5.86731
1.28086e+06	5.86748
1.28825e+06	5.86764
1.29569e+06	5.86779
1.30317e+06	5.86796
1.31069e+06	5.86811
1.31826e+06	5.86826
1.32587e+06	5.86842
1.33352e+06	5.86857
1.34122e+06	5.86872
1.34896e+06	5.86888
1.35675e+06	5.86902
1.36458e+06	5.86917
1.37246e+06	5.86932
1.38038e+06	5.86946
1.38835e+06	5.86961
1.39637e+06	5.86975
1.40443e+06	5.86989
1.41254e+06	5.87004
1.42069e+06	5.87018
1.42889e+06	5.87031
1.43714e+06	5.87045
1.44544e+06	5.87059
1.45378e+06	5.87072
1.46218e+06	5.87085
1.47062e+06	5.87099
1.47911e+06	5.87112
1.48765e+06	5.87125
1.49624e+06	5.87138
1.50487e+06	5.87151
1.51356e+06	5.87164
1.5223e+06	5.87176
1.53109e+06	5.87189
1.53993e+06	5.87202
1.54882e+06	5.87214
1.55776e+06	5.87226
1.56675e+06	5.87238
1.5758e+06	5.8725
1.58489e+06	5.87262
1.59404e+06	5.87274
1.60325e+06	5.87285
1.6125e+06	5.87297
1.62181e+06	5.87309
1.63117e+06	5.8732
1.64059e+06	5.87331
1.65006e+06	5.87342
1.65959e+06	5.87353
1.66917e+06	5.87364
1.6788e+06	5.87375
1.6885e+06	5.87386
1.69824e+06	5.87397
1.70805e+06	5.87407
1.71791e+06	5.87418
1.72783e+06	5.87428
1.7378e+06	5.87438
1.74783e+06	5.87449
1.75792e+06	5.87458
1.76807e+06	5.87468
1.77828e+06	5.87478
1.78855e+06	5.87488
1.79887e+06	5.87498
1.80926e+06	5.87507
1.8197e+06	5.87517
1.83021e+06	5.87526
1.84077e+06	5.87536
1.8514e+06	5.87545
1.86209e+06	5.87554
1.87284e+06	5.87563
1.88365e+06	5.87572
1.89452e+06	5.87581
1.90546e+06	5.8759
1.91646e+06	5.87598
1.92752e+06	5.87607
1.93865e+06	5.87615
1.94984e+06	5.87624
1.9611e+06	5.87632
1.97242e+06	5.8764
1.98381e+06	5.87649
1.99526e+06	5.87656
2.00678e+06	5.87664
2.01837e+06	5.87672
2.03002e+06	5.8768
2.04174e+06	5.87688
2.05353e+06	5.87695
2.06538e+06	5.87703
2.0773e+06	5.87711
2.0893e+06	5.87718
2.10136e+06	5.87725
2.11349e+06	5.87732
2.12569e+06	5.8774
2.13796e+06	5.87747
2.1503e+06	5.87754
2.16272e+06	5.8776
2.1752e+06	5.87767
2.18776e+06	5.87774
2.20039e+06	5.87781
2.21309e+06	5.87787
2.22587e+06	5.87794
2.23872e+06	5.878
2.25165e+06	5.87806
2.26464e+06	5.87813
2.27772e+06	5.87819
2.29087e+06	5.87825
2.30409e+06	5.87831
2.31739e+06	5.87838
2.33077e+06	5.87843
2.34423e+06	5.87849
2.35776e+06	5.87855
2.37137e+06	5.87861
2.38506e+06	5.87866
2.39883e+06	5.87872
2.41268e+06	5.87877
2.42661e+06	5.87883
2.44062e+06	5.87888
2.45471e+06	5.87893
2.46888e+06	5.87899
2.48313e+06	5.87904
2.49747e+06	5.87909
2.51189e+06	5.87914
2.52639e+06	5.87919
2.54097e+06	5.87924
2.55564e+06	5.87929
2.5704e+06	5.87933
2.58523e+06	5.87938
2.60016e+06	5.87943
2.61517e+06	5.87948
2.63027e+06	5.87952
2.64545e+06	5.87957
2.66073e+06	5.8796
2.67609e+06	5.87965
2.69153e+06	5.87969
2.70707e+06	5.87973
2.7227e+06	5.87978
2.73842e+06	5.87982
2.75423e+06	5.87986
2.77013e+06	5.8799
2.78612e+06	5.87994
2.80221e+06	5.87997
2.81838e+06	5.88001
2.83465e+06	5.88005
2.85102e+06	5.88009
2.86748e+06	5.88012
2.88403e+06	5.88016
2.90068e+06	5.88019
2.91743e+06	5.88023
2.93427e+06	5.88026
2.95121e+06	5.8803
2.96825e+06	5.88033
2.98538e+06	5.88036
3.00262e+06	5.88039
3.01995e+06	5.88043
3.03739e+06	5.88046
3.05492e+06	5.88049
3.07256e+06	5.88052
3.0903e+06	5.88055
3.10814e+06	5.88057
3.12608e+06	5.8806
3.14413e+06	5.88063
3.16228e+06	5.88066
3.18053e+06	5.88069
3.1989e+06	5.88071
3.21736e+06	5.88074
3.23594e+06	5.88077
3.25462e+06	5.88079
3.27341e+06	5.88082
3.2923e+06	5.88084
3.31131e+06	5.88086
3.33043e+06	5.88089
3.34965e+06	5.88091
3.36899e+06	5.88093
3.38844e+06	5.88096
3.408e+06	5.88098
3.42768e+06	5.881
3.44747e+06	5.88102
3.46737e+06	5.88104
3.48739e+06	5.88106
3.50752e+06	5.88108
3.52777e+06	5.8811
3.54813e+06	5.88112
3.56862e+06	5.88114
3.58922e+06	5.88116
3.60994e+06	5.88117
3.63078e+06	5.88119
3.65174e+06	5.88121
3.67282e+06	5.88123
3.69403e+06	5.88124
3.71535e+06	5.88126
3.7368e+06	5.88128
3.75837e+06	5.88129
3.78007e+06	5.88131
3.80189e+06	5.88132
3.82384e+06	5.88133
3.84592e+06	5.88135
3.86812e+06	5.88136
3.89045e+06	5.88138
3.91291e+06	5.88139
3.9355e+06	5.8814
3.95822e+06	5.88141
3.98107e+06	5.88143
4.00405e+06	5.88144
4.02717e+06	5.88145
4.05042e+06	5.88146
4.0738e+06	5.88148
4.09732e+06	5.88148
4.12098e+06	5.8815
4.14477e+06	5.8815
4.16869e+06	5.88152
4.19276e+06	5.88153
4.21697e+06	5.88153
4.24131e+06	5.88155
4.2658e+06	5.88155
4.29042e+06	5.88156
4.31519e+06	5.88157
4.3401e+06	5.88158
4.36516e+06	5.88158
4.39036e+06	5.88159
4.4157e+06	5.8816
4.4412e+06	5.88161
4.46684e+06	5.88161
4.49262e+06	5.88162
4.51856e+06	5.88163
4.54465e+06	5.88163
4.57088e+06	5.88164
4.59727e+06	5.88165
4.62381e+06	5.88165
4.6505e+06	5.88166
4.67735e+06	5.88167
4.70435e+06	5.88167
4.73151e+06	5.88167
4.75883e+06	5.88168
4.7863e+06	5.88168
4.81393e+06	5.88169
4.84172e+06	5.88169
4.86968e+06	5.8817
4.89779e+06	5.8817
4.92606e+06	5.88171
4.9545e+06	5.88171
4.9831e+06	5.88171
5.01187e+06	5.88172
5.04081e+06	5.88172
5.06991e+06	5.88173
5.09918e+06	5.88173
5.12861e+06	5.88173
5.15822e+06	5.88173
5.188e+06	5.88173
5.21795e+06	5.88174
5.24807e+06	5.88174
5.27837e+06	5.88174
5.30884e+06	5.88174
5.33949e+06	5.88175
5.37032e+06	5.88175
5.40132e+06	5.88175
5.4325e+06	5.88175
5.46387e+06	5.88175
5.49541e+06	5.88175
5.52713e+06	5.88176
5.55904e+06	5.88176
5.59114e+06	5.88176
5.62341e+06	5.88176
5.65588e+06	5.88176
5.68853e+06	5.88176
5.72137e+06	5.88176
5.7544e+06	5.88176
5.78762e+06	5.88176
5.82103e+06	5.88176
5.85464e+06	5.88177
5.88844e+06	5.88177
5.92243e+06	5.88177
5.95662e+06	5.88177
5.99101e+06	5.88177
6.0256e+06	5.88177
6.06038e+06	5.88177
6.09537e+06	5.88177
6.13056e+06	5.88177
6.16595e+06	5.88177
6.20155e+06	5.88177
6.23735e+06	5.88176
6.27336e+06	5.88176
6.30957e+06	5.88177
6.346e+06	5.88177
6.38263e+06	5.88177
6.41948e+06	5.88177
6.45654e+06	5.88177
6.49382e+06	5.88177
6.53131e+06	5.88177
6.56901e+06	5.88177
6.60693e+06	5.88177
6.64508e+06	5.88177
6.68344e+06	5.88177
6.72202e+06	5.88177
6.76083e+06	5.88176
6.79986e+06	5.88176
6.83912e+06	5.88176
6.8786e+06	5.88176
6.91831e+06	5.88176
6.95825e+06	5.88176
6.99842e+06	5.88176
7.03882e+06	5.88176
7.07946e+06	5.88176
7.12033e+06	5.88176
7.16143e+06	5.88176
7.20278e+06	5.88176
7.24436e+06	5.88176
7.28618e+06	5.88176
7.32825e+06	5.88176
7.37055e+06	5.88176
7.4131e+06	5.88176
7.4559e+06	5.88176
7.49894e+06	5.88176
7.54223e+06	5.88175
7.58578e+06	5.88175
7.62957e+06	5.88175
7.67361e+06	5.88175
7.71792e+06	5.88175
7.76247e+06	5.88175
7.80728e+06	5.88175
7.85236e+06	5.88175
7.89769e+06	5.88175
7.94328e+06	5.88175
7.98914e+06	5.88175
8.03526e+06	5.88175
8.08165e+06	5.88174
8.12831e+06	5.88174
8.17523e+06	5.88174
8.22243e+06	5.88174
8.2699e+06	5.88174
8.31764e+06	5.88174
8.36566e+06	5.88174
8.41395e+06	5.88174
8.46253e+06	5.88174
8.51138e+06	5.88174
8.56052e+06	5.88174
8.60994e+06	5.88174
8.65964e+06	5.88174
8.70964e+06	5.88174
8.75992e+06	5.88174
8.81049e+06	5.88174
8.86135e+06	5.88174
8.91251e+06	5.88174
8.96396e+06	5.88174
9.01571e+06	5.88174
9.06776e+06	5.88174
9.12011e+06	5.88174
9.17276e+06	5.88173
9.22571e+06	5.88173
9.27897e+06	5.88173
9.33254e+06	5.88173
9.38642e+06	5.88173
9.44061e+06	5.88173
9.49511e+06	5.88173
9.54993e+06	5.88173
9.60506e+06	5.88173
9.66051e+06	5.88173
9.71628e+06	5.88173
9.77237e+06	5.88173
9.82879e+06	5.88173
9.88553e+06	5.88173
9.9426e+06	5.88173
1e+07	5.88173
