Stopping power dEdx from Ionisation for Mg24[0.0] Z = 12 in G4_TISSUE_SOFT_ICRP, process name: ionIoni
E [MeV]	dEdx [MeV/mm]
0.001	55.1043
0.00100577	55.2631
0.00101158	55.4224
0.00101742	55.5822
0.00102329	55.7424
0.0010292	55.903
0.00103514	56.0642
0.00104112	56.2258
0.00104713	56.3878
0.00105317	56.5504
0.00105925	56.7134
0.00106537	56.8768
0.00107152	57.0408
0.00107771	57.2052
0.00108393	57.3701
0.00109018	57.5354
0.00109648	57.7013
0.00110281	57.8676
0.00110917	58.0344
0.00111558	58.2017
0.00112202	58.3694
0.0011285	58.5377
0.00113501	58.7064
0.00114156	58.8756
0.00114815	59.0453
0.00115478	59.2155
0.00116145	59.3862
0.00116815	59.5574
0.0011749	59.729
0.00118168	59.9012
0.0011885	60.0739
0.00119536	60.247
0.00120226	60.4207
0.00120921	60.5948
0.00121619	60.7695
0.00122321	60.9446
0.00123027	61.1203
0.00123737	61.2965
0.00124451	61.4732
0.0012517	61.6503
0.00125893	61.828
0.00126619	62.0063
0.0012735	62.185
0.00128086	62.3642
0.00128825	62.544
0.00129569	62.7242
0.00130317	62.905
0.00131069	63.0864
0.00131826	63.2682
0.00132587	63.4506
0.00133352	63.6335
0.00134122	63.8169
0.00134896	64.0008
0.00135675	64.1853
0.00136458	64.3703
0.00137246	64.5558
0.00138038	64.7419
0.00138835	64.9285
0.00139637	65.1157
0.00140443	65.3034
0.00141254	65.4916
0.00142069	65.6804
0.00142889	65.8697
0.00143714	66.0595
0.00144544	66.2499
0.00145378	66.4409
0.00146218	66.6324
0.00147062	66.8245
0.00147911	67.0171
0.00148765	67.2102
0.00149624	67.404
0.00150487	67.5983
0.00151356	67.7931
0.0015223	67.9885
0.00153109	68.1845
0.00153993	68.381
0.00154882	68.5781
0.00155776	68.7758
0.00156675	68.974
0.0015758	69.1728
0.00158489	69.3722
0.00159404	69.5722
0.00160325	69.7727
0.0016125	69.9738
0.00162181	70.1755
0.00163117	70.3778
0.00164059	70.5806
0.00165006	70.7841
0.00165959	70.9881
0.00166917	71.1927
0.0016788	71.3979
0.0016885	71.6037
0.00169824	71.8101
0.00170805	72.0171
0.00171791	72.2247
0.00172783	72.4328
0.0017378	72.6416
0.00174783	72.851
0.00175792	73.061
0.00176807	73.2716
0.00177828	73.4828
0.00178855	73.6946
0.00179887	73.907
0.00180926	74.12
0.0018197	74.3337
0.00183021	74.5479
0.00184077	74.7628
0.0018514	74.9783
0.00186209	75.1944
0.00187284	75.4111
0.00188365	75.6285
0.00189452	75.8465
0.00190546	76.0651
0.00191646	76.2844
0.00192752	76.5042
0.00193865	76.7247
0.00194984	76.9459
0.0019611	77.1677
0.00197242	77.3901
0.00198381	77.6132
0.00199526	77.8369
0.00200678	78.0612
0.00201837	78.2862
0.00203002	78.5119
0.00204174	78.7382
0.00205353	78.9652
0.00206538	79.1928
0.0020773	79.421
0.0020893	79.6499
0.00210136	79.8795
0.00211349	80.1098
0.00212569	80.3407
0.00213796	80.5722
0.0021503	80.8045
0.00216272	81.0374
0.0021752	81.271
0.00218776	81.5052
0.00220039	81.7402
0.00221309	81.9758
0.00222587	82.212
0.00223872	82.449
0.00225165	82.6867
0.00226464	82.925
0.00227772	83.164
0.00229087	83.4037
0.00230409	83.6441
0.00231739	83.8852
0.00233077	84.127
0.00234423	84.3695
0.00235776	84.6127
0.00237137	84.8566
0.00238506	85.1012
0.00239883	85.3465
0.00241268	85.5925
0.00242661	85.8392
0.00244062	86.0866
0.00245471	86.3347
0.00246888	86.5836
0.00248313	86.8331
0.00249747	87.0834
0.00251189	87.3344
0.00252639	87.5862
0.00254097	87.8386
0.00255564	88.0918
0.0025704	88.3457
0.00258523	88.6004
0.00260016	88.8557
0.00261517	89.1119
0.00263027	89.3687
0.00264545	89.6263
0.00266073	89.8846
0.00267609	90.1437
0.00269153	90.4035
0.00270707	90.6641
0.0027227	90.9255
0.00273842	91.1875
0.00275423	91.4504
0.00277013	91.714
0.00278612	91.9783
0.00280221	92.2434
0.00281838	92.5093
0.00283465	92.776
0.00285102	93.0434
0.00286748	93.3116
0.00288403	93.5805
0.00290068	93.8503
0.00291743	94.1208
0.00293427	94.3921
0.00295121	94.6641
0.00296825	94.937
0.00298538	95.2106
0.00300262	95.4851
0.00301995	95.7603
0.00303739	96.0363
0.00305492	96.3131
0.00307256	96.5907
0.0030903	96.8691
0.00310814	97.1484
0.00312608	97.4284
0.00314413	97.7092
0.00316228	97.9908
0.00318053	98.2733
0.0031989	98.5565
0.00321736	98.8406
0.00323594	99.1255
0.00325462	99.4112
0.00327341	99.6978
0.0032923	99.9851
0.00331131	100.273
0.00333043	100.562
0.00334965	100.852
0.00336899	101.143
0.00338844	101.434
0.003408	101.727
0.00342768	102.02
0.00344747	102.314
0.00346737	102.609
0.00348739	102.905
0.00350752	103.201
0.00352777	103.499
0.00354813	103.797
0.00356862	104.096
0.00358922	104.396
0.00360994	104.697
0.00363078	104.999
0.00365174	105.302
0.00367282	105.605
0.00369403	105.91
0.00371535	106.215
0.0037368	106.521
0.00375837	106.828
0.00378007	107.136
0.00380189	107.445
0.00382384	107.755
0.00384592	108.065
0.00386812	108.377
0.00389045	108.689
0.00391291	109.002
0.0039355	109.316
0.00395822	109.632
0.00398107	109.948
0.00400405	110.264
0.00402717	110.582
0.00405042	110.901
0.0040738	111.221
0.00409732	111.541
0.00412098	111.863
0.00414477	112.185
0.00416869	112.509
0.00419276	112.833
0.00421697	113.158
0.00424131	113.484
0.0042658	113.811
0.00429042	114.139
0.00431519	114.468
0.0043401	114.798
0.00436516	115.129
0.00439036	115.461
0.0044157	115.794
0.0044412	116.128
0.00446684	116.462
0.00449262	116.798
0.00451856	117.135
0.00454465	117.472
0.00457088	117.811
0.00459727	118.15
0.00462381	118.491
0.0046505	118.833
0.00467735	119.175
0.00470435	119.519
0.00473151	119.863
0.00475883	120.209
0.0047863	120.555
0.00481393	120.903
0.00484172	121.251
0.00486968	121.601
0.00489779	121.951
0.00492606	122.303
0.0049545	122.655
0.0049831	123.009
0.00501187	123.363
0.00504081	123.719
0.00506991	124.075
0.00509918	124.433
0.00512861	124.792
0.00515822	125.151
0.005188	125.512
0.00521795	125.874
0.00524807	126.237
0.00527837	126.601
0.00530884	126.965
0.00533949	127.331
0.00537032	127.698
0.00540132	128.066
0.0054325	128.436
0.00546387	128.806
0.00549541	129.177
0.00552713	129.549
0.00555904	129.923
0.00559114	130.297
0.00562341	130.673
0.00565588	131.05
0.00568853	131.427
0.00572137	131.806
0.0057544	132.186
0.00578762	132.567
0.00582103	132.949
0.00585464	133.332
0.00588844	133.717
0.00592243	134.102
0.00595662	134.489
0.00599101	134.876
0.0060256	135.256
0.00606038	135.636
0.00609537	136.018
0.00613056	136.401
0.00616595	136.784
0.00620155	137.169
0.00623735	137.555
0.00627336	137.942
0.00630957	138.33
0.006346	138.72
0.00638263	139.11
0.00641948	139.502
0.00645654	139.894
0.00649382	140.288
0.00653131	140.683
0.00656901	141.079
0.00660693	141.476
0.00664508	141.875
0.00668344	142.274
0.00672202	142.675
0.00676083	143.077
0.00679986	143.48
0.00683912	143.884
0.0068786	144.289
0.00691831	144.695
0.00695825	145.103
0.00699842	145.512
0.00703882	145.922
0.00707946	146.333
0.00712033	146.745
0.00716143	147.159
0.00720278	147.574
0.00724436	147.99
0.00728618	148.407
0.00732825	148.825
0.00737055	149.245
0.0074131	149.665
0.0074559	150.087
0.00749894	150.511
0.00754223	150.935
0.00758578	151.361
0.00762957	151.787
0.00767361	152.215
0.00771792	152.645
0.00776247	153.075
0.00780728	153.507
0.00785236	153.94
0.00789769	154.375
0.00794328	154.81
0.00798914	155.247
0.00803526	155.685
0.00808165	156.124
0.00812831	156.565
0.00817523	157.007
0.00822243	157.45
0.0082699	157.894
0.00831764	158.34
0.00836566	158.787
0.00841395	159.235
0.00846253	159.685
0.00851138	160.136
0.00856052	160.588
0.00860994	161.042
0.00865964	161.496
0.00870964	161.953
0.00875992	162.41
0.00881049	162.869
0.00886135	163.329
0.00891251	163.79
0.00896396	164.253
0.00901571	164.717
0.00906776	165.183
0.00912011	165.649
0.00917276	166.118
0.00922571	166.587
0.00927897	167.058
0.00933254	167.53
0.00938642	168.004
0.00944061	168.479
0.00949511	168.955
0.00954993	169.433
0.00960506	169.912
0.00966051	170.392
0.00971628	170.874
0.00977237	171.357
0.00982879	171.842
0.00988553	172.328
0.0099426	172.816
0.01	173.304
0.0100577	173.795
0.0101158	174.286
0.0101742	174.78
0.0102329	175.274
0.010292	175.77
0.0103514	176.268
0.0104112	176.766
0.0104713	177.267
0.0105317	177.769
0.0105925	178.272
0.0106537	178.776
0.0107152	179.283
0.0107771	179.79
0.0108393	180.299
0.0109018	180.81
0.0109648	181.322
0.0110281	181.835
0.0110917	182.351
0.0111558	182.867
0.0112202	183.385
0.011285	183.905
0.0113501	184.426
0.0114156	184.948
0.0114815	185.472
0.0115478	185.998
0.0116145	186.525
0.0116815	187.053
0.011749	187.584
0.0118168	188.115
0.011885	188.649
0.0119536	189.183
0.0120226	189.72
0.0120921	190.258
0.0121619	190.797
0.0122321	191.338
0.0123027	191.881
0.0123737	192.425
0.0124451	192.971
0.012517	193.518
0.0125893	194.067
0.0126619	194.617
0.012735	195.169
0.0128086	195.723
0.0128825	196.279
0.0129569	196.835
0.0130317	197.394
0.0131069	197.954
0.0131826	198.516
0.0132587	199.079
0.0133352	199.645
0.0134122	200.211
0.0134896	200.78
0.0135675	201.35
0.0136458	201.921
0.0137246	202.495
0.0138038	203.07
0.0138835	203.646
0.0139637	204.225
0.0140443	204.805
0.0141254	205.387
0.0142069	205.97
0.0142889	206.555
0.0143714	207.142
0.0144544	207.73
0.0145378	208.321
0.0146218	208.913
0.0147062	209.506
0.0147911	210.102
0.0148765	210.699
0.0149624	211.298
0.0150487	211.898
0.0151356	212.501
0.015223	213.105
0.0153109	213.711
0.0153993	214.319
0.0154882	214.928
0.0155776	215.539
0.0156675	216.152
0.015758	216.767
0.0158489	217.383
0.0159404	218.002
0.0160325	218.622
0.016125	219.244
0.0162181	219.868
0.0163117	220.493
0.0164059	221.121
0.0165006	221.75
0.0165959	222.381
0.0166917	223.014
0.016788	223.649
0.016885	224.285
0.0169824	224.924
0.0170805	225.564
0.0171791	226.206
0.0172783	226.85
0.017378	227.496
0.0174783	228.144
0.0175792	228.794
0.0176807	229.446
0.0177828	230.099
0.0178855	230.755
0.0179887	231.412
0.0180926	232.071
0.018197	232.732
0.0183021	233.395
0.0184077	234.06
0.018514	234.727
0.0186209	235.396
0.0187284	236.067
0.0188365	236.74
0.0189452	237.415
0.0190546	238.092
0.0191646	238.771
0.0192752	239.451
0.0193865	240.134
0.0194984	240.819
0.019611	241.505
0.0197242	242.194
0.0198381	242.885
0.0199526	243.578
0.0200678	244.272
0.0201837	244.969
0.0203002	245.668
0.0204174	246.369
0.0205353	247.072
0.0206538	247.777
0.020773	248.484
0.020893	249.193
0.0210136	249.904
0.0211349	250.618
0.0212569	251.333
0.0213796	252.05
0.021503	252.77
0.0216272	253.492
0.021752	254.215
0.0218776	254.941
0.0220039	255.669
0.0221309	256.399
0.0222587	257.132
0.0223872	257.866
0.0225165	258.603
0.0226464	259.341
0.0227772	260.082
0.0229087	260.825
0.0230409	261.571
0.0231739	262.318
0.0233077	263.068
0.0234423	263.819
0.0235776	264.573
0.0237137	265.33
0.0238506	266.088
0.0239883	266.807
0.0241268	266.983
0.0242661	267.162
0.0244062	267.342
0.0245471	267.525
0.0246888	267.709
0.0248313	267.895
0.0249747	268.083
0.0251189	268.272
0.0252639	268.464
0.0254097	268.657
0.0255564	268.852
0.025704	269.048
0.0258523	269.246
0.0260016	269.446
0.0261517	269.647
0.0263027	269.85
0.0264545	270.055
0.0266073	270.261
0.0267609	270.469
0.0269153	270.678
0.0270707	270.889
0.027227	271.101
0.0273842	271.314
0.0275423	271.529
0.0277013	271.746
0.0278612	271.964
0.0280221	272.183
0.0281838	272.404
0.0283465	272.626
0.0285102	272.849
0.0286748	273.074
0.0288403	273.3
0.0290068	273.527
0.0291743	273.755
0.0293427	273.985
0.0295121	274.216
0.0296825	274.449
0.0298538	274.682
0.0300262	274.917
0.0301995	275.153
0.0303739	275.39
0.0305492	275.629
0.0307256	275.868
0.030903	276.109
0.0310814	276.351
0.0312608	276.594
0.0314413	276.838
0.0316228	277.083
0.0318053	277.33
0.031989	277.577
0.0321736	277.826
0.0323594	278.075
0.0325462	278.326
0.0327341	278.578
0.032923	278.831
0.0331131	279.084
0.0333043	279.339
0.0334965	279.595
0.0336899	279.852
0.0338844	280.11
0.03408	280.369
0.0342768	280.629
0.0344747	280.89
0.0346737	281.152
0.0348739	281.415
0.0350752	281.679
0.0352777	281.944
0.0354813	282.21
0.0356862	282.477
0.0358922	282.745
0.0360994	283.014
0.0363078	283.284
0.0365174	283.554
0.0367282	283.826
0.0369403	284.099
0.0371535	284.372
0.037368	284.647
0.0375837	284.922
0.0378007	285.198
0.0380189	285.476
0.0382384	285.754
0.0384592	286.033
0.0386812	286.313
0.0389045	286.594
0.0391291	286.876
0.039355	287.159
0.0395822	287.442
0.0398107	287.727
0.0400405	288.012
0.0402717	288.299
0.0405042	288.586
0.040738	288.874
0.0409732	289.164
0.0412098	289.454
0.0414477	289.744
0.0416869	290.036
0.0419276	290.329
0.0421697	290.623
0.0424131	290.917
0.042658	291.213
0.0429042	291.509
0.0431519	291.806
0.043401	292.105
0.0436516	292.404
0.0439036	292.704
0.044157	293.005
0.044412	293.306
0.0446684	293.609
0.0449262	293.913
0.0451856	294.217
0.0454465	294.523
0.0457088	294.829
0.0459727	295.137
0.0462381	295.445
0.046505	295.754
0.0467735	296.064
0.0470435	296.375
0.0473151	296.687
0.0475883	297
0.047863	297.314
0.0481393	297.629
0.0484172	297.945
0.0486968	298.261
0.0489779	298.579
0.0492606	298.898
0.049545	299.217
0.049831	299.538
0.0501187	299.859
0.0504081	300.182
0.0506991	300.505
0.0509918	300.83
0.0512861	301.155
0.0515822	301.482
0.05188	301.809
0.0521795	302.137
0.0524807	302.467
0.0527837	302.797
0.0530884	303.129
0.0533949	303.461
0.0537032	303.795
0.0540132	304.129
0.054325	304.465
0.0546387	304.801
0.0549541	305.139
0.0552713	305.477
0.0555904	305.817
0.0559114	306.158
0.0562341	306.5
0.0565588	306.843
0.0568853	307.187
0.0572137	307.532
0.057544	307.878
0.0578762	308.225
0.0582103	308.573
0.0585464	308.923
0.0588844	309.273
0.0592243	309.625
0.0595662	309.978
0.0599101	310.331
0.060256	310.687
0.0606038	311.043
0.0609537	311.4
0.0613056	311.758
0.0616595	312.118
0.0620155	312.479
0.0623735	312.841
0.0627336	313.204
0.0630957	313.568
0.06346	313.934
0.0638263	314.3
0.0641948	314.668
0.0645654	315.037
0.0649382	315.408
0.0653131	315.779
0.0656901	316.152
0.0660693	316.526
0.0664508	316.901
0.0668344	317.278
0.0672202	317.656
0.0676083	318.035
0.0679986	318.415
0.0683912	318.797
0.068786	319.18
0.0691831	319.564
0.0695825	319.949
0.0699842	320.336
0.0703882	320.724
0.0707946	321.114
0.0712033	321.504
0.0716143	321.897
0.0720278	322.29
0.0724436	322.685
0.0728618	323.081
0.0732825	323.479
0.0737055	323.878
0.074131	324.278
0.074559	324.68
0.0749894	325.083
0.0754223	325.487
0.0758578	325.893
0.0762957	326.301
0.0767361	326.709
0.0771792	327.12
0.0776247	327.531
0.0780728	327.945
0.0785236	328.359
0.0789769	328.775
0.0794328	329.193
0.0798914	329.612
0.0803526	330.032
0.0808165	330.455
0.0812831	330.878
0.0817523	331.303
0.0822243	331.73
0.082699	332.158
0.0831764	332.588
0.0836566	333.019
0.0841395	333.452
0.0846253	333.886
0.0851138	334.322
0.0856052	334.76
0.0860994	335.199
0.0865964	335.64
0.0870964	336.082
0.0875992	336.526
0.0881049	336.972
0.0886135	337.419
0.0891251	337.868
0.0896396	338.318
0.0901571	338.771
0.0906776	339.225
0.0912011	339.68
0.0917276	340.137
0.0922571	340.596
0.0927897	341.057
0.0933254	341.519
0.0938642	341.983
0.0944061	342.449
0.0949511	342.917
0.0954993	343.386
0.0960506	343.857
0.0966051	344.33
0.0971628	344.805
0.0977237	345.281
0.0982879	345.759
0.0988553	346.239
0.099426	346.721
0.1	347.204
0.100577	347.69
0.101158	348.177
0.101742	348.666
0.102329	349.157
0.10292	349.65
0.103514	350.144
0.104112	350.641
0.104713	351.139
0.105317	351.639
0.105925	352.141
0.106537	352.646
0.107152	353.151
0.107771	353.659
0.108393	354.169
0.109018	354.681
0.109648	355.195
0.110281	355.71
0.110917	356.228
0.111558	356.748
0.112202	357.269
0.11285	357.793
0.113501	358.318
0.114156	358.846
0.114815	359.376
0.115478	359.907
0.116145	360.441
0.116815	360.977
0.11749	361.514
0.118168	362.054
0.11885	362.596
0.119536	363.14
0.120226	363.686
0.120921	364.234
0.121619	364.784
0.122321	365.337
0.123027	365.891
0.123737	366.448
0.124451	367.006
0.12517	367.567
0.125893	368.13
0.126619	368.696
0.12735	369.263
0.128086	369.832
0.128825	370.404
0.129569	370.978
0.130317	371.554
0.131069	372.132
0.131826	372.713
0.132587	373.296
0.133352	373.881
0.134122	374.468
0.134896	375.057
0.135675	375.649
0.136458	376.243
0.137246	376.839
0.138038	377.438
0.138835	378.039
0.139637	378.642
0.140443	379.247
0.141254	379.855
0.142069	380.465
0.142889	381.078
0.143714	381.693
0.144544	382.31
0.145378	382.929
0.146218	383.551
0.147062	384.175
0.147911	384.802
0.148765	385.431
0.149624	386.062
0.150487	386.696
0.151356	387.332
0.15223	387.971
0.153109	388.612
0.153993	389.255
0.154882	389.901
0.155776	390.55
0.156675	391.201
0.15758	391.854
0.158489	392.51
0.159404	393.168
0.160325	393.829
0.16125	394.492
0.162181	395.158
0.163117	395.826
0.164059	396.497
0.165006	397.171
0.165959	397.846
0.166917	398.525
0.16788	399.206
0.16885	399.889
0.169824	400.576
0.170805	401.264
0.171791	401.956
0.172783	402.65
0.17378	403.346
0.174783	404.045
0.175792	404.747
0.176807	405.451
0.177828	406.158
0.178855	406.868
0.179887	407.58
0.180926	408.295
0.18197	409.013
0.183021	409.733
0.184077	410.456
0.18514	411.181
0.186209	411.909
0.187284	412.64
0.188365	413.374
0.189452	414.11
0.190546	414.85
0.191646	415.591
0.192752	416.336
0.193865	417.083
0.194984	417.833
0.19611	418.586
0.197242	419.342
0.198381	420.1
0.199526	420.861
0.200678	421.625
0.201837	422.391
0.203002	423.161
0.204174	423.933
0.205353	424.708
0.206538	425.486
0.20773	426.266
0.20893	427.05
0.210136	427.836
0.211349	428.625
0.212569	429.417
0.213796	430.212
0.21503	431.01
0.216272	431.81
0.21752	432.614
0.218776	433.42
0.220039	434.229
0.221309	435.041
0.222587	435.856
0.223872	436.674
0.225165	437.495
0.226464	438.318
0.227772	439.145
0.229087	439.974
0.230409	440.807
0.231739	441.642
0.233077	442.48
0.234423	443.321
0.235776	444.165
0.237137	445.013
0.238506	445.863
0.239883	446.716
0.241268	447.572
0.242661	448.431
0.244062	449.292
0.245471	450.157
0.246888	451.025
0.248313	451.896
0.249747	452.77
0.251189	453.647
0.252639	454.527
0.254097	455.41
0.255564	456.295
0.25704	457.184
0.258523	458.076
0.260016	458.971
0.261517	459.869
0.263027	460.77
0.264545	461.674
0.266073	462.581
0.267609	463.492
0.269153	464.405
0.270707	465.321
0.27227	466.24
0.273842	467.163
0.275423	468.088
0.277013	469.017
0.278612	469.948
0.280221	470.883
0.281838	471.821
0.283465	472.761
0.285102	473.705
0.286748	474.652
0.288403	475.602
0.290068	476.555
0.291743	477.511
0.293427	478.471
0.295121	479.433
0.296825	480.399
0.298538	481.367
0.300262	482.339
0.301995	483.314
0.303739	484.292
0.305492	485.273
0.307256	486.257
0.30903	487.244
0.310814	488.234
0.312608	489.228
0.314413	490.224
0.316228	491.224
0.318053	492.227
0.31989	493.233
0.321736	494.242
0.323594	495.254
0.325462	496.269
0.327341	497.287
0.32923	498.309
0.331131	499.333
0.333043	500.361
0.334965	501.392
0.336899	502.426
0.338844	503.463
0.3408	504.503
0.342768	505.546
0.344747	506.592
0.346737	507.642
0.348739	508.694
0.350752	509.75
0.352777	510.809
0.354813	511.87
0.356862	512.935
0.358922	514.003
0.360994	515.075
0.363078	516.149
0.365174	517.226
0.367282	518.306
0.369403	519.39
0.371535	520.476
0.37368	521.566
0.375837	522.659
0.378007	523.754
0.380189	524.853
0.382384	525.955
0.384592	527.06
0.386812	528.168
0.389045	529.279
0.391291	530.393
0.39355	531.51
0.395822	532.63
0.398107	533.753
0.400405	534.879
0.402717	536.008
0.405042	537.14
0.40738	538.276
0.409732	539.414
0.412098	540.555
0.414477	541.699
0.416869	542.846
0.419276	543.996
0.421697	545.149
0.424131	546.305
0.42658	547.463
0.429042	548.625
0.431519	549.79
0.43401	550.957
0.436516	552.128
0.439036	553.301
0.44157	554.477
0.44412	555.656
0.446684	556.838
0.449262	558.023
0.451856	560.041
0.454465	562.36
0.457088	564.694
0.459727	567.045
0.462381	569.412
0.46505	571.796
0.467735	574.196
0.470435	576.612
0.473151	579.046
0.475883	581.496
0.47863	583.964
0.481393	586.448
0.484172	588.95
0.486968	591.47
0.489779	594.007
0.492606	596.562
0.49545	599.135
0.49831	601.726
0.501187	604.335
0.504081	606.963
0.506991	609.609
0.509918	612.274
0.512861	614.958
0.515822	617.661
0.5188	620.383
0.521795	623.124
0.524807	625.885
0.527837	628.665
0.530884	631.465
0.533949	634.285
0.537032	637.126
0.540132	639.986
0.54325	642.867
0.546387	645.769
0.549541	648.692
0.552713	651.635
0.555904	654.6
0.559114	657.586
0.562341	660.594
0.565588	663.623
0.568853	666.674
0.572137	669.748
0.57544	672.843
0.578762	675.961
0.582103	679.102
0.585464	682.265
0.588844	685.452
0.592243	688.662
0.595662	691.895
0.599101	695.151
0.60256	698.418
0.606038	701.212
0.609537	704.02
0.613056	706.843
0.616595	709.68
0.620155	712.532
0.623735	715.398
0.627336	718.279
0.630957	721.175
0.6346	724.085
0.638263	727.011
0.641948	729.951
0.645654	732.905
0.649382	735.875
0.653131	738.86
0.656901	741.86
0.660693	744.874
0.664508	747.904
0.668344	750.949
0.672202	754.009
0.676083	757.085
0.679986	760.175
0.683912	763.281
0.68786	766.402
0.691831	769.538
0.695825	772.69
0.699842	775.857
0.703882	779.04
0.707946	782.238
0.712033	785.451
0.716143	788.681
0.720278	791.925
0.724436	795.186
0.728618	798.462
0.732825	801.754
0.737055	805.061
0.74131	808.384
0.74559	811.723
0.749894	815.078
0.754223	818.449
0.758578	821.835
0.762957	825.237
0.767361	828.656
0.771792	832.09
0.776247	835.54
0.780728	839.006
0.785236	842.488
0.789769	845.987
0.794328	849.501
0.798914	853.031
0.803526	856.578
0.808165	860.14
0.812831	863.719
0.817523	867.314
0.822243	870.925
0.82699	874.552
0.831764	878.196
0.836566	881.855
0.841395	885.531
0.846253	889.223
0.851138	892.932
0.856052	896.656
0.860994	900.397
0.865964	904.154
0.870964	907.928
0.875992	911.718
0.881049	915.524
0.886135	919.346
0.891251	923.185
0.896396	927.04
0.901571	930.911
0.906776	934.799
0.912011	938.703
0.917276	942.623
0.922571	946.56
0.927897	950.513
0.933254	954.482
0.938642	958.467
0.944061	962.469
0.949511	966.487
0.954993	970.521
0.960506	974.571
0.966051	978.638
0.971628	982.721
0.977237	986.82
0.982879	990.935
0.988553	995.067
0.99426	999.214
1	1003.38
1.00577	1007.56
1.01158	1011.75
1.01742	1015.97
1.02329	1020.19
1.0292	1024.44
1.03514	1028.7
1.04112	1032.97
1.04713	1037.26
1.05317	1041.57
1.05925	1045.89
1.06537	1050.23
1.07152	1054.59
1.07771	1058.96
1.08393	1063.34
1.09018	1067.75
1.09648	1072.16
1.10281	1076.6
1.10917	1081.04
1.11558	1085.51
1.12202	1089.99
1.1285	1094.48
1.13501	1098.99
1.14156	1103.51
1.14815	1108.05
1.15478	1112.61
1.16145	1117.18
1.16815	1121.76
1.1749	1126.36
1.18168	1130.98
1.1885	1135.6
1.19536	1140.25
1.20226	1144.91
1.20921	1149.58
1.21619	1154.27
1.22321	1158.97
1.23027	1163.68
1.23737	1168.41
1.24451	1173.15
1.2517	1177.91
1.25893	1182.68
1.26619	1187.47
1.2735	1192.27
1.28086	1197.08
1.28825	1201.91
1.29569	1206.74
1.30317	1211.6
1.31069	1216.46
1.31826	1221.34
1.32587	1226.23
1.33352	1231.14
1.34122	1236.05
1.34896	1240.98
1.35675	1245.93
1.36458	1250.88
1.37246	1255.85
1.38038	1260.82
1.38835	1265.82
1.39637	1270.82
1.40443	1275.83
1.41254	1280.86
1.42069	1285.89
1.42889	1290.94
1.43714	1296
1.44544	1301.07
1.45378	1306.15
1.46218	1311.25
1.47062	1316.35
1.47911	1321.46
1.48765	1325.67
1.49624	1330.79
1.50487	1335.92
1.51356	1341.06
1.5223	1346.22
1.53109	1351.38
1.53993	1356.54
1.54882	1361.72
1.55776	1366.91
1.56675	1372.11
1.5758	1377.31
1.58489	1382.52
1.59404	1387.74
1.60325	1392.97
1.6125	1398.21
1.62181	1403.45
1.63117	1408.7
1.64059	1413.96
1.65006	1419.22
1.65959	1424.49
1.66917	1429.77
1.6788	1435.05
1.6885	1440.34
1.69824	1445.64
1.70805	1450.94
1.71791	1456.24
1.72783	1461.56
1.7378	1466.87
1.74783	1472.19
1.75792	1477.52
1.76807	1482.85
1.77828	1488.18
1.78855	1493.52
1.79887	1498.86
1.80926	1504.21
1.8197	1509.56
1.83021	1514.91
1.84077	1520.26
1.8514	1525.62
1.86209	1530.97
1.87284	1536.33
1.88365	1541.69
1.89452	1547.06
1.90546	1552.42
1.91646	1557.79
1.92752	1563.15
1.93865	1568.52
1.94984	1573.88
1.9611	1579.25
1.97242	1584.61
1.98381	1589.97
1.99526	1595.34
2.00678	1600.7
2.01837	1606.06
2.03002	1611.42
2.04174	1616.77
2.05353	1622.13
2.06538	1627.48
2.0773	1632.83
2.0893	1638.17
2.10136	1643.51
2.11349	1648.85
2.12569	1654.18
2.13796	1659.51
2.1503	1664.83
2.16272	1670.15
2.1752	1675.47
2.18776	1680.77
2.20039	1686.08
2.21309	1691.37
2.22587	1696.66
2.23872	1701.94
2.25165	1707.22
2.26464	1712.49
2.27772	1717.75
2.29087	1723
2.30409	1728.24
2.31739	1733.47
2.33077	1738.7
2.34423	1743.92
2.35776	1749.12
2.37137	1754.32
2.38506	1759.51
2.39883	1764.68
2.41268	1769.85
2.42661	1775
2.44062	1780.14
2.45471	1785.27
2.46888	1790.39
2.48313	1795.49
2.49747	1800.59
2.51189	1805.67
2.52639	1810.73
2.54097	1815.78
2.55564	1820.82
2.5704	1825.85
2.58523	1830.85
2.60016	1835.85
2.61517	1840.83
2.63027	1845.79
2.64545	1850.74
2.66073	1855.67
2.67609	1860.58
2.69153	1865.47
2.70707	1870.35
2.7227	1875.21
2.73842	1880.06
2.75423	1884.88
2.77013	1889.69
2.78612	1894.48
2.80221	1899.24
2.81838	1903.99
2.83465	1908.72
2.85102	1913.43
2.86748	1918.12
2.88403	1922.78
2.90068	1927.43
2.91743	1932.05
2.93427	1936.66
2.95121	1941.24
2.96825	1945.79
2.98538	1950.33
3.00262	1954.84
3.01995	1959.33
3.03739	1963.8
3.05492	1968.24
3.07256	1972.65
3.0903	1977.05
3.10814	1981.41
3.12608	1985.76
3.14413	1990.07
3.16228	1994.37
3.18053	1998.63
3.1989	2002.87
3.21736	2007.08
3.23594	2011.27
3.25462	2015.43
3.27341	2019.56
3.2923	2023.66
3.31131	2027.74
3.33043	2031.79
3.34965	2035.8
3.36899	2039.79
3.38844	2043.76
3.408	2047.69
3.42768	2051.59
3.44747	2055.46
3.46737	2059.31
3.48739	2063.12
3.50752	2066.9
3.52777	2070.65
3.54813	2074.37
3.56862	2078.06
3.58922	2081.72
3.60994	2085.34
3.63078	2088.94
3.65174	2092.5
3.67282	2096.03
3.69403	2099.52
3.71535	2102.99
3.7368	2106.42
3.75837	2109.82
3.78007	2113.18
3.80189	2116.51
3.82384	2119.81
3.84592	2123.07
3.86812	2126.3
3.89045	2129.49
3.91291	2132.65
3.9355	2135.78
3.95822	2138.87
3.98107	2141.92
4.00405	2144.94
4.02717	2147.93
4.05042	2150.87
4.0738	2153.79
4.09732	2156.66
4.12098	2159.51
4.14477	2162.31
4.16869	2165.08
4.19276	2167.81
4.21697	2170.51
4.24131	2173.17
4.2658	2175.79
4.29042	2178.38
4.31519	2180.92
4.3401	2183.44
4.36516	2185.91
4.39036	2188.35
4.4157	2190.75
4.4412	2193.11
4.46684	2195.43
4.49262	2197.72
4.51856	2199.97
4.54465	2202.18
4.57088	2204.36
4.59727	2206.49
4.62381	2208.59
4.6505	2210.65
4.67735	2212.67
4.70435	2214.66
4.73151	2216.6
4.75883	2218.51
4.7863	2220.38
4.81393	2222.21
4.84172	2224
4.86968	2225.76
4.89779	2227.48
4.92606	2229.15
4.9545	2230.79
4.9831	2232.4
5.01187	2233.96
5.04081	2235.49
5.06991	2236.97
5.09918	2238.42
5.12861	2239.83
5.15822	2241.2
5.188	2242.54
5.21795	2243.83
5.24807	2245.09
5.27837	2246.31
5.30884	2247.49
5.33949	2248.64
5.37032	2249.75
5.40132	2250.81
5.4325	2251.85
5.46387	2252.84
5.49541	2253.79
5.52713	2254.71
5.55904	2255.59
5.59114	2256.44
5.62341	2257.24
5.65588	2258.01
5.68853	2258.74
5.72137	2259.44
5.7544	2260.1
5.78762	2260.72
5.82103	2261.3
5.85464	2261.85
5.88844	2262.36
5.92243	2262.84
5.95662	2263.28
5.99101	2263.68
6.0256	2264.05
6.06038	2264.38
6.09537	2264.68
6.13056	2264.94
6.16595	2265.16
6.20155	2265.36
6.23735	2265.51
6.27336	2265.63
6.30957	2265.72
6.346	2265.77
6.38263	2265.79
6.41948	2265.77
6.45654	2265.72
6.49382	2265.63
6.53131	2265.52
6.56901	2265.36
6.60693	2265.18
6.64508	2264.96
6.68344	2264.71
6.72202	2264.43
6.76083	2264.11
6.79986	2263.76
6.83912	2263.38
6.8786	2262.97
6.91831	2262.52
6.95825	2262.05
6.99842	2261.54
7.03882	2261
7.07946	2260.44
7.12033	2259.84
7.16143	2259.21
7.20278	2258.55
7.24436	2257.86
7.28618	2257.14
7.32825	2256.39
7.37055	2255.61
7.4131	2254.8
7.4559	2253.97
7.49894	2253.1
7.54223	2252.21
7.58578	2251.29
7.62957	2250.34
7.67361	2249.36
7.71792	2248.36
7.76247	2247.33
7.80728	2246.27
7.85236	2245.18
7.89769	2244.07
7.94328	2242.94
7.98914	2241.77
8.03526	2240.58
8.08165	2239.37
8.12831	2232.83
8.17523	2231.63
8.22243	2230.41
8.2699	2229.16
8.31764	2227.89
8.36566	2226.6
8.41395	2225.27
8.46253	2223.93
8.51138	2222.56
8.56052	2221.17
8.60994	2219.75
8.65964	2218.31
8.70964	2216.85
8.75992	2215.37
8.81049	2213.86
8.86135	2212.33
8.91251	2210.78
8.96396	2209.21
9.01571	2207.62
9.06776	2206.01
9.12011	2204.37
9.17276	2202.72
9.22571	2201.04
9.27897	2199.35
9.33254	2197.64
9.38642	2195.9
9.44061	2194.15
9.49511	2192.38
9.54993	2190.59
9.60506	2188.78
9.66051	2186.96
9.71628	2185.11
9.77237	2183.25
9.82879	2181.38
9.88553	2179.48
9.9426	2177.57
10	2175.64
10.0577	2173.69
10.1158	2171.73
10.1742	2169.76
10.2329	2167.77
10.292	2165.76
10.3514	2163.74
10.4112	2161.7
10.4713	2159.65
10.5317	2157.58
10.5925	2155.5
10.6537	2153.41
10.7152	2151.3
10.7771	2149.18
10.8393	2147.05
10.9018	2144.9
10.9648	2142.74
11.0281	2140.57
11.0917	2138.38
11.1558	2136.19
11.2202	2133.98
11.285	2131.76
11.3501	2129.53
11.4156	2127.29
11.4815	2125.04
11.5478	2122.77
11.6145	2120.5
11.6815	2118.22
11.749	2115.92
11.8168	2113.62
11.885	2111.31
11.9536	2108.99
12.0226	2106.66
12.0921	2104.31
12.1619	2101.97
12.2321	2099.61
12.3027	2097.24
12.3737	2094.87
12.4451	2092.49
12.517	2090.09
12.5893	2087.7
12.6619	2085.29
12.735	2082.88
12.8086	2080.46
12.8825	2078.03
12.9569	2075.6
13.0317	2073.16
13.1069	2070.71
13.1826	2068.26
13.2587	2065.8
13.3352	2063.34
13.4122	2060.87
13.4896	2058.39
13.5675	2055.91
13.6458	2053.43
13.7246	2050.93
13.8038	2048.44
13.8835	2045.94
13.9637	2043.43
14.0443	2040.92
14.1254	2038.4
14.2069	2035.88
14.2889	2033.36
14.3714	2030.83
14.4544	2028.3
14.5378	2025.77
14.6218	2023.23
14.7062	2020.69
14.7911	2018.14
14.8765	2015.59
14.9624	2013.04
15.0487	2010.48
15.1356	2007.93
15.223	2005.37
15.3109	2002.8
15.3993	2000.24
15.4882	1997.67
15.5776	1995.1
15.6675	1992.52
15.758	1989.95
15.8489	1987.37
15.9404	1984.79
16.0325	1982.21
16.125	1979.62
16.2181	1977.04
16.3117	1974.45
16.4059	1971.86
16.5006	1969.27
16.5959	1966.68
16.6917	1964.09
16.788	1961.49
16.885	1958.9
16.9824	1956.3
17.0805	1953.7
17.1791	1951.11
17.2783	1948.51
17.378	1945.9
17.4783	1943.3
17.5792	1940.7
17.6807	1938.1
17.7828	1935.49
17.8855	1932.89
17.9887	1930.28
18.0926	1927.68
18.197	1925.07
18.3021	1922.46
18.4077	1919.86
18.514	1917.25
18.6209	1914.64
18.7284	1912.03
18.8365	1909.43
18.9452	1906.82
19.0546	1904.21
19.1646	1901.6
19.2752	1898.99
19.3865	1896.38
19.4984	1893.77
19.611	1891.16
19.7242	1888.55
19.8381	1885.94
19.9526	1883.33
20.0678	1880.72
20.1837	1878.11
20.3002	1875.5
20.4174	1872.89
20.5353	1870.28
20.6538	1867.67
20.773	1865.06
20.893	1862.45
21.0136	1859.84
21.1349	1857.23
21.2569	1854.62
21.3796	1852.01
21.503	1849.4
21.6272	1846.79
21.752	1844.19
21.8776	1841.58
22.0039	1838.97
22.1309	1836.36
22.2587	1833.75
22.3872	1831.14
22.5165	1828.53
22.6464	1825.92
22.7772	1823.32
22.9087	1820.71
23.0409	1818.1
23.1739	1815.49
23.3077	1812.88
23.4423	1810.27
23.5776	1807.67
23.7137	1805.06
23.8506	1802.45
23.9883	1799.84
24.1268	1797.23
24.2661	1794.62
24.4062	1792.02
24.5471	1789.41
24.6888	1786.8
24.8313	1784.19
24.9747	1781.58
25.1189	1778.97
25.2639	1776.36
25.4097	1773.75
25.5564	1771.14
25.704	1768.53
25.8523	1765.92
26.0016	1763.31
26.1517	1760.7
26.3027	1758.09
26.4545	1755.48
26.6073	1752.87
26.7609	1750.26
26.9153	1747.64
27.0707	1745.03
27.227	1742.42
27.3842	1739.8
27.5423	1737.19
27.7013	1734.58
27.8612	1731.96
28.0221	1729.34
28.1838	1726.73
28.3465	1724.11
28.5102	1721.49
28.6748	1718.87
28.8403	1716.25
29.0068	1713.63
29.1743	1711.01
29.3427	1708.39
29.5121	1705.77
29.6825	1703.15
29.8538	1700.52
30.0262	1697.9
30.1995	1695.27
30.3739	1692.65
30.5492	1690.02
30.7256	1687.39
30.903	1684.77
31.0814	1682.13
31.2608	1679.5
31.4413	1676.87
31.6228	1674.24
31.8053	1671.6
31.989	1668.96
32.1736	1666.33
32.3594	1663.69
32.5462	1661.05
32.7341	1658.41
32.923	1655.77
33.1131	1653.12
33.3043	1650.48
33.4965	1647.83
33.6899	1645.18
33.8844	1642.53
34.08	1639.88
34.2768	1637.23
34.4747	1634.58
34.6737	1631.92
34.8739	1629.27
35.0752	1626.61
35.2777	1623.95
35.4813	1621.29
35.6862	1618.63
35.8922	1615.96
36.0994	1613.3
36.3078	1610.63
36.5174	1607.96
36.7282	1605.29
36.9403	1602.62
37.1535	1599.94
37.368	1597.27
37.5837	1594.59
37.8007	1591.91
38.0189	1589.23
38.2384	1586.55
38.4592	1583.86
38.6812	1581.17
38.9045	1578.49
39.1291	1575.79
39.355	1573.1
39.5822	1570.41
39.8107	1567.71
40.0405	1565.01
40.2717	1562.31
40.5042	1559.61
40.738	1556.9
40.9732	1554.2
41.2098	1551.49
41.4477	1548.78
41.6869	1546.06
41.9276	1543.35
42.1697	1540.63
42.4131	1537.91
42.658	1535.19
42.9042	1532.47
43.1519	1529.74
43.401	1527.01
43.6516	1524.28
43.9036	1521.55
44.157	1518.81
44.412	1516.08
44.6684	1513.34
44.9262	1510.6
45.1856	1507.85
45.4465	1505.11
45.7088	1502.36
45.9727	1499.61
46.2381	1496.85
46.505	1494.1
46.7735	1491.34
47.0435	1488.58
47.3151	1485.82
47.5883	1483.05
47.863	1479.83
48.1393	1476.53
48.4172	1473.24
48.6968	1469.96
48.9779	1466.67
49.2606	1463.39
49.545	1460.19
49.831	1456.91
50.1187	1453.62
50.4081	1450.34
50.6991	1447.06
50.9918	1443.78
51.2861	1440.5
51.5822	1437.22
51.88	1433.94
52.1795	1430.66
52.4807	1427.38
52.7837	1424.1
53.0884	1421.01
53.3949	1417.73
53.7032	1414.5
54.0132	1411.22
54.325	1407.95
54.6387	1404.67
54.9541	1401.39
55.2713	1398.11
55.5904	1394.83
55.9114	1391.55
56.2341	1388.28
56.5588	1385
56.8853	1381.73
57.2137	1378.45
57.544	1375.17
57.8762	1371.9
58.2103	1369.43
58.5464	1366.14
58.8844	1362.86
59.2243	1359.58
59.5662	1356.3
59.9101	1350.29
60.256	1347.2
60.6038	1343.88
60.9537	1340.55
61.3056	1337.23
61.6595	1333.9
62.0155	1330.58
62.3735	1327.27
62.7336	1323.95
63.0957	1320.63
63.46	1317.32
63.8263	1314
64.1948	1310.69
64.5654	1307.37
64.9382	1304.06
65.3131	1300.74
65.6901	1297.43
66.0693	1294.11
66.4508	1290.8
66.8344	1287.48
67.2202	1284.17
67.6083	1280.85
67.9986	1277.54
68.3912	1274.22
68.786	1270.91
69.1831	1267.59
69.5825	1264.28
69.9842	1260.96
70.3882	1257.65
70.7946	1254.33
71.2033	1251.81
71.6143	1248.49
72.0278	1245.18
72.4436	1241.86
72.8618	1238.54
73.2825	1235.23
73.7055	1231.91
74.131	1228.6
74.559	1225.28
74.9894	1221.96
75.4223	1218.65
75.8578	1215.34
76.2957	1212.02
76.7361	1208.71
77.1792	1205.4
77.6247	1202.09
78.0728	1198.78
78.5236	1195.47
78.9769	1192.17
79.4328	1188.86
79.8914	1185.56
80.3526	1182.25
80.8165	1179
81.2831	1175.7
81.7523	1172.4
82.2243	1169.1
82.699	1165.8
83.1764	1162.51
83.6566	1159.21
84.1395	1156.04
84.6253	1152.88
85.1138	1149.7
85.6052	1146.53
86.0994	1143.36
86.5964	1140.19
87.0964	1137.02
87.5992	1133.85
88.1049	1130.68
88.6135	1127.52
89.1251	1124.35
89.6396	1121.18
90.1571	1118.02
90.6776	1114.85
91.2011	1111.69
91.7276	1108.53
92.2571	1105.37
92.7897	1102.21
93.3254	1099.05
93.8642	1095.89
94.4061	1092.73
94.9511	1089.58
95.4993	1086.43
96.0506	1083.28
96.6051	1080.13
97.1628	1076.98
97.7237	1074.13
98.2879	1070.98
98.8553	1067.83
99.426	1064.69
100	1061.55
100.577	1058.4
101.158	1055.27
101.742	1052.13
102.329	1049
102.92	1045.87
103.514	1042.74
104.112	1039.61
104.713	1036.49
105.317	1033.37
105.925	1030.25
106.537	1027.14
107.152	1024.72
107.771	1021.61
108.393	1018.49
109.018	1015.38
109.648	1012.28
110.281	1009.18
110.917	1006.08
111.558	1002.98
112.202	999.887
112.85	997.38
113.501	994.289
114.156	991.202
114.815	988.119
115.478	985.039
116.145	981.962
116.815	978.89
117.49	975.821
118.168	972.757
118.85	969.697
119.536	966.639
120.226	963.587
120.921	960.538
121.619	957.492
122.321	954.451
123.027	951.414
123.737	948.381
124.451	945.352
125.17	942.327
125.893	939.306
126.619	936.29
127.35	933.278
128.086	930.27
128.825	927.267
129.569	924.267
130.317	921.272
131.069	918.282
131.826	915.296
132.587	912.315
133.352	909.337
134.122	906.364
134.896	903.414
135.675	900.45
136.458	897.49
137.246	894.726
138.038	891.772
138.835	888.824
139.637	885.879
140.443	882.939
141.254	880.002
142.069	877.073
142.889	874.147
143.714	871.226
144.544	868.309
145.378	865.397
146.218	862.49
147.062	859.588
147.911	856.69
148.765	853.797
149.624	850.91
150.487	848.027
151.356	845.148
152.23	842.275
153.109	839.406
153.993	836.543
154.882	833.684
155.776	830.83
156.675	827.982
157.58	825.138
158.489	822.299
159.404	819.465
160.325	816.637
161.25	813.813
162.181	810.994
163.117	808.181
164.059	805.373
165.006	802.569
165.959	799.771
166.917	796.978
167.88	794.19
168.85	791.408
169.824	788.631
170.805	785.859
171.791	783.092
172.783	780.331
173.78	777.575
174.783	774.824
175.792	772.078
176.807	769.338
177.828	766.603
178.855	764.12
179.887	761.392
180.926	758.669
181.97	755.951
183.021	753.239
184.077	750.532
185.14	747.83
186.209	745.135
187.284	742.444
188.365	739.759
189.452	737.091
190.546	734.417
191.646	731.748
192.752	729.085
193.865	726.427
194.984	723.775
196.11	721.129
197.242	718.489
198.381	715.855
199.526	713.227
200.678	710.604
201.837	707.986
203.002	705.374
204.174	702.768
205.353	700.167
206.538	697.572
207.73	694.983
208.93	692.4
210.136	689.822
211.349	687.25
212.569	684.683
213.796	682.123
215.03	679.568
216.272	677.019
217.52	674.476
218.776	671.939
220.039	669.407
221.309	666.881
222.587	664.361
223.872	661.847
225.165	659.339
226.464	656.837
227.772	654.34
229.087	651.85
230.409	649.365
231.739	646.887
233.077	644.414
234.423	641.948
235.776	639.487
237.137	637.032
238.506	634.584
239.883	632.141
241.268	629.705
242.661	627.274
244.062	624.85
245.471	622.431
246.888	620.019
248.313	617.613
249.747	615.213
251.189	612.973
252.639	610.583
254.097	608.2
255.564	605.823
257.04	603.451
258.523	601.086
260.016	598.727
261.517	596.374
263.027	594.028
264.545	591.687
266.073	589.353
267.609	587.026
269.153	584.705
270.707	582.39
272.27	580.081
273.842	577.778
275.423	575.482
277.013	573.193
278.612	570.909
280.221	568.632
281.838	566.361
283.465	564.097
285.102	561.839
286.748	559.588
288.403	557.343
290.068	555.104
291.743	552.872
293.427	550.646
295.121	548.427
296.825	546.214
298.538	544.007
300.262	541.808
301.995	539.614
303.739	537.427
305.492	535.247
307.256	533.073
309.03	530.905
310.814	528.744
312.608	526.589
314.413	524.441
316.228	522.299
318.053	520.164
319.89	518.035
321.736	515.912
323.594	513.797
325.462	511.687
327.341	509.585
329.23	507.488
331.131	505.399
333.043	503.315
334.965	501.239
336.899	499.168
338.844	497.105
340.8	495.048
342.768	492.997
344.747	490.953
346.737	488.915
348.739	486.884
350.752	484.86
352.777	482.842
354.813	480.83
356.862	478.825
358.922	476.826
360.994	474.834
363.078	472.849
365.174	470.871
367.282	468.899
369.403	466.934
371.535	464.975
373.68	463.022
375.837	461.076
378.007	459.137
380.189	457.204
382.384	455.277
384.592	453.357
386.812	451.444
389.045	449.537
391.291	447.636
393.55	445.742
395.822	443.854
398.107	441.973
400.405	440.099
402.717	438.23
405.042	436.369
407.38	434.513
409.732	432.664
412.098	430.822
414.477	428.985
416.869	427.156
419.276	425.332
421.697	423.515
424.131	421.704
426.58	419.9
429.042	418.102
431.519	416.311
434.01	414.525
436.516	412.747
439.036	410.974
441.57	409.208
444.12	407.448
446.684	405.694
449.262	403.947
451.856	402.206
454.465	400.471
457.088	398.743
459.727	397.021
462.381	395.305
465.05	393.595
467.735	391.892
470.435	390.195
473.151	388.504
475.883	386.819
478.63	385.14
481.393	383.468
484.172	381.802
486.968	380.142
489.779	378.488
492.606	376.841
495.45	375.199
498.31	373.564
501.187	371.935
504.081	370.312
506.991	368.695
509.918	367.084
512.861	365.48
515.822	363.881
518.8	362.289
521.795	360.702
524.807	359.122
527.837	357.548
530.884	355.979
533.949	354.417
537.032	352.861
540.132	351.31
543.25	349.766
546.387	348.228
549.541	346.695
552.713	345.169
555.904	343.649
559.114	342.134
562.341	340.625
565.588	339.123
568.853	337.626
572.137	336.135
575.44	334.65
578.762	333.171
582.103	331.698
585.464	330.23
588.844	328.768
592.243	327.313
595.662	325.863
599.101	324.418
602.56	322.98
606.038	321.547
609.537	320.12
613.056	318.699
616.595	317.283
620.155	315.874
623.735	314.47
627.336	313.072
630.957	311.679
634.6	310.292
638.263	308.911
641.948	307.535
645.654	306.165
649.382	304.801
653.131	303.442
656.901	302.089
660.693	300.741
664.508	299.399
668.344	298.062
672.202	296.731
676.083	295.406
679.986	294.086
683.912	292.771
687.86	291.462
691.831	290.158
695.825	288.86
699.842	287.567
703.882	286.28
707.946	284.998
712.033	283.721
716.143	282.45
720.278	281.184
724.436	279.924
728.618	278.669
732.825	277.419
737.055	276.174
741.31	274.935
745.59	273.701
749.894	272.472
754.223	271.249
758.578	270.03
762.957	268.817
767.361	267.609
771.792	266.407
776.247	265.209
780.728	264.017
785.236	262.83
789.769	261.647
794.328	260.47
798.914	259.298
803.526	258.132
808.165	256.97
812.831	255.813
817.523	254.661
822.243	253.514
826.99	252.373
831.764	251.236
836.566	250.104
841.395	248.977
846.253	247.855
851.138	246.738
856.052	245.626
860.994	244.519
865.964	243.416
870.964	242.319
875.992	241.226
881.049	240.138
886.135	239.055
891.251	237.977
896.396	236.903
901.571	235.834
906.776	234.77
912.011	233.711
917.276	232.656
922.571	231.606
927.897	230.561
933.254	229.521
938.642	228.485
944.061	227.453
949.511	226.427
954.993	225.405
960.506	224.387
966.051	223.374
971.628	222.366
977.237	221.362
982.879	220.363
988.553	219.368
994.26	218.378
1000	217.392
1005.77	216.41
1011.58	215.434
1017.42	214.461
1023.29	213.493
1029.2	212.529
1035.14	211.57
1041.12	210.615
1047.13	209.664
1053.17	208.718
1059.25	207.776
1065.37	206.839
1071.52	205.905
1077.71	204.976
1083.93	204.051
1090.18	203.131
1096.48	202.214
1102.81	201.302
1109.17	200.394
1115.58	199.491
1122.02	198.591
1128.5	197.695
1135.01	196.804
1141.56	195.917
1148.15	195.034
1154.78	194.155
1161.45	193.28
1168.15	192.409
1174.9	191.542
1181.68	190.679
1188.5	189.82
1195.36	188.966
1202.26	188.115
1209.21	187.268
1216.19	186.425
1223.21	185.586
1230.27	184.751
1237.37	183.92
1244.51	183.092
1251.7	182.269
1258.93	181.449
1266.19	180.634
1273.5	179.822
1280.86	179.014
1288.25	178.209
1295.69	177.409
1303.17	176.612
1310.69	175.819
1318.26	175.03
1325.87	174.245
1333.52	173.463
1341.22	172.685
1348.96	171.91
1356.75	171.14
1364.58	170.372
1372.46	169.609
1380.38	168.849
1388.35	168.093
1396.37	167.34
1404.43	166.591
1412.54	165.846
1420.69	165.104
1428.89	164.365
1437.14	163.63
1445.44	162.899
1453.78	162.171
1462.18	161.447
1470.62	160.726
1479.11	160.008
1487.65	159.294
1496.24	158.584
1504.87	157.876
1513.56	157.172
1522.3	156.472
1531.09	155.775
1539.93	155.081
1548.82	154.391
1557.76	153.704
1566.75	153.02
1575.8	152.339
1584.89	151.662
1594.04	150.988
1603.25	150.317
1612.5	149.65
1621.81	148.986
1631.17	148.325
1640.59	147.667
1650.06	147.012
1659.59	146.361
1669.17	145.713
1678.8	145.068
1688.5	144.426
1698.24	143.787
1708.05	143.151
1717.91	142.518
1727.83	141.889
1737.8	141.262
1747.83	140.638
1757.92	140.018
1768.07	139.401
1778.28	138.786
1788.55	138.175
1798.87	137.566
1809.26	136.961
1819.7	136.358
1830.21	135.759
1840.77	135.162
1851.4	134.569
1862.09	133.978
1872.84	133.39
1883.65	132.805
1894.52	132.223
1905.46	131.644
1916.46	131.067
1927.52	130.494
1938.65	129.923
1949.84	129.355
1961.1	128.79
1972.42	128.228
1983.81	127.668
1995.26	127.111
2006.78	126.557
2018.37	126.006
2030.02	125.457
2041.74	124.911
2053.53	124.368
2065.38	123.828
2077.3	123.29
2089.3	122.755
2101.36	122.222
2113.49	121.692
2125.69	121.165
2137.96	120.64
2150.3	120.118
2162.72	119.599
2175.2	119.082
2187.76	118.568
2200.39	118.056
2213.09	117.547
2225.87	117.041
2238.72	116.536
2251.65	116.035
2264.64	115.536
2277.72	115.039
2290.87	114.545
2304.09	114.054
2317.39	113.564
2330.77	113.078
2344.23	112.594
2357.76	112.112
2371.37	111.632
2385.06	111.155
2398.83	110.681
2412.68	110.208
2426.61	109.738
2440.62	109.271
2454.71	108.806
2468.88	108.343
2483.13	107.883
2497.47	107.424
2511.89	106.968
2526.39	106.515
2540.97	106.064
2555.64	105.615
2570.4	105.168
2585.23	104.723
2600.16	104.281
2615.17	103.841
2630.27	103.403
2645.45	102.968
2660.73	102.534
2676.09	102.103
2691.53	101.674
2707.07	101.248
2722.7	100.823
2738.42	100.4
2754.23	99.9801
2770.13	99.5619
2786.12	99.1459
2802.21	98.7319
2818.38	98.32
2834.65	97.9103
2851.02	97.5026
2867.48	97.097
2884.03	96.6935
2900.68	96.2921
2917.43	95.8926
2934.27	95.4953
2951.21	95.0999
2968.25	94.7066
2985.38	94.3153
3002.62	93.926
3019.95	93.5386
3037.39	93.1533
3054.92	92.7699
3072.56	92.3885
3090.3	92.0091
3108.14	91.6316
3126.08	91.256
3144.13	90.8824
3162.28	90.5107
3180.53	90.1409
3198.9	89.773
3217.36	89.407
3235.94	89.0429
3254.62	88.6806
3273.41	88.3203
3292.3	87.9617
3311.31	87.6051
3330.43	87.2503
3349.65	86.8973
3368.99	86.5461
3388.44	86.1967
3408	85.8492
3427.68	85.5034
3447.47	85.1595
3467.37	84.8173
3487.39	84.4769
3507.52	84.1383
3527.77	83.8014
3548.13	83.4663
3568.62	83.1329
3589.22	82.8012
3609.94	82.4713
3630.78	82.1431
3651.74	81.8166
3672.82	81.4918
3694.03	81.1686
3715.35	80.8472
3736.8	80.5275
3758.37	80.2094
3780.07	79.893
3801.89	79.5782
3823.84	79.2651
3845.92	78.9536
3868.12	78.6437
3890.45	78.3355
3912.91	78.0289
3935.5	77.7239
3958.22	77.4205
3981.07	77.1187
4004.05	76.8184
4027.17	76.5198
4050.42	76.2227
4073.8	75.9272
4097.32	75.6332
4120.98	75.3408
4144.77	75.05
4168.69	74.7606
4192.76	74.4728
4216.97	74.1865
4241.31	73.9017
4265.8	73.6185
4290.42	73.3367
4315.19	73.0564
4340.1	72.7776
4365.16	72.5003
4390.36	72.2245
4415.7	71.9501
4441.2	71.6771
4466.84	71.4057
4492.62	71.1356
4518.56	70.867
4544.65	70.5999
4570.88	70.3341
4597.27	70.0698
4623.81	69.8069
4650.5	69.5454
4677.35	69.2852
4704.35	69.0265
4731.51	68.7692
4758.83	68.5132
4786.3	68.2586
4813.93	68.0054
4841.72	67.7535
4869.68	67.503
4897.79	67.2538
4926.06	67.0059
4954.5	66.7594
4983.1	66.5142
5011.87	66.2704
5040.81	66.0278
5069.91	65.7866
5099.18	65.5467
5128.61	65.308
5158.22	65.0707
5188	64.8346
5217.95	64.5998
5248.07	64.3663
5278.37	64.134
5308.84	63.903
5339.49	63.6733
5370.32	63.4448
5401.32	63.2175
5432.5	62.9915
5463.87	62.7667
5495.41	62.5432
5527.13	62.3208
5559.04	62.0997
5591.14	61.8798
5623.41	61.6611
5655.88	61.4435
5688.53	61.2272
5721.37	61.0121
5754.4	60.7981
5787.62	60.5853
5821.03	60.3737
5854.64	60.1632
5888.44	59.9539
5922.43	59.7457
5956.62	59.5387
5991.01	59.3329
6025.6	59.1281
6060.38	58.9245
6095.37	58.7221
6130.56	58.5207
6165.95	58.3205
6201.55	58.1213
6237.35	57.9233
6273.36	57.7264
6309.57	57.5306
6346	57.3358
6382.63	57.1422
6419.48	56.9496
6456.54	56.7581
6493.82	56.5676
6531.31	56.3783
6569.01	56.19
6606.93	56.0027
6645.08	55.8165
6683.44	55.6313
6722.02	55.4472
6760.83	55.2641
6799.86	55.082
6839.12	54.901
6878.6	54.721
6918.31	54.542
6958.25	54.364
6998.42	54.187
7038.82	54.011
7079.46	53.8361
7120.33	53.6621
7161.43	53.4891
7202.78	53.317
7244.36	53.146
7286.18	52.9759
7328.25	52.8068
7370.55	52.6387
7413.1	52.4715
7455.9	52.3053
7498.94	52.14
7542.23	51.9757
7585.78	51.8123
7629.57	51.6498
7673.61	51.4883
7717.92	51.3278
7762.47	51.1681
7807.28	51.0094
7852.36	50.8515
7897.69	50.6946
7943.28	50.5386
7989.14	50.3835
8035.26	50.2293
8081.65	50.076
8128.31	49.9236
8175.23	49.7721
8222.43	49.6215
8269.9	49.4717
8317.64	49.3228
8365.66	49.1748
8413.95	49.0277
8462.53	48.8814
8511.38	48.736
8560.52	48.5914
8609.94	48.4477
8659.64	48.3048
8709.64	48.1628
8759.92	48.0216
8810.49	47.8812
8861.35	47.7417
8912.51	47.603
8963.96	47.4651
9015.71	47.3281
9067.76	47.1918
9120.11	47.0564
9172.76	46.9218
9225.71	46.788
9278.97	46.655
9332.54	46.5228
9386.42	46.3914
9440.61	46.2607
9495.11	46.1309
9549.93	46.0018
9605.06	45.8735
9660.51	45.746
9716.28	45.6193
9772.37	45.4933
9828.79	45.3681
9885.53	45.2437
9942.6	45.12
10000	44.9971
10057.7	44.8749
10115.8	44.7535
10174.2	44.6328
10232.9	44.5129
10292	44.3937
10351.4	44.2752
10411.2	44.1575
10471.3	44.0405
10531.7	43.9242
10592.5	43.8086
10653.7	43.6938
10715.2	43.5796
10777.1	43.4662
10839.3	43.3535
10901.8	43.2415
10964.8	43.1302
11028.1	43.0195
11091.7	42.9096
11155.8	42.8004
11220.2	42.6919
11285	42.584
11350.1	42.4768
11415.6	42.3703
11481.5	42.2645
11547.8	42.1594
11614.5	42.0549
11681.5	41.9511
11749	41.8479
11816.8	41.7455
11885	41.6436
11953.6	41.5425
12022.6	41.4419
12092.1	41.3421
12161.9	41.2428
12232.1	41.1443
12302.7	41.0463
12373.7	40.949
12445.1	40.8523
12517	40.7563
12589.3	40.6609
12661.9	40.5661
12735	40.4719
12808.6	40.3784
12882.5	40.2854
12956.9	40.1931
13031.7	40.1014
13106.9	40.0103
13182.6	39.9198
13258.7	39.8299
13335.2	39.7407
13412.2	39.652
13489.6	39.5639
13567.5	39.4764
13645.8	39.3894
13724.6	39.3031
13803.8	39.2174
13883.5	39.1322
13963.7	39.0476
14044.3	38.9636
14125.4	38.8802
14206.9	38.7973
14288.9	38.715
14371.4	38.6333
14454.4	38.5521
14537.8	38.4715
14621.8	38.3915
14706.2	38.312
14791.1	38.2331
14876.5	38.1547
14962.4	38.0768
15048.7	37.9995
15135.6	37.9228
15223	37.8466
15310.9	37.7709
15399.3	37.6958
15488.2	37.6212
15577.6	37.5471
15667.5	37.4736
15758	37.4005
15848.9	37.328
15940.4	37.2561
16032.5	37.1846
16125	37.1137
16218.1	37.0433
16311.7	36.9734
16405.9	36.904
16500.6	36.8351
16595.9	36.7667
16691.7	36.6988
16788	36.6314
16885	36.5645
16982.4	36.4981
17080.5	36.4322
17179.1	36.3668
17278.3	36.3019
17378	36.2375
17478.3	36.1736
17579.2	36.1101
17680.7	36.0471
17782.8	35.9846
17885.5	35.9226
17988.7	35.8611
18092.6	35.8
18197	35.7394
18302.1	35.6792
18407.7	35.6196
18514	35.5603
18620.9	35.5016
18728.4	35.4433
18836.5	35.3855
18945.2	35.3281
19054.6	35.2712
19164.6	35.2147
19275.2	35.1587
19386.5	35.1031
19498.4	35.048
19611	34.9933
19724.2	34.939
19838.1	34.8852
19952.6	34.8319
20067.8	34.7789
20183.7	34.7264
20300.2	34.6744
20417.4	34.6227
20535.3	34.5715
20653.8	34.5207
20773	34.4704
20893	34.4204
21013.6	34.3709
21134.9	34.3218
21256.9	34.2731
21379.6	34.2248
21503	34.177
21627.2	34.1295
21752	34.0825
21877.6	34.0358
22003.9	33.9896
22130.9	33.9438
22258.7	33.8983
22387.2	33.8533
22516.5	33.8087
22646.4	33.7644
22777.2	33.7206
22908.7	33.6771
23040.9	33.6341
23173.9	33.5907
23307.7	33.5449
23442.3	33.4994
23577.6	33.4543
23713.7	33.4095
23850.6	33.3652
23988.3	33.3212
24126.8	33.2776
24266.1	33.2343
24406.2	33.1915
24547.1	33.1489
24688.8	33.1068
24831.3	33.065
24974.7	33.0236
25118.9	32.9825
25263.9	32.9418
25409.7	32.9014
25556.4	32.8614
25704	32.8218
25852.3	32.7825
26001.6	32.7435
26151.7	32.7049
26302.7	32.6666
26454.5	32.6287
26607.3	32.5911
26760.9	32.5539
26915.3	32.517
27070.7	32.4804
27227	32.4442
27384.2	32.4083
27542.3	32.3727
27701.3	32.3375
27861.2	32.3025
28022.1	32.268
28183.8	32.2337
28346.5	32.1998
28510.2	32.1661
28674.8	32.1328
28840.3	32.0999
29006.8	32.0672
29174.3	32.0349
29342.7	32.0028
29512.1	31.9711
29682.5	31.9397
29853.8	31.9086
30026.2	31.8778
30199.5	31.8473
30373.9	31.8171
30549.2	31.7872
30725.6	31.7577
30903	31.7284
31081.4	31.6994
31260.8	31.6707
31441.3	31.6423
31622.8	31.6142
31805.3	31.5864
31989	31.5589
32173.6	31.5317
32359.4	31.5048
32546.2	31.4781
32734.1	31.4518
32923	31.4257
33113.1	31.3999
33304.3	31.3744
33496.5	31.3491
33689.9	31.3242
33884.4	31.2995
34080	31.2751
34276.8	31.2509
34474.7	31.2271
34673.7	31.2035
34873.9	31.1802
35075.2	31.1571
35277.7	31.1343
35481.3	31.1118
35686.2	31.0895
35892.2	31.0675
36099.4	31.0458
36307.8	31.0243
36517.4	31.0031
36728.2	30.9821
36940.3	30.9614
37153.5	30.941
37368	30.9208
37583.7	30.9008
37800.7	30.8811
38018.9	30.8617
38238.4	30.8425
38459.2	30.8235
38681.2	30.8048
38904.5	30.7863
39129.1	30.7681
39355	30.7501
39582.2	30.7324
39810.7	30.7149
40040.5	30.6976
40271.7	30.6806
40504.2	30.6638
40738	30.6472
40973.2	30.6309
41209.8	30.6148
41447.7	30.5989
41686.9	30.5833
41927.6	30.5678
42169.7	30.5526
42413.1	30.5377
42658	30.5229
42904.2	30.5084
43151.9	30.4941
43401	30.48
43651.6	30.4662
43903.6	30.4525
44157	30.4391
44412	30.4259
44668.4	30.4129
44926.2	30.4001
45185.6	30.3875
45446.5	30.3751
45708.8	30.363
45972.7	30.351
46238.1	30.3393
46505	30.3277
46773.5	30.3164
47043.5	30.3053
47315.1	30.2943
47588.3	30.2836
47863	30.2731
48139.3	30.2627
48417.2	30.2526
48696.8	30.2426
48977.9	30.2329
49260.6	30.2233
49545	30.214
49831	30.2048
50118.7	30.1958
50408.1	30.1871
50699.1	30.1785
50991.8	30.17
51286.1	30.1618
51582.2	30.1538
51880	30.1459
52179.5	30.1382
52480.7	30.1308
52783.7	30.1234
53088.4	30.1163
53394.9	30.1094
53703.2	30.1026
54013.2	30.096
54325	30.0896
54638.7	30.0833
54954.1	30.0772
55271.3	30.0713
55590.4	30.0656
55911.4	30.06
56234.1	30.0546
56558.8	30.0494
56885.3	30.0443
57213.7	30.0395
57544	30.0347
57876.2	30.0302
58210.3	30.0258
58546.4	30.0215
58884.4	30.0174
59224.3	30.0135
59566.2	30.0098
59910.1	30.0062
60256	30.0027
60603.8	29.9994
60953.7	29.9963
61305.6	29.9933
61659.5	29.9905
62015.5	29.9878
62373.5	29.9853
62733.6	29.9829
63095.7	29.9807
63460	29.9786
63826.3	29.9767
64194.8	29.9749
64565.4	29.9733
64938.2	29.9718
65313.1	29.9705
65690.1	29.9693
66069.3	29.9682
66450.8	29.9673
66834.4	29.9665
67220.2	29.9659
67608.3	29.9654
67998.6	29.965
68391.2	29.9648
68786	29.9647
69183.1	29.9647
69582.5	29.9649
69984.2	29.9652
70388.2	29.9656
70794.6	29.9662
71203.3	29.9669
71614.3	29.9677
72027.8	29.9687
72443.6	29.9698
72861.8	29.971
73282.5	29.9724
73705.5	29.9738
74131	29.9754
74559	29.9771
74989.4	29.979
75422.3	29.9809
75857.8	29.983
76295.7	29.9852
76736.1	29.9875
77179.2	29.99
77624.7	29.9925
78072.8	29.9952
78523.6	29.998
78976.9	30.0009
79432.8	30.0039
79891.4	30.007
80352.6	30.0103
80816.5	30.0136
81283.1	30.0171
81752.3	30.0207
82224.3	30.0244
82699	30.0282
83176.4	30.0321
83656.6	30.0361
84139.5	30.0402
84625.3	30.0444
85113.8	30.0488
85605.2	30.0532
86099.4	30.0577
86596.4	30.0624
87096.4	30.0671
87599.2	30.072
88104.9	30.0769
88613.5	30.082
89125.1	30.0871
89639.6	30.0924
90157.1	30.0977
90677.6	30.1031
91201.1	30.1087
91727.6	30.1143
92257.1	30.12
92789.7	30.1259
93325.4	30.1318
93864.2	30.1378
94406.1	30.1439
94951.1	30.1501
95499.3	30.1563
96050.6	30.1627
96605.1	30.1692
97162.8	30.1757
97723.7	30.1824
98287.9	30.1891
98855.3	30.1959
99426	30.2028
100000	30.2098
100577	30.2169
101158	30.224
101742	30.2313
102329	30.2386
102920	30.246
103514	30.2535
104112	30.261
104713	30.2687
105317	30.2764
105925	30.2842
106537	30.2921
107152	30.3001
107771	30.3081
108393	30.3162
109018	30.3244
109648	30.3327
110281	30.341
110917	30.3494
111558	30.3579
112202	30.3665
112850	30.3751
113501	30.3838
114156	30.3926
114815	30.4014
115478	30.4104
116145	30.4193
116815	30.4284
117490	30.4375
118168	30.4467
118850	30.456
119536	30.4653
120226	30.4747
120921	30.4842
121619	30.4937
122321	30.5033
123027	30.5129
123737	30.5226
124451	30.5324
125170	30.5423
125893	30.5522
126619	30.5621
127350	30.5722
128086	30.5822
128825	30.5924
129569	30.6026
130317	30.6129
131069	30.6232
131826	30.6336
132587	30.644
133352	30.6545
134122	30.6651
134896	30.6757
135675	30.6863
136458	30.697
137246	30.7078
138038	30.7186
138835	30.7295
139637	30.7404
140443	30.7514
141254	30.7625
142069	30.7736
142889	30.7847
143714	30.7959
144544	30.8071
145378	30.8184
146218	30.8298
147062	30.8411
147911	30.8526
148765	30.8641
149624	30.8756
150487	30.8872
151356	30.8988
152230	30.9105
153109	30.9222
153993	30.9339
154882	30.9457
155776	30.9576
156675	30.9695
157580	30.9814
158489	30.9934
159404	31.0054
160325	31.0175
161250	31.0296
162181	31.0418
163117	31.054
164059	31.0662
165006	31.0785
165959	31.0908
166917	31.1031
167880	31.1155
168850	31.128
169824	31.1404
170805	31.1529
171791	31.1655
172783	31.1781
173780	31.1907
174783	31.2033
175792	31.216
176807	31.2288
177828	31.2415
178855	31.2543
179887	31.2672
180926	31.28
181970	31.2929
183021	31.3059
184077	31.3188
185140	31.3318
186209	31.3449
187284	31.3579
188365	31.371
189452	31.3842
190546	31.3973
191646	31.4105
192752	31.4238
193865	31.437
194984	31.4503
196110	31.4636
197242	31.477
198381	31.4903
199526	31.5037
200678	31.5172
201837	31.5306
203002	31.5441
204174	31.5576
205353	31.5712
206538	31.5848
207730	31.5984
208930	31.612
210136	31.6256
211349	31.6393
212569	31.653
213796	31.6667
215030	31.6805
216272	31.6943
217520	31.7081
218776	31.7219
220039	31.7357
221309	31.7496
222587	31.7635
223872	31.7774
225165	31.7914
226464	31.8053
227772	31.8193
229087	31.8333
230409	31.8473
231739	31.8614
233077	31.8755
234423	31.8896
235776	31.9037
237137	31.9178
238506	31.932
239883	31.9461
241268	31.9603
242661	31.9745
244062	31.9888
245471	32.003
246888	32.0173
248313	32.0316
249747	32.0459
251189	32.0602
252639	32.0746
254097	32.0889
255564	32.1033
257040	32.1177
258523	32.1321
260016	32.1465
261517	32.161
263027	32.1754
264545	32.1899
266073	32.2044
267609	32.2189
269153	32.2334
270707	32.248
272270	32.2625
273842	32.2771
275423	32.2917
277013	32.3063
278612	32.3209
280221	32.3355
281838	32.3502
283465	32.3648
285102	32.3795
286748	32.3942
288403	32.4089
290068	32.4236
291743	32.4383
293427	32.453
295121	32.4678
296825	32.4825
298538	32.4973
300262	32.5121
301995	32.5268
303739	32.5417
305492	32.5565
307256	32.5713
309030	32.5861
310814	32.601
312608	32.6158
314413	32.6307
316228	32.6456
318053	32.6605
319890	32.6754
321736	32.6903
323594	32.7052
325462	32.7201
327341	32.735
329230	32.75
331131	32.7649
333043	32.7799
334965	32.7949
336899	32.8098
338844	32.8248
340800	32.8398
342768	32.8548
344747	32.8698
346737	32.8849
348739	32.8999
350752	32.9149
352777	32.9299
354813	32.945
356862	32.9601
358922	32.9751
360994	32.9902
363078	33.0053
365174	33.0203
367282	33.0354
369403	33.0505
371535	33.0656
373680	33.0807
375837	33.0958
378007	33.1109
380189	33.1261
382384	33.1412
384592	33.1563
386812	33.1715
389045	33.1866
391291	33.2018
393550	33.2169
395822	33.2321
398107	33.2472
400405	33.2624
402717	33.2776
405042	33.2927
407380	33.3079
409732	33.3231
412098	33.3383
414477	33.3535
416869	33.3687
419276	33.3839
421697	33.3991
424131	33.4143
426580	33.4295
429042	33.4447
431519	33.4599
434010	33.4751
436516	33.4903
439036	33.5056
441570	33.5208
444120	33.536
446684	33.5513
449262	33.5665
451856	33.5817
454465	33.597
457088	33.6122
459727	33.6274
462381	33.6427
465050	33.6579
467735	33.6732
470435	33.6884
473151	33.7037
475883	33.7189
478630	33.7342
481393	33.7494
484172	33.7647
486968	33.7799
489779	33.7952
492606	33.8104
495450	33.8257
498310	33.841
501187	33.8562
504081	33.8715
506991	33.8867
509918	33.902
512861	33.9173
515822	33.9325
518800	33.9478
521795	33.963
524807	33.9783
527837	33.9936
530884	34.0088
533949	34.0241
537032	34.0394
540132	34.0546
543250	34.0699
546387	34.0851
549541	34.1004
552713	34.1157
555904	34.1309
559114	34.1462
562341	34.1614
565588	34.1767
568853	34.1919
572137	34.2072
575440	34.2225
578762	34.2377
582103	34.253
585464	34.2682
588844	34.2835
592243	34.2987
595662	34.3139
599101	34.3292
602560	34.3444
606038	34.3597
609537	34.3749
613056	34.3902
616595	34.4054
620155	34.4206
623735	34.4359
627336	34.4511
630957	34.4663
634600	34.4815
638263	34.4968
641948	34.512
645654	34.5272
649382	34.5424
653131	34.5576
656901	34.5729
660693	34.5881
664508	34.6033
668344	34.6185
672202	34.6337
676083	34.6489
679986	34.6641
683912	34.6793
687860	34.6945
691831	34.7097
695825	34.7249
699842	34.74
703882	34.7552
707946	34.7704
712033	34.7856
716143	34.8007
720278	34.8159
724436	34.8311
728618	34.8462
732825	34.8614
737055	34.8766
741310	34.8917
745590	34.9069
749894	34.922
754223	34.9372
758578	34.9523
762957	34.9674
767361	34.9826
771792	34.9977
776247	35.0128
780728	35.028
785236	35.0431
789769	35.0582
794328	35.0733
798914	35.0884
803526	35.1035
808165	35.1186
812831	35.1337
817523	35.1488
822243	35.1639
826990	35.179
831764	35.1941
836566	35.2091
841395	35.2242
846253	35.2393
851138	35.2544
856052	35.2694
860994	35.2845
865964	35.2995
870964	35.3146
875992	35.3296
881049	35.3447
886135	35.3597
891251	35.3747
896396	35.3898
901571	35.4048
906776	35.4198
912011	35.4348
917276	35.4498
922571	35.4648
927897	35.4798
933254	35.4948
938642	35.5098
944061	35.5248
949511	35.5398
954993	35.5548
960506	35.5697
966051	35.5847
971628	35.5997
977237	35.6146
982879	35.6296
988553	35.6445
994260	35.6595
1e+06	35.6744
1.00577e+06	35.6894
1.01158e+06	35.7043
1.01742e+06	35.7192
1.02329e+06	35.7341
1.0292e+06	35.7491
1.03514e+06	35.764
1.04112e+06	35.7789
1.04713e+06	35.7938
1.05317e+06	35.8087
1.05925e+06	35.8236
1.06537e+06	35.8385
1.07152e+06	35.8533
1.07771e+06	35.8682
1.08393e+06	35.8831
1.09018e+06	35.8979
1.09648e+06	35.9128
1.10281e+06	35.9277
1.10917e+06	35.9425
1.11558e+06	35.9574
1.12202e+06	35.9722
1.1285e+06	35.987
1.13501e+06	36.0019
1.14156e+06	36.0167
1.14815e+06	36.0315
1.15478e+06	36.0463
1.16145e+06	36.0611
1.16815e+06	36.0759
1.1749e+06	36.0907
1.18168e+06	36.1055
1.1885e+06	36.1203
1.19536e+06	36.1351
1.20226e+06	36.1499
1.20921e+06	36.1647
1.21619e+06	36.1794
1.22321e+06	36.1942
1.23027e+06	36.2089
1.23737e+06	36.2237
1.24451e+06	36.2384
1.2517e+06	36.2532
1.25893e+06	36.2679
1.26619e+06	36.2826
1.2735e+06	36.2974
1.28086e+06	36.3121
1.28825e+06	36.3268
1.29569e+06	36.3415
1.30317e+06	36.3562
1.31069e+06	36.3709
1.31826e+06	36.3856
1.32587e+06	36.4003
1.33352e+06	36.4149
1.34122e+06	36.4296
1.34896e+06	36.4443
1.35675e+06	36.4589
1.36458e+06	36.4736
1.37246e+06	36.4883
1.38038e+06	36.5029
1.38835e+06	36.5175
1.39637e+06	36.5322
1.40443e+06	36.5468
1.41254e+06	36.5614
1.42069e+06	36.576
1.42889e+06	36.5906
1.43714e+06	36.6052
1.44544e+06	36.6198
1.45378e+06	36.6344
1.46218e+06	36.649
1.47062e+06	36.6636
1.47911e+06	36.6782
1.48765e+06	36.6928
1.49624e+06	36.7073
1.50487e+06	36.7219
1.51356e+06	36.7364
1.5223e+06	36.751
1.53109e+06	36.7655
1.53993e+06	36.7801
1.54882e+06	36.7946
1.55776e+06	36.8091
1.56675e+06	36.8236
1.5758e+06	36.8381
1.58489e+06	36.8526
1.59404e+06	36.8671
1.60325e+06	36.8816
1.6125e+06	36.8961
1.62181e+06	36.9106
1.63117e+06	36.9251
1.64059e+06	36.9395
1.65006e+06	36.954
1.65959e+06	36.9685
1.66917e+06	36.9829
1.6788e+06	36.9974
1.6885e+06	37.0118
1.69824e+06	37.0262
1.70805e+06	37.0407
1.71791e+06	37.0551
1.72783e+06	37.0695
1.7378e+06	37.0839
1.74783e+06	37.0983
1.75792e+06	37.1127
1.76807e+06	37.1271
1.77828e+06	37.1415
1.78855e+06	37.1559
1.79887e+06	37.1702
1.80926e+06	37.1846
1.8197e+06	37.199
1.83021e+06	37.2133
1.84077e+06	37.2277
1.8514e+06	37.242
1.86209e+06	37.2564
1.87284e+06	37.2707
1.88365e+06	37.285
1.89452e+06	37.2993
1.90546e+06	37.3136
1.91646e+06	37.3279
1.92752e+06	37.3422
1.93865e+06	37.3565
1.94984e+06	37.3708
1.9611e+06	37.3851
1.97242e+06	37.3994
1.98381e+06	37.4137
1.99526e+06	37.4279
2.00678e+06	37.4422
2.01837e+06	37.4564
2.03002e+06	37.4707
2.04174e+06	37.4849
2.05353e+06	37.4991
2.06538e+06	37.5134
2.0773e+06	37.5276
2.0893e+06	37.5418
2.10136e+06	37.556
2.11349e+06	37.5702
2.12569e+06	37.5844
2.13796e+06	37.5986
2.1503e+06	37.6128
2.16272e+06	37.6269
2.1752e+06	37.6411
2.18776e+06	37.6553
2.20039e+06	37.6694
2.21309e+06	37.6836
2.22587e+06	37.6977
2.23872e+06	37.7119
2.25165e+06	37.726
2.26464e+06	37.7401
2.27772e+06	37.7542
2.29087e+06	37.7684
2.30409e+06	37.7825
2.31739e+06	37.7966
2.33077e+06	37.8107
2.34423e+06	37.8247
2.35776e+06	37.8388
2.37137e+06	37.8529
2.38506e+06	37.867
2.39883e+06	37.881
2.41268e+06	37.8951
2.42661e+06	37.9091
2.44062e+06	37.9232
2.45471e+06	37.9372
2.46888e+06	37.9512
2.48313e+06	37.9653
2.49747e+06	37.9793
2.51189e+06	37.9933
2.52639e+06	38.0073
2.54097e+06	38.0213
2.55564e+06	38.0353
2.5704e+06	38.0493
2.58523e+06	38.0633
2.60016e+06	38.0772
2.61517e+06	38.0912
2.63027e+06	38.1052
2.64545e+06	38.1191
2.66073e+06	38.1331
2.67609e+06	38.147
2.69153e+06	38.1609
2.70707e+06	38.1749
2.7227e+06	38.1888
2.73842e+06	38.2027
2.75423e+06	38.2166
2.77013e+06	38.2305
2.78612e+06	38.2444
2.80221e+06	38.2583
2.81838e+06	38.2722
2.83465e+06	38.286
2.85102e+06	38.2999
2.86748e+06	38.3138
2.88403e+06	38.3276
2.90068e+06	38.3415
2.91743e+06	38.3553
2.93427e+06	38.3692
2.95121e+06	38.383
2.96825e+06	38.3968
2.98538e+06	38.4106
3.00262e+06	38.4244
3.01995e+06	38.4382
3.03739e+06	38.452
3.05492e+06	38.4658
3.07256e+06	38.4796
3.0903e+06	38.4934
3.10814e+06	38.5072
3.12608e+06	38.5209
3.14413e+06	38.5347
3.16228e+06	38.5484
3.18053e+06	38.5622
3.1989e+06	38.5759
3.21736e+06	38.5896
3.23594e+06	38.6034
3.25462e+06	38.6171
3.27341e+06	38.6308
3.2923e+06	38.6445
3.31131e+06	38.6582
3.33043e+06	38.6719
3.34965e+06	38.6856
3.36899e+06	38.6993
3.38844e+06	38.7129
3.408e+06	38.7266
3.42768e+06	38.7403
3.44747e+06	38.7539
3.46737e+06	38.7675
3.48739e+06	38.7812
3.50752e+06	38.7948
3.52777e+06	38.8084
3.54813e+06	38.8221
3.56862e+06	38.8357
3.58922e+06	38.8493
3.60994e+06	38.8629
3.63078e+06	38.8765
3.65174e+06	38.8901
3.67282e+06	38.9036
3.69403e+06	38.9172
3.71535e+06	38.9308
3.7368e+06	38.9443
3.75837e+06	38.9579
3.78007e+06	38.9714
3.80189e+06	38.985
3.82384e+06	38.9985
3.84592e+06	39.012
3.86812e+06	39.0255
3.89045e+06	39.039
3.91291e+06	39.0525
3.9355e+06	39.066
3.95822e+06	39.0795
3.98107e+06	39.093
4.00405e+06	39.1065
4.02717e+06	39.12
4.05042e+06	39.1334
4.0738e+06	39.1469
4.09732e+06	39.1603
4.12098e+06	39.1738
4.14477e+06	39.1872
4.16869e+06	39.2006
4.19276e+06	39.2141
4.21697e+06	39.2275
4.24131e+06	39.2409
4.2658e+06	39.2543
4.29042e+06	39.2677
4.31519e+06	39.2811
4.3401e+06	39.2945
4.36516e+06	39.3078
4.39036e+06	39.3212
4.4157e+06	39.3346
4.4412e+06	39.3479
4.46684e+06	39.3613
4.49262e+06	39.3746
4.51856e+06	39.3879
4.54465e+06	39.4013
4.57088e+06	39.4146
4.59727e+06	39.4279
4.62381e+06	39.4412
4.6505e+06	39.4545
4.67735e+06	39.4678
4.70435e+06	39.4811
4.73151e+06	39.4944
4.75883e+06	39.5076
4.7863e+06	39.5209
4.81393e+06	39.5341
4.84172e+06	39.5474
4.86968e+06	39.5606
4.89779e+06	39.5739
4.92606e+06	39.5871
4.9545e+06	39.6003
4.9831e+06	39.6135
5.01187e+06	39.6268
5.04081e+06	39.64
5.06991e+06	39.6531
5.09918e+06	39.6663
5.12861e+06	39.6795
5.15822e+06	39.6927
5.188e+06	39.7059
5.21795e+06	39.719
5.24807e+06	39.7322
5.27837e+06	39.7453
5.30884e+06	39.7585
5.33949e+06	39.7716
5.37032e+06	39.7847
5.40132e+06	39.7978
5.4325e+06	39.8109
5.46387e+06	39.824
5.49541e+06	39.8371
5.52713e+06	39.8502
5.55904e+06	39.8633
5.59114e+06	39.8764
5.62341e+06	39.8894
5.65588e+06	39.9025
5.68853e+06	39.9156
5.72137e+06	39.9286
5.7544e+06	39.9416
5.78762e+06	39.9547
5.82103e+06	39.9677
5.85464e+06	39.9807
5.88844e+06	39.9937
5.92243e+06	40.0067
5.95662e+06	40.0197
5.99101e+06	40.0327
6.0256e+06	40.0457
6.06038e+06	40.0587
6.09537e+06	40.0716
6.13056e+06	40.0846
6.16595e+06	40.0975
6.20155e+06	40.1105
6.23735e+06	40.1234
6.27336e+06	40.1364
6.30957e+06	40.1493
6.346e+06	40.1622
6.38263e+06	40.1751
6.41948e+06	40.188
6.45654e+06	40.2009
6.49382e+06	40.2138
6.53131e+06	40.2267
6.56901e+06	40.2396
6.60693e+06	40.2524
6.64508e+06	40.2653
6.68344e+06	40.2781
6.72202e+06	40.291
6.76083e+06	40.3038
6.79986e+06	40.3166
6.83912e+06	40.3295
6.8786e+06	40.3423
6.91831e+06	40.3551
6.95825e+06	40.3679
6.99842e+06	40.3807
7.03882e+06	40.3935
7.07946e+06	40.4062
7.12033e+06	40.419
7.16143e+06	40.4318
7.20278e+06	40.4445
7.24436e+06	40.4573
7.28618e+06	40.47
7.32825e+06	40.4828
7.37055e+06	40.4955
7.4131e+06	40.5082
7.4559e+06	40.5209
7.49894e+06	40.5336
7.54223e+06	40.5463
7.58578e+06	40.559
7.62957e+06	40.5717
7.67361e+06	40.5844
7.71792e+06	40.597
7.76247e+06	40.6097
7.80728e+06	40.6223
7.85236e+06	40.635
7.89769e+06	40.6476
7.94328e+06	40.6603
7.98914e+06	40.6729
8.03526e+06	40.6855
8.08165e+06	40.6981
8.12831e+06	40.7107
8.17523e+06	40.7233
8.22243e+06	40.7359
8.2699e+06	40.7485
8.31764e+06	40.761
8.36566e+06	40.7736
8.41395e+06	40.7861
8.46253e+06	40.7987
8.51138e+06	40.8112
8.56052e+06	40.8238
8.60994e+06	40.8363
8.65964e+06	40.8488
8.70964e+06	40.8613
8.75992e+06	40.8738
8.81049e+06	40.8863
8.86135e+06	40.8988
8.91251e+06	40.9113
8.96396e+06	40.9237
9.01571e+06	40.9362
9.06776e+06	40.9487
9.12011e+06	40.9611
9.17276e+06	40.9736
9.22571e+06	40.986
9.27897e+06	40.9984
9.33254e+06	41.0108
9.38642e+06	41.0232
9.44061e+06	41.0356
9.49511e+06	41.048
9.54993e+06	41.0604
9.60506e+06	41.0728
9.66051e+06	41.0852
9.71628e+06	41.0975
9.77237e+06	41.1099
9.82879e+06	41.1222
9.88553e+06	41.1346
9.9426e+06	41.1469
1e+07	41.1592
