Stopping power dEdx from Ionisation for mu- Z = 0 in G4_TISSUE_SOFT_ICRP, process name: muIoni
E [MeV]	dEdx [MeV/mm]
0.001	18.365
0.00100577	18.5599
0.00101158	18.7531
0.00101742	18.9445
0.00102329	19.1343
0.0010292	19.3224
0.00103514	19.5089
0.00104112	19.6939
0.00104713	19.8772
0.00105317	20.0589
0.00105925	20.2391
0.00106537	20.4179
0.00107152	20.5951
0.00107771	20.7711
0.00108393	20.9459
0.00109018	21.1187
0.00109648	21.2694
0.00110281	21.4165
0.00110917	21.5651
0.00111558	21.7128
0.00112202	21.8595
0.0011285	22.0052
0.00113501	22.1498
0.00114156	22.2935
0.00114815	22.4291
0.00115478	22.5611
0.00116145	22.6924
0.00116815	22.823
0.0011749	22.9529
0.00118168	23.0822
0.0011885	23.2107
0.00119536	23.3457
0.00120226	23.484
0.00120921	23.6218
0.00121619	23.7715
0.00122321	23.9272
0.00123027	24.0824
0.00123737	24.2365
0.00124451	24.3898
0.0012517	24.5421
0.00125893	24.6935
0.00126619	24.8444
0.0012735	24.9944
0.00128086	25.1437
0.00128825	25.2921
0.00129569	25.4397
0.00130317	25.5865
0.00131069	25.7538
0.00131826	25.9397
0.00132587	26.1241
0.00133352	26.3071
0.00134122	26.4888
0.00134896	26.6689
0.00135675	26.8477
0.00136458	27.0251
0.00137246	27.2012
0.00138038	27.3761
0.00138835	27.5497
0.00139637	27.728
0.00140443	27.906
0.00141254	28.0828
0.00142069	28.2591
0.00142889	28.4356
0.00143714	28.6108
0.00144544	28.7848
0.00145378	28.9579
0.00146218	29.1338
0.00147062	29.3066
0.00147911	29.4356
0.00148765	29.564
0.00149624	29.6918
0.00150487	29.8191
0.00151356	29.946
0.0015223	30.0723
0.00153109	30.1981
0.00153993	30.3235
0.00154882	30.4484
0.00155776	30.5728
0.00156675	30.6968
0.0015758	30.8203
0.00158489	30.9421
0.00159404	31.0661
0.00160325	31.1911
0.0016125	31.3157
0.00162181	31.4399
0.00163117	31.5638
0.00164059	31.7126
0.00165006	31.8689
0.00165959	32.0243
0.00166917	32.1789
0.0016788	32.3327
0.0016885	32.4877
0.00169824	32.6426
0.00170805	32.7987
0.00171791	32.9542
0.00172783	33.1089
0.0017378	33.2628
0.00174783	33.416
0.00175792	33.5684
0.00176807	33.7201
0.00177828	33.8711
0.00178855	34.0217
0.00179887	34.1729
0.00180926	34.3234
0.0018197	34.4732
0.00183021	34.6224
0.00184077	34.7709
0.0018514	34.9188
0.00186209	35.066
0.00187284	35.2126
0.00188365	35.3586
0.00189452	35.505
0.00190546	35.6525
0.00191646	35.7994
0.00192752	35.9456
0.00193865	36.0914
0.00194984	36.238
0.0019611	36.385
0.00197242	36.5412
0.00198381	36.6968
0.00199526	36.826
0.00200678	36.9518
0.00201837	37.0773
0.00203002	37.2025
0.00204174	37.3274
0.00205353	37.4521
0.00206538	37.5766
0.0020773	37.7009
0.0020893	37.8249
0.00210136	37.9488
0.00211349	38.0724
0.00212569	38.1958
0.00213796	38.3191
0.0021503	38.4421
0.00216272	38.5649
0.0021752	38.6876
0.00218776	38.8105
0.00220039	38.9335
0.00221309	39.0563
0.00222587	39.1786
0.00223872	39.3008
0.00225165	39.4228
0.00226464	39.5447
0.00227772	39.6664
0.00229087	39.7899
0.00230409	39.918
0.00231739	40.0459
0.00233077	40.1737
0.00234423	40.3013
0.00235776	40.4302
0.00237137	40.5597
0.00238506	40.689
0.00239883	40.8181
0.00241268	40.9471
0.00242661	41.073
0.00244062	41.1914
0.00245471	41.309
0.00246888	41.4266
0.00248313	41.5436
0.00249747	41.6563
0.00251189	41.7691
0.00252639	41.8831
0.00254097	41.9988
0.00255564	42.1144
0.0025704	42.2301
0.00258523	42.3457
0.00260016	42.4613
0.00261517	42.5772
0.00263027	42.6965
0.00264545	42.8157
0.00266073	42.9349
0.00267609	43.054
0.00269153	43.1732
0.00270707	43.2926
0.0027227	43.412
0.00273842	43.5314
0.00275423	43.6507
0.00277013	43.77
0.00278612	43.8892
0.00280221	44.0084
0.00281838	44.1275
0.00283465	44.2466
0.00285102	44.3622
0.00286748	44.4776
0.00288403	44.593
0.00290068	44.7084
0.00291743	44.8238
0.00293427	44.9393
0.00295121	45.0559
0.00296825	45.1732
0.00298538	45.2978
0.00300262	45.4311
0.00301995	45.5641
0.00303739	45.6977
0.00305492	45.8301
0.00307256	45.9622
0.0030903	46.094
0.00310814	46.2257
0.00312608	46.3572
0.00314413	46.4886
0.00316228	46.6213
0.00318053	46.7547
0.0031989	46.8878
0.00321736	47.0207
0.00323594	47.1533
0.00325462	47.2858
0.00327341	47.4107
0.0032923	47.5212
0.00331131	47.6318
0.00333043	47.7425
0.00334965	47.8531
0.00336899	47.9638
0.00338844	48.0744
0.003408	48.1851
0.00342768	48.2958
0.00344747	48.4066
0.00346737	48.5174
0.00348739	48.6221
0.00350752	48.7239
0.00352777	48.8259
0.00354813	48.9279
0.00356862	49.0301
0.00358922	49.1322
0.00360994	49.2344
0.00363078	49.3366
0.00365174	49.4433
0.00367282	49.5515
0.00369403	49.6596
0.00371535	49.7678
0.0037368	49.8759
0.00375837	49.984
0.00378007	50.0921
0.00380189	50.2015
0.00382384	50.3109
0.00384592	50.4203
0.00386812	50.5297
0.00389045	50.639
0.00391291	50.7483
0.0039355	50.8575
0.00395822	50.9667
0.00398107	51.0628
0.00400405	51.1446
0.00402717	51.227
0.00405042	51.3115
0.0040738	51.3965
0.00409732	51.4793
0.00412098	51.5604
0.00414477	51.6421
0.00416869	51.7241
0.00419276	51.8067
0.00421697	51.8897
0.00424131	51.9727
0.0042658	52.053
0.00429042	52.1334
0.00431519	52.2141
0.0043401	52.2952
0.00436516	52.3767
0.00439036	52.4586
0.0044157	52.5411
0.0044412	52.6245
0.00446684	52.7081
0.00449262	52.7825
0.00451856	52.8573
0.00454465	52.9326
0.00457088	53.0082
0.00459727	53.0843
0.00462381	53.1607
0.0046505	53.2375
0.00467735	53.3147
0.00470435	53.3921
0.00473151	53.4702
0.00475883	53.5487
0.0047863	53.6275
0.00481393	53.7067
0.00484172	53.7862
0.00486968	53.8586
0.00489779	53.9293
0.00492606	54.0099
0.0049545	54.092
0.0049831	54.1729
0.00501187	54.2534
0.00504081	54.3343
0.00506991	54.4159
0.00509918	54.4977
0.00512861	54.5798
0.00515822	54.6621
0.005188	54.7445
0.00521795	54.8272
0.00524807	54.9102
0.00527837	54.9933
0.00530884	55.0766
0.00533949	55.16
0.00537032	55.2437
0.00540132	55.3288
0.0054325	55.4141
0.00546387	55.4979
0.00549541	55.5796
0.00552713	55.6611
0.00555904	55.7428
0.00559114	55.8246
0.00562341	55.9066
0.00565588	55.9887
0.00568853	56.0711
0.00572137	56.1527
0.0057544	56.2267
0.00578762	56.3008
0.00582103	56.3752
0.00585464	56.4497
0.00588844	56.5243
0.00592243	56.5991
0.00595662	56.6733
0.00599101	56.7264
0.0060256	56.7798
0.00606038	56.8324
0.00609537	56.8836
0.00613056	56.9349
0.00616595	56.9866
0.00620155	57.0386
0.00623735	57.091
0.00627336	57.1437
0.00630957	57.1966
0.006346	57.2484
0.00638263	57.3006
0.00641948	57.353
0.00645654	57.4058
0.00649382	57.4589
0.00653131	57.5123
0.00656901	57.5512
0.00660693	57.5892
0.00664508	57.6278
0.00668344	57.6669
0.00672202	57.7068
0.00676083	57.7483
0.00679986	57.7903
0.00683912	57.8327
0.0068786	57.8757
0.00691831	57.9191
0.00695825	57.9655
0.00699842	58.0193
0.00703882	58.0734
0.00707946	58.1278
0.00712033	58.1824
0.00716143	58.2372
0.00720278	58.2922
0.00724436	58.3474
0.00728618	58.3993
0.00732825	58.4467
0.00737055	58.4895
0.0074131	58.5276
0.0074559	58.5659
0.00749894	58.6047
0.00754223	58.6437
0.00758578	58.6832
0.00762957	58.723
0.00767361	58.7632
0.00771792	58.8036
0.00776247	58.8443
0.00780728	58.8853
0.00785236	58.9266
0.00789769	58.9679
0.00794328	59.0081
0.00798914	59.0319
0.00803526	59.0562
0.00808165	59.0815
0.00812831	59.1078
0.00817523	59.1338
0.00822243	59.1563
0.0082699	59.1791
0.00831764	59.2023
0.00836566	59.2259
0.00841395	59.2499
0.00846253	59.2742
0.00851138	59.3006
0.00856052	59.3285
0.00860994	59.3567
0.00865964	59.3852
0.00870964	59.4139
0.00875992	59.4429
0.00881049	59.4722
0.00886135	59.502
0.00891251	59.5321
0.00896396	59.5633
0.00901571	59.5953
0.00906776	59.6274
0.00912011	59.6596
0.00917276	59.692
0.00922571	59.7245
0.00927897	59.7571
0.00933254	59.7898
0.00938642	59.8226
0.00944061	59.856
0.00949511	59.8903
0.00954993	59.9248
0.00960506	59.9593
0.00966051	59.9939
0.00971628	60.0258
0.00977237	60.054
0.00982879	60.0732
0.00988553	60.0828
0.0099426	60.0894
0.01	60.0881
0.0100577	60.0872
0.0101158	60.0869
0.0101742	60.0869
0.0102329	60.0874
0.010292	60.0881
0.0103514	60.0893
0.0104112	60.0907
0.0104713	60.0924
0.0105317	60.0945
0.0105925	60.0969
0.0106537	60.0996
0.0107152	60.1027
0.0107771	60.1063
0.0108393	60.1103
0.0109018	60.1146
0.0109648	60.1192
0.0110281	60.1242
0.0110917	60.1283
0.0111558	60.1326
0.0112202	60.1371
0.011285	60.1419
0.0113501	60.1471
0.0114156	60.1527
0.0114815	60.1612
0.0115478	60.1709
0.0116145	60.1807
0.0116815	60.1907
0.011749	60.2007
0.0118168	60.2108
0.011885	60.221
0.0119536	60.2206
0.0120226	60.2134
0.0120921	60.2064
0.0121619	60.197
0.0122321	60.1861
0.0123027	60.1752
0.0123737	60.1646
0.0124451	60.1542
0.012517	60.1441
0.0125893	60.1344
0.0126619	60.124
0.012735	60.1135
0.0128086	60.1032
0.0128825	60.0931
0.0129569	60.0833
0.0130317	60.0735
0.0131069	60.0569
0.0131826	60.0332
0.0132587	60.0098
0.0133352	59.9867
0.0134122	59.9638
0.0134896	59.9404
0.0135675	59.9172
0.0136458	59.8942
0.0137246	59.8715
0.0138038	59.8492
0.0138835	59.8271
0.0139637	59.7939
0.0140443	59.7585
0.0141254	59.7236
0.0142069	59.6886
0.0142889	59.6532
0.0143714	59.6181
0.0144544	59.5833
0.0145378	59.5488
0.0146218	59.508
0.0147062	59.4668
0.0147911	59.4244
0.0148765	59.3824
0.0149624	59.3479
0.0150487	59.3153
0.0151356	59.2831
0.015223	59.2511
0.0153109	59.2194
0.0153993	59.1879
0.0154882	59.1566
0.0155776	59.1255
0.0156675	59.0945
0.015758	59.0638
0.0158489	59.0323
0.0159404	58.9942
0.0160325	58.9522
0.016125	58.9104
0.0162181	58.8688
0.0163117	58.8275
0.0164059	58.7793
0.0165006	58.7286
0.0165959	58.6781
0.0166917	58.628
0.016788	58.5782
0.016885	58.5281
0.0169824	58.4772
0.0170805	58.4224
0.0171791	58.3674
0.0172783	58.3128
0.017378	58.2585
0.0174783	58.2045
0.0175792	58.151
0.0176807	58.098
0.0177828	58.0454
0.0178855	57.9916
0.0179887	57.9307
0.0180926	57.8702
0.018197	57.8108
0.0183021	57.754
0.0184077	57.6978
0.018514	57.6418
0.0186209	57.5862
0.0187284	57.5309
0.0188365	57.4759
0.0189452	57.4204
0.0190546	57.3639
0.0191646	57.3076
0.0192752	57.2516
0.0193865	57.1958
0.0194984	57.1362
0.019611	57.0759
0.0197242	56.9994
0.0198381	56.9233
0.0199526	56.848
0.0200678	56.7732
0.0201837	56.6988
0.0203002	56.6249
0.0204174	56.5512
0.0205353	56.4777
0.0206538	56.4045
0.020773	56.3316
0.020893	56.2589
0.0210136	56.1864
0.0211349	56.1142
0.0212569	56.0423
0.0213796	55.9706
0.021503	55.8991
0.0216272	55.828
0.021752	55.757
0.0218776	55.6845
0.0220039	55.6105
0.0221309	55.5365
0.0222587	55.4627
0.0223872	55.3891
0.0225165	55.3159
0.0226464	55.243
0.0227772	55.1703
0.0229087	55.0945
0.0230409	55.009
0.0231739	54.9238
0.0233077	54.8389
0.0234423	54.7543
0.0235776	54.6696
0.0237137	54.5848
0.0238506	54.5003
0.0239883	54.4162
0.0241268	54.3324
0.0242661	54.2488
0.0244062	54.1649
0.0245471	54.0831
0.0246888	54.0064
0.0248313	53.929
0.0249747	53.8415
0.0251189	53.7544
0.0252639	53.6671
0.0254097	53.5791
0.0255564	53.4914
0.025704	53.4039
0.0258523	53.3168
0.0260016	53.23
0.0261517	53.1429
0.0263027	53.046
0.0264545	52.9494
0.0266073	52.8532
0.0267609	52.7573
0.0269153	52.6615
0.0270707	52.5657
0.027227	52.4701
0.0273842	52.3749
0.0275423	52.2801
0.0277013	52.1856
0.0278612	52.0915
0.0280221	51.9977
0.0281838	51.9042
0.0283465	51.8111
0.0285102	51.7179
0.0286748	51.625
0.0288403	51.5324
0.0290068	51.4401
0.0291743	51.3482
0.0293427	51.2566
0.0295121	51.1605
0.0296825	51.0611
0.0298538	50.9592
0.0300262	50.8533
0.0301995	50.748
0.0303739	50.6404
0.0305492	50.5306
0.0307256	50.421
0.030903	50.3119
0.0310814	50.2032
0.0312608	50.095
0.0314413	49.9872
0.0316228	49.879
0.0318053	49.7708
0.031989	49.6631
0.0321736	49.5558
0.0323594	49.449
0.0325462	49.3426
0.0327341	49.2356
0.032923	49.126
0.0331131	49.0169
0.0333043	48.9081
0.0334965	48.7997
0.0336899	48.6911
0.0338844	48.5826
0.03408	48.4744
0.0342768	48.3666
0.0344747	48.2593
0.0346737	48.1523
0.0348739	48.0426
0.0350752	47.9313
0.0352777	47.8206
0.0354813	47.7103
0.0356862	47.6005
0.0358922	47.4911
0.0360994	47.3821
0.0363078	47.2735
0.0365174	47.1632
0.0367282	47.0523
0.0369403	46.9418
0.0371535	46.8318
0.037368	46.7221
0.0375837	46.613
0.0378007	46.5042
0.0380189	46.394
0.0382384	46.284
0.0384592	46.1745
0.0386812	46.0654
0.0389045	45.9567
0.0391291	45.8485
0.039355	45.7407
0.0395822	45.6333
0.0398107	45.5249
0.0400405	45.4147
0.0402717	45.305
0.0405042	45.1943
0.040738	45.0839
0.0409732	44.9687
0.0412098	44.8484
0.0414477	44.7285
0.0416869	44.6092
0.0419276	44.4903
0.0421697	44.3719
0.0424131	44.2541
0.042658	44.1348
0.0429042	44.0158
0.0431519	43.8973
0.043401	43.7794
0.0436516	43.6619
0.0439036	43.545
0.044157	43.4285
0.044412	43.3109
0.0446684	43.1938
0.0449262	43.0746
0.0451856	42.9558
0.0454465	42.8374
0.0457088	42.7196
0.0459727	42.6024
0.0462381	42.4856
0.046505	42.3695
0.0467735	42.2538
0.0470435	42.1386
0.0473151	42.0234
0.0475883	41.9092
0.047863	41.7956
0.0481393	41.6824
0.0484172	41.5698
0.0486968	41.4566
0.0489779	41.3434
0.0492606	41.225
0.049545	41.1056
0.049831	40.9849
0.0501187	40.8635
0.0504081	40.7427
0.0506991	40.6212
0.0509918	40.5001
0.0512861	40.3796
0.0515822	40.2596
0.05188	40.1402
0.0521795	40.0214
0.0524807	39.903
0.0527837	39.7852
0.0530884	39.668
0.0533949	39.5513
0.0537032	39.4352
0.0540132	39.3185
0.054325	39.2022
0.0546387	39.0861
0.0549541	38.9697
0.0552713	38.8538
0.0555904	38.7385
0.0559114	38.6236
0.0562341	38.5094
0.0565588	38.3957
0.0568853	38.2821
0.0572137	38.1684
0.057544	38.0502
0.0578762	37.9326
0.0582103	37.8156
0.0585464	37.6991
0.0588844	37.5832
0.0592243	37.4678
0.0595662	37.353
0.0599101	37.236
0.060256	37.1193
0.0606038	37.003
0.0609537	36.8856
0.0613056	36.7686
0.0616595	36.6521
0.0620155	36.5363
0.0623735	36.421
0.0627336	36.3061
0.0630957	36.1917
0.06346	36.077
0.0638263	35.9628
0.0641948	35.8492
0.0645654	35.7361
0.0649382	35.6235
0.0653131	35.5115
0.0656901	35.3973
0.0660693	35.2827
0.0664508	35.1687
0.0668344	35.0552
0.0672202	34.9422
0.0676083	34.8288
0.0679986	34.7159
0.0683912	34.6035
0.068786	34.4917
0.0691831	34.3805
0.0695825	34.2696
0.0699842	34.1572
0.0703882	34.0455
0.0707946	33.9343
0.0712033	33.8237
0.0716143	33.7136
0.0720278	33.6041
0.0724436	33.4951
0.0728618	33.3863
0.0732825	33.2771
0.0737055	33.1675
0.074131	33.0565
0.074559	32.946
0.0749894	32.836
0.0754223	32.7267
0.0758578	32.6178
0.0762957	32.5094
0.0767361	32.4016
0.0771792	32.2944
0.0776247	32.1876
0.0780728	32.0815
0.0785236	31.9758
0.0789769	31.8703
0.0794328	31.7644
0.0798914	31.6575
0.0803526	31.551
0.0808165	31.4444
0.0812831	31.3372
0.0817523	31.2305
0.0822243	31.1214
0.082699	31.0127
0.0831764	30.9046
0.0836566	30.797
0.0841395	30.6899
0.0846253	30.5834
0.0851138	30.477
0.0856052	30.3707
0.0860994	30.2648
0.0865964	30.1595
0.0870964	30.0547
0.0875992	29.9505
0.0881049	29.8468
0.0886135	29.7434
0.0891251	29.6406
0.0896396	29.5379
0.0901571	29.4348
0.0906776	29.3323
0.0912011	29.2303
0.0917276	29.1289
0.0922571	29.0279
0.0927897	28.9275
0.0933254	28.8276
0.0938642	28.7282
0.0944061	28.6285
0.0949511	28.5282
0.0954993	28.428
0.0960506	28.3284
0.0966051	28.2292
0.0971628	28.1304
0.0977237	28.0316
0.0982879	27.9325
0.0988553	27.8317
0.099426	27.7313
0.1	27.63
0.100577	27.5292
0.101158	27.4291
0.101742	27.3296
0.102329	27.2306
0.10292	27.1321
0.103514	27.0341
0.104112	26.9367
0.104713	26.8397
0.105317	26.7431
0.105925	26.6471
0.106537	26.5516
0.107152	26.4566
0.107771	26.3617
0.108393	26.2666
0.109018	26.172
0.109648	26.0775
0.110281	25.9833
0.110917	25.8891
0.111558	25.7952
0.112202	25.7019
0.11285	25.609
0.113501	25.5166
0.114156	25.4245
0.114815	25.332
0.115478	25.2387
0.116145	25.1459
0.116815	25.0537
0.11749	24.9619
0.118168	24.8705
0.11885	24.7797
0.119536	24.6889
0.120226	24.5975
0.120921	24.5067
0.121619	24.4153
0.122321	24.324
0.123027	24.2331
0.123737	24.1427
0.124451	24.0527
0.12517	23.9632
0.125893	23.8741
0.126619	23.7851
0.12735	23.6963
0.128086	23.608
0.128825	23.5201
0.129569	23.4328
0.130317	23.3458
0.131069	23.259
0.131826	23.1713
0.132587	23.084
0.133352	22.9973
0.134122	22.911
0.134896	22.8246
0.135675	22.7382
0.136458	22.6523
0.137246	22.5669
0.138038	22.4819
0.138835	22.3973
0.139637	22.3127
0.140443	22.2279
0.141254	22.1437
0.142069	22.0599
0.142889	21.9761
0.143714	21.8929
0.144544	21.81
0.145378	21.7276
0.146218	21.6453
0.147062	21.5631
0.147911	21.4805
0.148765	21.398
0.149624	21.3159
0.150487	21.2342
0.151356	21.1528
0.15223	21.0717
0.153109	20.991
0.153993	20.9108
0.154882	20.8309
0.155776	20.7515
0.156675	20.6725
0.15758	20.5939
0.158489	20.5154
0.159404	20.437
0.160325	20.3585
0.16125	20.2804
0.162181	20.2026
0.163117	20.1253
0.164059	20.0479
0.165006	19.97
0.165959	19.8926
0.166917	19.8155
0.16788	19.7388
0.16885	19.6619
0.169824	19.5849
0.170805	19.508
0.171791	19.4314
0.172783	19.3552
0.17378	19.2795
0.174783	19.2041
0.175792	19.1291
0.176807	19.0543
0.177828	18.9798
0.178855	18.9058
0.179887	18.8316
0.180926	18.7577
0.18197	18.6842
0.183021	18.6111
0.184077	18.5384
0.18514	18.466
0.186209	18.3941
0.187284	18.3225
0.188365	18.2513
0.189452	18.1805
0.190546	18.1097
0.191646	18.0393
0.192752	17.9692
0.193865	17.8995
0.194984	17.83
0.19611	17.7608
0.197242	17.691
0.198381	17.6211
0.199526	17.5512
0.200678	17.4808
0.201837	17.4121
0.203002	17.3419
0.204174	17.2719
0.205353	17.2021
0.206538	17.1326
0.20773	17.0633
0.20893	16.9923
0.210136	16.9234
0.211349	16.8547
0.212569	16.7862
0.213796	16.7179
0.21503	16.6498
0.216272	16.5822
0.21752	16.5146
0.218776	16.4472
0.220039	16.38
0.221309	16.313
0.222587	16.2462
0.223872	16.1797
0.225165	16.1134
0.226464	16.0473
0.227772	15.9814
0.229087	15.9157
0.230409	15.8502
0.231739	15.785
0.233077	15.72
0.234423	15.6561
0.235776	15.5915
0.237137	15.5271
0.238506	15.463
0.239883	15.399
0.241268	15.3353
0.242661	15.2718
0.244062	15.2085
0.245471	15.1454
0.246888	15.0826
0.248313	15.0199
0.249747	14.9575
0.251189	14.8973
0.252639	14.8352
0.254097	14.774
0.255564	14.7125
0.25704	14.6511
0.258523	14.5899
0.260016	14.529
0.261517	14.4682
0.263027	14.4077
0.264545	14.3474
0.266073	14.2873
0.267609	14.2275
0.269153	14.1678
0.270707	14.1083
0.27227	14.0491
0.273842	13.99
0.275423	13.9395
0.277013	13.8808
0.278612	13.8223
0.280221	13.764
0.281838	13.7059
0.283465	13.6202
0.285102	13.5646
0.286748	13.5067
0.288403	13.449
0.290068	13.3916
0.291743	13.3344
0.293427	13.2774
0.295121	13.2207
0.296825	13.1641
0.298538	13.1078
0.300262	13.0516
0.301995	12.9957
0.303739	12.94
0.305492	12.8845
0.307256	12.8292
0.30903	12.774
0.310814	12.7191
0.312608	12.6645
0.314413	12.61
0.316228	12.5557
0.318053	12.5016
0.31989	12.4477
0.321736	12.394
0.323594	12.3405
0.325462	12.2872
0.327341	12.2342
0.32923	12.1813
0.331131	12.1286
0.333043	12.0761
0.334965	12.0238
0.336899	11.9794
0.338844	11.9274
0.3408	11.8757
0.342768	11.8242
0.344747	11.7728
0.346737	11.7217
0.348739	11.6707
0.350752	11.62
0.352777	11.5694
0.354813	11.519
0.356862	11.4688
0.358922	11.4189
0.360994	11.3691
0.363078	11.3195
0.365174	11.2701
0.367282	11.2208
0.369403	11.1718
0.371535	11.123
0.37368	11.0743
0.375837	11.0259
0.378007	10.9776
0.380189	10.9295
0.382384	10.8821
0.384592	10.8344
0.386812	10.7869
0.389045	10.7395
0.391291	10.6924
0.39355	10.6454
0.395822	10.5987
0.398107	10.5532
0.400405	10.5079
0.402717	10.4627
0.405042	10.4177
0.40738	10.3728
0.409732	10.3282
0.412098	10.2836
0.414477	10.2393
0.416869	10.1951
0.419276	10.1511
0.421697	10.1072
0.424131	10.0635
0.42658	10.02
0.429042	9.97662
0.431519	9.93341
0.43401	9.89036
0.436516	9.84747
0.439036	9.80474
0.44157	9.76218
0.44412	9.71977
0.446684	9.67752
0.449262	9.63543
0.451856	9.5935
0.454465	9.55173
0.457088	9.51011
0.459727	9.46866
0.462381	9.42997
0.46505	9.38879
0.467735	9.34777
0.470435	9.30689
0.473151	9.26618
0.475883	9.22561
0.47863	9.18522
0.481393	9.14497
0.484172	9.10487
0.486968	9.06493
0.489779	9.02515
0.492606	8.98551
0.49545	8.94603
0.49831	8.90671
0.501187	8.86755
0.504081	8.83459
0.506991	8.79565
0.509918	8.75686
0.512861	8.71823
0.515822	8.67975
0.5188	8.64142
0.521795	8.60324
0.524807	8.56521
0.527837	8.52733
0.530884	8.4896
0.533949	8.45202
0.537032	8.41459
0.540132	8.3773
0.54325	8.34017
0.546387	8.30318
0.549541	8.26634
0.552713	8.22965
0.555904	8.1931
0.559114	8.1567
0.562341	8.12045
0.565588	8.08434
0.568853	8.04838
0.572137	8.01256
0.57544	7.97688
0.578762	7.94135
0.582103	7.90596
0.585464	7.87071
0.588844	7.8356
0.592243	7.80064
0.595662	7.76581
0.599101	7.73114
0.60256	7.6966
0.606038	7.6622
0.609537	7.62794
0.613056	7.59382
0.616595	7.55984
0.620155	7.526
0.623735	7.49229
0.627336	7.45873
0.630957	7.4253
0.6346	7.39201
0.638263	7.359
0.641948	7.32598
0.645654	7.2931
0.649382	7.2619
0.653131	7.22926
0.656901	7.19676
0.660693	7.16439
0.664508	7.13215
0.668344	7.10004
0.672202	7.06807
0.676083	7.03624
0.679986	7.00454
0.683912	6.97296
0.68786	6.94152
0.691831	6.91021
0.695825	6.87903
0.699842	6.84798
0.703882	6.81706
0.707946	6.78627
0.712033	6.75561
0.716143	6.72507
0.720278	6.69467
0.724436	6.66439
0.728618	6.63424
0.732825	6.60422
0.737055	6.57432
0.74131	6.54455
0.74559	6.5149
0.749894	6.48538
0.754223	6.45599
0.758578	6.42672
0.762957	6.39757
0.767361	6.36855
0.771792	6.33965
0.776247	6.31087
0.780728	6.28222
0.785236	6.25368
0.789769	6.22527
0.794328	6.19698
0.798914	6.16881
0.803526	6.14077
0.808165	6.11284
0.812831	6.08503
0.817523	6.05734
0.822243	6.02976
0.82699	6.00231
0.831764	5.97497
0.836566	5.94775
0.841395	5.92065
0.846253	5.89557
0.851138	5.86867
0.856052	5.84188
0.860994	5.8152
0.865964	5.78864
0.870964	5.7622
0.875992	5.73587
0.881049	5.70965
0.886135	5.68355
0.891251	5.65756
0.896396	5.63177
0.901571	5.606
0.906776	5.58035
0.912011	5.5548
0.917276	5.52937
0.922571	5.50405
0.927897	5.47884
0.933254	5.45374
0.938642	5.42875
0.944061	5.40388
0.949511	5.37911
0.954993	5.35445
0.960506	5.32989
0.966051	5.30544
0.971628	5.2811
0.977237	5.25687
0.982879	5.23274
0.988553	5.20872
0.99426	5.1848
1	5.16099
1.00577	5.13728
1.01158	5.11368
1.01742	5.09018
1.02329	5.06678
1.0292	5.04348
1.03514	5.02029
1.04112	4.9972
1.04713	4.97421
1.05317	4.95132
1.05925	4.92853
1.06537	4.90585
1.07152	4.88326
1.07771	4.86077
1.08393	4.83838
1.09018	4.8161
1.09648	4.7939
1.10281	4.77181
1.10917	4.74982
1.11558	4.72792
1.12202	4.70612
1.1285	4.68441
1.13501	4.66281
1.14156	4.6413
1.14815	4.61988
1.15478	4.59856
1.16145	4.57733
1.16815	4.5562
1.1749	4.53516
1.18168	4.51422
1.1885	4.49451
1.19536	4.47373
1.20226	4.45305
1.20921	4.43246
1.21619	4.41196
1.22321	4.39155
1.23027	4.37123
1.23737	4.35101
1.24451	4.33087
1.2517	4.31083
1.25893	4.29087
1.26619	4.271
1.2735	4.25123
1.28086	4.23154
1.28825	4.21194
1.29569	4.19242
1.30317	4.173
1.31069	4.15366
1.31826	4.13441
1.32587	4.11524
1.33352	4.09616
1.34122	4.07717
1.34896	4.05826
1.35675	4.03944
1.36458	4.02071
1.37246	4.00205
1.38038	3.98348
1.38835	3.965
1.39637	3.9466
1.40443	3.92828
1.41254	3.91004
1.42069	3.89189
1.42889	3.87382
1.43714	3.85583
1.44544	3.83793
1.45378	3.8201
1.46218	3.80235
1.47062	3.78469
1.47911	3.7671
1.48765	3.74959
1.49624	3.73217
1.50487	3.71482
1.51356	3.69755
1.5223	3.68036
1.53109	3.66325
1.53993	3.64621
1.54882	3.62926
1.55776	3.61238
1.56675	3.59557
1.5758	3.57885
1.58489	3.5622
1.59404	3.54562
1.60325	3.52912
1.6125	3.5127
1.62181	3.49635
1.63117	3.48008
1.64059	3.46388
1.65006	3.44776
1.65959	3.4317
1.66917	3.41573
1.6788	3.39982
1.6885	3.38399
1.69824	3.36822
1.70805	3.35253
1.71791	3.33692
1.72783	3.32138
1.7378	3.30591
1.74783	3.29051
1.75792	3.27519
1.76807	3.25993
1.77828	3.24474
1.78855	3.22962
1.79887	3.21458
1.80926	3.1996
1.8197	3.18469
1.83021	3.16984
1.84077	3.15507
1.8514	3.14036
1.86209	3.12572
1.87284	3.11115
1.88365	3.09665
1.89452	3.08221
1.90546	3.06784
1.91646	3.05354
1.92752	3.0393
1.93865	3.02513
1.94984	3.01102
1.9611	2.99697
1.97242	2.983
1.98381	2.96908
1.99526	2.95523
2.00678	2.94145
2.01837	2.92773
2.03002	2.91407
2.04174	2.90047
2.05353	2.88694
2.06538	2.87347
2.0773	2.86006
2.0893	2.84672
2.10136	2.83343
2.11349	2.82021
2.12569	2.80705
2.13796	2.79395
2.1503	2.78092
2.16272	2.76794
2.1752	2.75502
2.18776	2.74216
2.20039	2.72936
2.21309	2.71663
2.22587	2.70395
2.23872	2.69133
2.25165	2.67876
2.26464	2.66626
2.27772	2.65382
2.29087	2.64143
2.30409	2.6291
2.31739	2.61683
2.33077	2.60462
2.34423	2.59246
2.35776	2.58036
2.37137	2.56831
2.38506	2.55633
2.39883	2.54439
2.41268	2.53252
2.42661	2.5207
2.44062	2.50893
2.45471	2.49722
2.46888	2.48557
2.48313	2.47397
2.49747	2.46242
2.51189	2.45093
2.52639	2.43949
2.54097	2.4281
2.55564	2.41677
2.5704	2.40549
2.58523	2.39427
2.60016	2.3831
2.61517	2.37198
2.63027	2.36091
2.64545	2.34989
2.66073	2.33893
2.67609	2.32802
2.69153	2.31715
2.70707	2.30634
2.7227	2.29558
2.73842	2.28488
2.75423	2.27422
2.77013	2.26361
2.78612	2.25305
2.80221	2.24254
2.81838	2.23208
2.83465	2.22168
2.85102	2.21132
2.86748	2.201
2.88403	2.19074
2.90068	2.18052
2.91743	2.17036
2.93427	2.16024
2.95121	2.15017
2.96825	2.14015
2.98538	2.13017
3.00262	2.12025
3.01995	2.11037
3.03739	2.10053
3.05492	2.09075
3.07256	2.081
3.0903	2.07131
3.10814	2.06166
3.12608	2.05206
3.14413	2.0425
3.16228	2.03299
3.18053	2.02352
3.1989	2.0141
3.21736	2.00473
3.23594	1.99539
3.25462	1.9861
3.27341	1.97686
3.2923	1.96766
3.31131	1.9585
3.33043	1.94939
3.34965	1.94032
3.36899	1.93129
3.38844	1.92231
3.408	1.91337
3.42768	1.90447
3.44747	1.89562
3.46737	1.8868
3.48739	1.87803
3.50752	1.8693
3.52777	1.86062
3.54813	1.85197
3.56862	1.84337
3.58922	1.8348
3.60994	1.82628
3.63078	1.8178
3.65174	1.80936
3.67282	1.80096
3.69403	1.7926
3.71535	1.78428
3.7368	1.77599
3.75837	1.76775
3.78007	1.75955
3.80189	1.75139
3.82384	1.74327
3.84592	1.73518
3.86812	1.72714
3.89045	1.71913
3.91291	1.71116
3.9355	1.70323
3.95822	1.69534
3.98107	1.68749
4.00405	1.67967
4.02717	1.67189
4.05042	1.66415
4.0738	1.65645
4.09732	1.64878
4.12098	1.64115
4.14477	1.63355
4.16869	1.626
4.19276	1.61848
4.21697	1.61099
4.24131	1.60355
4.2658	1.59613
4.29042	1.58876
4.31519	1.58142
4.3401	1.57411
4.36516	1.56684
4.39036	1.5596
4.4157	1.5524
4.4412	1.54524
4.46684	1.53811
4.49262	1.53101
4.51856	1.52395
4.54465	1.51692
4.57088	1.50993
4.59727	1.50297
4.62381	1.49604
4.6505	1.48915
4.67735	1.48229
4.70435	1.47546
4.73151	1.46867
4.75883	1.46191
4.7863	1.45518
4.81393	1.44849
4.84172	1.44183
4.86968	1.4352
4.89779	1.4286
4.92606	1.42203
4.9545	1.4155
4.9831	1.409
5.01187	1.40253
5.04081	1.39609
5.06991	1.38968
5.09918	1.38331
5.12861	1.37696
5.15822	1.37065
5.188	1.36436
5.21795	1.35811
5.24807	1.35189
5.27837	1.3457
5.30884	1.33953
5.33949	1.3334
5.37032	1.3273
5.40132	1.32123
5.4325	1.31519
5.46387	1.30917
5.49541	1.30319
5.52713	1.29723
5.55904	1.29131
5.59114	1.28541
5.62341	1.27954
5.65588	1.27371
5.68853	1.26789
5.72137	1.26211
5.7544	1.25636
5.78762	1.25063
5.82103	1.24494
5.85464	1.23927
5.88844	1.23362
5.92243	1.22801
5.95662	1.22242
5.99101	1.21686
6.0256	1.21133
6.06038	1.20583
6.09537	1.20035
6.13056	1.1949
6.16595	1.18948
6.20155	1.18408
6.23735	1.17871
6.27336	1.17336
6.30957	1.16804
6.346	1.16275
6.38263	1.15749
6.41948	1.15225
6.45654	1.14703
6.49382	1.14184
6.53131	1.13668
6.56901	1.13154
6.60693	1.12643
6.64508	1.12134
6.68344	1.11628
6.72202	1.11124
6.76083	1.10623
6.79986	1.10124
6.83912	1.09628
6.8786	1.09134
6.91831	1.08643
6.95825	1.08154
6.99842	1.07667
7.03882	1.07183
7.07946	1.06702
7.12033	1.06222
7.16143	1.05745
7.20278	1.05271
7.24436	1.04798
7.28618	1.04328
7.32825	1.03861
7.37055	1.03396
7.4131	1.02933
7.4559	1.02472
7.49894	1.02013
7.54223	1.01557
7.58578	1.01103
7.62957	1.00652
7.67361	1.00203
7.71792	0.997554
7.76247	0.993105
7.80728	0.988678
7.85236	0.984273
7.89769	0.97989
7.94328	0.975529
7.98914	0.971189
8.03526	0.966871
8.08165	0.962575
8.12831	0.9583
8.17523	0.954046
8.22243	0.949814
8.2699	0.945602
8.31764	0.941412
8.36566	0.937243
8.41395	0.933094
8.46253	0.928966
8.51138	0.924859
8.56052	0.920772
8.60994	0.916705
8.65964	0.912659
8.70964	0.908634
8.75992	0.904628
8.81049	0.900642
8.86135	0.896677
8.91251	0.892731
8.96396	0.888805
9.01571	0.884898
9.06776	0.881012
9.12011	0.877144
9.17276	0.873296
9.22571	0.869468
9.27897	0.865658
9.33254	0.861868
9.38642	0.858097
9.44061	0.854345
9.49511	0.850611
9.54993	0.846897
9.60506	0.843201
9.66051	0.839523
9.71628	0.835864
9.77237	0.832224
9.82879	0.828602
9.88553	0.824998
9.9426	0.821412
10	0.817844
10.0577	0.814295
10.1158	0.810763
10.1742	0.807249
10.2329	0.803753
10.292	0.800274
10.3514	0.796813
10.4112	0.79337
10.4713	0.789944
10.5317	0.786535
10.5925	0.783143
10.6537	0.779769
10.7152	0.776412
10.7771	0.773071
10.8393	0.769748
10.9018	0.766441
10.9648	0.763151
11.0281	0.759878
11.0917	0.756622
11.1558	0.753382
11.2202	0.750158
11.285	0.746951
11.3501	0.74376
11.4156	0.740585
11.4815	0.737427
11.5478	0.734284
11.6145	0.731158
11.6815	0.728047
11.749	0.724952
11.8168	0.721873
11.885	0.71881
11.9536	0.715762
12.0226	0.71273
12.0921	0.709713
12.1619	0.706712
12.2321	0.703726
12.3027	0.700755
12.3737	0.6978
12.4451	0.694859
12.517	0.691934
12.5893	0.689023
12.6619	0.686128
12.735	0.683247
12.8086	0.680381
12.8825	0.677529
12.9569	0.674693
13.0317	0.67187
13.1069	0.669063
13.1826	0.666269
13.2587	0.66349
13.3352	0.660726
13.4122	0.657975
13.4896	0.655239
13.5675	0.652516
13.6458	0.649808
13.7246	0.647113
13.8038	0.644433
13.8835	0.641766
13.9637	0.639113
14.0443	0.636474
14.1254	0.633848
14.2069	0.631236
14.2889	0.628637
14.3714	0.626051
14.4544	0.62348
14.5378	0.620921
14.6218	0.618375
14.7062	0.615843
14.7911	0.613324
14.8765	0.610818
14.9624	0.608324
15.0487	0.605844
15.1356	0.603377
15.223	0.600922
15.3109	0.59848
15.3993	0.596051
15.4882	0.593634
15.5776	0.59123
15.6675	0.588838
15.758	0.586459
15.8489	0.584093
15.9404	0.581738
16.0325	0.579396
16.125	0.577066
16.2181	0.574748
16.3117	0.572442
16.4059	0.570148
16.5006	0.567866
16.5959	0.565597
16.6917	0.563338
16.788	0.561092
16.885	0.558858
16.9824	0.556635
17.0805	0.554424
17.1791	0.552224
17.2783	0.550036
17.378	0.547859
17.4783	0.545694
17.5792	0.54354
17.6807	0.541398
17.7828	0.539266
17.8855	0.537146
17.9887	0.535037
18.0926	0.53294
18.197	0.530853
18.3021	0.528777
18.4077	0.526712
18.514	0.524658
18.6209	0.522615
18.7284	0.520582
18.8365	0.518561
18.9452	0.51655
19.0546	0.514549
19.1646	0.51256
19.2752	0.51058
19.3865	0.508612
19.4984	0.506653
19.611	0.504705
19.7242	0.502768
19.8381	0.50084
19.9526	0.498923
20.0678	0.497016
20.1837	0.495119
20.3002	0.493233
20.4174	0.491356
20.5353	0.489489
20.6538	0.487632
20.773	0.485786
20.893	0.483949
21.0136	0.482121
21.1349	0.480304
21.2569	0.478496
21.3796	0.476698
21.503	0.47491
21.6272	0.473131
21.752	0.471362
21.8776	0.469602
22.0039	0.467851
22.1309	0.46611
22.2587	0.464379
22.3872	0.462656
22.5165	0.460943
22.6464	0.459239
22.7772	0.457545
22.9087	0.455859
23.0409	0.454183
23.1739	0.452515
23.3077	0.450857
23.4423	0.449207
23.5776	0.447567
23.7137	0.445935
23.8506	0.444312
23.9883	0.442698
24.1268	0.441093
24.2661	0.439496
24.4062	0.437908
24.5471	0.436329
24.6888	0.434758
24.8313	0.433196
24.9747	0.431642
25.1189	0.430097
25.2639	0.42856
25.4097	0.427032
25.5564	0.425512
25.704	0.424
25.8523	0.422497
26.0016	0.421002
26.1517	0.419515
26.3027	0.418036
26.4545	0.416565
26.6073	0.415102
26.7609	0.413648
26.9153	0.412201
27.0707	0.410762
27.227	0.409331
27.3842	0.407909
27.5423	0.406493
27.7013	0.405086
27.8612	0.403687
28.0221	0.402295
28.1838	0.400911
28.3465	0.399535
28.5102	0.398166
28.6748	0.396805
28.8403	0.395451
29.0068	0.394105
29.1743	0.392767
29.3427	0.391436
29.5121	0.390112
29.6825	0.388796
29.8538	0.387487
30.0262	0.386185
30.1995	0.384891
30.3739	0.383604
30.5492	0.382324
30.7256	0.381051
30.903	0.379785
31.0814	0.378527
31.2608	0.377276
31.4413	0.376031
31.6228	0.374794
31.8053	0.373563
31.989	0.37234
32.1736	0.371124
32.3594	0.369914
32.5462	0.368711
32.7341	0.367515
32.923	0.366326
33.1131	0.365144
33.3043	0.363968
33.4965	0.362799
33.6899	0.361637
33.8844	0.360481
34.08	0.359332
34.2768	0.358189
34.4747	0.357053
34.6737	0.355924
34.8739	0.354801
35.0752	0.353684
35.2777	0.352574
35.4813	0.35147
35.6862	0.350373
35.8922	0.349281
36.0994	0.348197
36.3078	0.347118
36.5174	0.346046
36.7282	0.34498
36.9403	0.34392
37.1535	0.342866
37.368	0.341818
37.5837	0.340777
37.8007	0.339741
38.0189	0.338712
38.2384	0.337688
38.4592	0.336671
38.6812	0.335659
38.9045	0.334654
39.1291	0.333654
39.355	0.33266
39.5822	0.331672
39.8107	0.33069
40.0405	0.329714
40.2717	0.328743
40.5042	0.327778
40.738	0.326819
40.9732	0.325865
41.2098	0.324917
41.4477	0.323975
41.6869	0.323039
41.9276	0.322108
42.1697	0.321182
42.4131	0.320262
42.658	0.319348
42.9042	0.318439
43.1519	0.317535
43.401	0.316637
43.6516	0.315744
43.9036	0.314857
44.157	0.313975
44.412	0.313098
44.6684	0.312227
44.9262	0.311361
45.1856	0.3105
45.4465	0.309645
45.7088	0.308794
45.9727	0.307949
46.2381	0.307109
46.505	0.306274
46.7735	0.305444
47.0435	0.304619
47.3151	0.3038
47.5883	0.302985
47.863	0.302176
48.1393	0.301371
48.4172	0.300571
48.6968	0.299777
48.9779	0.298987
49.2606	0.298202
49.545	0.297422
49.831	0.296647
50.1187	0.295876
50.4081	0.295111
50.6991	0.29435
50.9918	0.293594
51.2861	0.292843
51.5822	0.292097
51.88	0.291355
52.1795	0.290618
52.4807	0.289885
52.7837	0.289157
53.0884	0.288434
53.3949	0.287716
53.7032	0.287002
54.0132	0.286292
54.325	0.285587
54.6387	0.284887
54.9541	0.284191
55.2713	0.2835
55.5904	0.282813
55.9114	0.28213
56.2341	0.281452
56.5588	0.280778
56.8853	0.280109
57.2137	0.279444
57.544	0.278783
57.8762	0.278127
58.2103	0.277475
58.5464	0.276827
58.8844	0.276183
59.2243	0.275544
59.5662	0.274909
59.9101	0.274278
60.256	0.273651
60.6038	0.273028
60.9537	0.27241
61.3056	0.271796
61.6595	0.271185
62.0155	0.270579
62.3735	0.269977
62.7336	0.269379
63.0957	0.268785
63.46	0.268195
63.8263	0.267609
64.1948	0.267027
64.5654	0.266449
64.9382	0.265875
65.3131	0.265304
65.6901	0.264738
66.0693	0.264176
66.4508	0.263617
66.8344	0.263062
67.2202	0.262511
67.6083	0.261964
67.9986	0.261421
68.3912	0.260881
68.786	0.260346
69.1831	0.259814
69.5825	0.259285
69.9842	0.258761
70.3882	0.25824
70.7946	0.257723
71.2033	0.257209
71.6143	0.256699
72.0278	0.256193
72.4436	0.25569
72.8618	0.255191
73.2825	0.254696
73.7055	0.254204
74.131	0.253715
74.559	0.25323
74.9894	0.252749
75.4223	0.252271
75.8578	0.251797
76.2957	0.251326
76.7361	0.250859
77.1792	0.250395
77.6247	0.249934
78.0728	0.249477
78.5236	0.249023
78.9769	0.248573
79.4328	0.248126
79.8914	0.247682
80.3526	0.247242
80.8165	0.246804
81.2831	0.246371
81.7523	0.24594
82.2243	0.245513
82.699	0.245089
83.1764	0.244668
83.6566	0.244251
84.1395	0.243837
84.6253	0.243426
85.1138	0.243018
85.6052	0.242613
86.0994	0.242211
86.5964	0.241813
87.0964	0.241418
87.5992	0.241025
88.1049	0.240636
88.6135	0.24025
89.1251	0.239867
89.6396	0.239487
90.1571	0.239111
90.6776	0.238737
91.2011	0.238366
91.7276	0.237998
92.2571	0.237633
92.7897	0.237272
93.3254	0.236913
93.8642	0.236557
94.4061	0.236204
94.9511	0.235854
95.4993	0.235506
96.0506	0.235162
96.6051	0.234821
97.1628	0.234482
97.7237	0.234147
98.2879	0.233814
98.8553	0.233484
99.426	0.233157
100	0.232832
100.577	0.232511
101.158	0.232192
101.742	0.231876
102.329	0.231563
102.92	0.231252
103.514	0.230944
104.112	0.230639
104.713	0.230337
105.317	0.230037
105.925	0.22974
106.537	0.229446
107.152	0.229154
107.771	0.228865
108.393	0.228578
109.018	0.228295
109.648	0.228008
110.281	0.227704
110.917	0.227404
111.558	0.227105
112.202	0.226809
112.85	0.226516
113.501	0.226225
114.156	0.225937
114.815	0.225651
115.478	0.225368
116.145	0.225087
116.815	0.224808
117.49	0.224532
118.168	0.224258
118.85	0.223987
119.536	0.223718
120.226	0.223452
120.921	0.223188
121.619	0.222926
122.321	0.222666
123.027	0.222409
123.737	0.222154
124.451	0.221902
125.17	0.221652
125.893	0.221404
126.619	0.221158
127.35	0.220915
128.086	0.220674
128.825	0.220435
129.569	0.220199
130.317	0.219964
131.069	0.219732
131.826	0.219502
132.587	0.219274
133.352	0.219049
134.122	0.218825
134.896	0.218604
135.675	0.218385
136.458	0.218168
137.246	0.217953
138.038	0.217741
138.835	0.21753
139.637	0.217321
140.443	0.217115
141.254	0.216911
142.069	0.216708
142.889	0.216508
143.714	0.21631
144.544	0.216114
145.378	0.215919
146.218	0.215727
147.062	0.215537
147.911	0.215349
148.765	0.215163
149.624	0.214979
150.487	0.214796
151.356	0.214616
152.23	0.214438
153.109	0.214261
153.993	0.214087
154.882	0.213914
155.776	0.213744
156.675	0.213575
157.58	0.213408
158.489	0.213243
159.404	0.21308
160.325	0.212918
161.25	0.212759
162.181	0.212601
163.117	0.212445
164.059	0.212291
165.006	0.212139
165.959	0.211989
166.917	0.21184
167.88	0.211693
168.85	0.211548
169.824	0.211405
170.805	0.211264
171.791	0.211124
172.783	0.210986
173.78	0.210849
174.783	0.210715
175.792	0.210582
176.807	0.210451
177.828	0.210321
178.855	0.210193
179.887	0.210067
180.926	0.209942
181.97	0.209819
183.021	0.209698
184.077	0.209579
185.14	0.209461
186.209	0.209344
187.284	0.209229
188.365	0.209116
189.452	0.209005
190.546	0.208895
191.646	0.208786
192.752	0.208679
193.865	0.208574
194.984	0.20847
196.11	0.208368
197.242	0.208267
198.381	0.208168
199.526	0.20807
200.678	0.207974
201.837	0.20788
203.002	0.207786
204.174	0.207695
205.353	0.207604
206.538	0.207516
207.73	0.207428
208.93	0.207343
210.136	0.207258
211.349	0.207175
212.569	0.207094
213.796	0.207013
215.03	0.206935
216.272	0.206857
217.52	0.206781
218.776	0.206707
220.039	0.206634
221.309	0.206562
222.587	0.206491
223.872	0.206422
225.165	0.206354
226.464	0.206288
227.772	0.206223
229.087	0.206159
230.409	0.206096
231.739	0.206035
233.077	0.205975
234.423	0.205917
235.776	0.20586
237.137	0.205803
238.506	0.205749
239.883	0.205695
241.268	0.205643
242.661	0.205592
244.062	0.205542
245.471	0.205494
246.888	0.205446
248.313	0.2054
249.747	0.205355
251.189	0.205312
252.639	0.205269
254.097	0.205228
255.564	0.205188
257.04	0.205149
258.523	0.205111
260.016	0.205074
261.517	0.205039
263.027	0.205005
264.545	0.204971
266.073	0.204939
267.609	0.204908
269.153	0.204879
270.707	0.20485
272.27	0.204822
273.842	0.204796
275.423	0.20477
277.013	0.204746
278.612	0.204723
280.221	0.2047
281.838	0.204679
283.465	0.204659
285.102	0.20464
286.748	0.204622
288.403	0.204605
290.068	0.204589
291.743	0.204574
293.427	0.204561
295.121	0.204548
296.825	0.204536
298.538	0.204525
300.262	0.204515
301.995	0.204506
303.739	0.204498
305.492	0.204491
307.256	0.204485
309.03	0.20448
310.814	0.204476
312.608	0.204473
314.413	0.204471
316.228	0.20447
318.053	0.204469
319.89	0.20447
321.736	0.204472
323.594	0.204474
325.462	0.204477
327.341	0.204481
329.23	0.204487
331.131	0.204493
333.043	0.2045
334.965	0.204507
336.899	0.204516
338.844	0.204525
340.8	0.204536
342.768	0.204547
344.747	0.204559
346.737	0.204572
348.739	0.204586
350.752	0.2046
352.777	0.204615
354.813	0.204632
356.862	0.204649
358.922	0.204666
360.994	0.204685
363.078	0.204704
365.174	0.204725
367.282	0.204745
369.403	0.204767
371.535	0.20479
373.68	0.204813
375.837	0.204837
378.007	0.204862
380.189	0.204887
382.384	0.204914
384.592	0.204941
386.812	0.204968
389.045	0.204997
391.291	0.205026
393.55	0.205056
395.822	0.205087
398.107	0.205118
400.405	0.20515
402.717	0.205183
405.042	0.205216
407.38	0.20525
409.732	0.205285
412.098	0.205321
414.477	0.205357
416.869	0.205394
419.276	0.205431
421.697	0.205469
424.131	0.205508
426.58	0.205547
429.042	0.205587
431.519	0.205628
434.01	0.205669
436.516	0.205711
439.036	0.205754
441.57	0.205797
444.12	0.205841
446.684	0.205886
449.262	0.205931
451.856	0.205976
454.465	0.206022
457.088	0.206069
459.727	0.206117
462.381	0.206165
465.05	0.206213
467.735	0.206262
470.435	0.206312
473.151	0.206362
475.883	0.206413
478.63	0.206465
481.393	0.206517
484.172	0.206569
486.968	0.206622
489.779	0.206676
492.606	0.20673
495.45	0.206784
498.31	0.206839
501.187	0.206895
504.081	0.206951
506.991	0.207008
509.918	0.207065
512.861	0.207123
515.822	0.207181
518.8	0.20724
521.795	0.207299
524.807	0.207359
527.837	0.207419
530.884	0.207479
533.949	0.20754
537.032	0.207602
540.132	0.207664
543.25	0.207727
546.387	0.207789
549.541	0.207853
552.713	0.207917
555.904	0.207981
559.114	0.208046
562.341	0.208111
565.588	0.208177
568.853	0.208243
572.137	0.208309
575.44	0.208376
578.762	0.208443
582.103	0.208511
585.464	0.208579
588.844	0.208648
592.243	0.208717
595.662	0.208786
599.101	0.208856
602.56	0.208926
606.038	0.208997
609.537	0.209068
613.056	0.209139
616.595	0.209211
620.155	0.209283
623.735	0.209355
627.336	0.209428
630.957	0.209501
634.6	0.209575
638.263	0.209649
641.948	0.209723
645.654	0.209797
649.382	0.209872
653.131	0.209948
656.901	0.210023
660.693	0.210099
664.508	0.210176
668.344	0.210252
672.202	0.210329
676.083	0.210407
679.986	0.210484
683.912	0.210562
687.86	0.210641
691.831	0.210719
695.825	0.210798
699.842	0.210877
703.882	0.210957
707.946	0.211037
712.033	0.211117
716.143	0.211197
720.278	0.211278
724.436	0.211359
728.618	0.21144
732.825	0.211522
737.055	0.211604
741.31	0.211686
745.59	0.211768
749.894	0.211851
754.223	0.211934
758.578	0.212017
762.957	0.212101
767.361	0.212184
771.792	0.212268
776.247	0.212353
780.728	0.212437
785.236	0.212522
789.769	0.212607
794.328	0.212692
798.914	0.212778
803.526	0.212864
808.165	0.21295
812.831	0.213036
817.523	0.213122
822.243	0.213209
826.99	0.213296
831.764	0.213383
836.566	0.21347
841.395	0.213558
846.253	0.213646
851.138	0.213734
856.052	0.213822
860.994	0.21391
865.964	0.213999
870.964	0.214088
875.992	0.214177
881.049	0.214266
886.135	0.214356
891.251	0.214445
896.396	0.214535
901.571	0.214625
906.776	0.214715
912.011	0.214806
917.276	0.214896
922.571	0.214987
927.897	0.215078
933.254	0.215169
938.642	0.215261
944.061	0.215352
949.511	0.215444
954.993	0.215536
960.506	0.215628
966.051	0.21572
971.628	0.215812
977.237	0.215905
982.879	0.215997
988.553	0.21609
994.26	0.216183
1000	0.216276
1005.77	0.216374
1011.58	0.216471
1017.42	0.216569
1023.29	0.216666
1029.2	0.216764
1035.14	0.216862
1041.12	0.21696
1047.13	0.217058
1053.17	0.217157
1059.25	0.217255
1065.37	0.217354
1071.52	0.217452
1077.71	0.217551
1083.93	0.21765
1090.18	0.217749
1096.48	0.217849
1102.81	0.217948
1109.17	0.218047
1115.58	0.218147
1122.02	0.218247
1128.5	0.218346
1135.01	0.218446
1141.56	0.218546
1148.15	0.218646
1154.78	0.218747
1161.45	0.218847
1168.15	0.218947
1174.9	0.219048
1181.68	0.219148
1188.5	0.219249
1195.36	0.21935
1202.26	0.219451
1209.21	0.219552
1216.19	0.219653
1223.21	0.219754
1230.27	0.219855
1237.37	0.219957
1244.51	0.220058
1251.7	0.22016
1258.93	0.220261
1266.19	0.220363
1273.5	0.220465
1280.86	0.220566
1288.25	0.220668
1295.69	0.22077
1303.17	0.220872
1310.69	0.220974
1318.26	0.221076
1325.87	0.221179
1333.52	0.221281
1341.22	0.221383
1348.96	0.221486
1356.75	0.221588
1364.58	0.221691
1372.46	0.221794
1380.38	0.221896
1388.35	0.221999
1396.37	0.222102
1404.43	0.222205
1412.54	0.222308
1420.69	0.222411
1428.89	0.222514
1437.14	0.222617
1445.44	0.22272
1453.78	0.222823
1462.18	0.222926
1470.62	0.223029
1479.11	0.223133
1487.65	0.223236
1496.24	0.223339
1504.87	0.223443
1513.56	0.223546
1522.3	0.22365
1531.09	0.223753
1539.93	0.223857
1548.82	0.22396
1557.76	0.224064
1566.75	0.224168
1575.8	0.224271
1584.89	0.224375
1594.04	0.224479
1603.25	0.224583
1612.5	0.224687
1621.81	0.22479
1631.17	0.224894
1640.59	0.224998
1650.06	0.225102
1659.59	0.225206
1669.17	0.22531
1678.8	0.225414
1688.5	0.225518
1698.24	0.225622
1708.05	0.225726
1717.91	0.22583
1727.83	0.225934
1737.8	0.226038
1747.83	0.226143
1757.92	0.226247
1768.07	0.226351
1778.28	0.226455
1788.55	0.226559
1798.87	0.226663
1809.26	0.226768
1819.7	0.226872
1830.21	0.226976
1840.77	0.22708
1851.4	0.227184
1862.09	0.227289
1872.84	0.227393
1883.65	0.227497
1894.52	0.227601
1905.46	0.227705
1916.46	0.22781
1927.52	0.227914
1938.65	0.228018
1949.84	0.228122
1961.1	0.228227
1972.42	0.228331
1983.81	0.228435
1995.26	0.228539
2006.78	0.228643
2018.37	0.228748
2030.02	0.228852
2041.74	0.228956
2053.53	0.22906
2065.38	0.229164
2077.3	0.229269
2089.3	0.229373
2101.36	0.229477
2113.49	0.229581
2125.69	0.229685
2137.96	0.229789
2150.3	0.229893
2162.72	0.229997
2175.2	0.230101
2187.76	0.230205
2200.39	0.230309
2213.09	0.230413
2225.87	0.230517
2238.72	0.230621
2251.65	0.230725
2264.64	0.230829
2277.72	0.230933
2290.87	0.231037
2304.09	0.231141
2317.39	0.231245
2330.77	0.231348
2344.23	0.231452
2357.76	0.231556
2371.37	0.23166
2385.06	0.231764
2398.83	0.231867
2412.68	0.231971
2426.61	0.232075
2440.62	0.232178
2454.71	0.232282
2468.88	0.232385
2483.13	0.232489
2497.47	0.232592
2511.89	0.232696
2526.39	0.232799
2540.97	0.232903
2555.64	0.233006
2570.4	0.233109
2585.23	0.233213
2600.16	0.233316
2615.17	0.233419
2630.27	0.233522
2645.45	0.233626
2660.73	0.233729
2676.09	0.233832
2691.53	0.233935
2707.07	0.234038
2722.7	0.234141
2738.42	0.234244
2754.23	0.234347
2770.13	0.23445
2786.12	0.234552
2802.21	0.234655
2818.38	0.234758
2834.65	0.234861
2851.02	0.234963
2867.48	0.235066
2884.03	0.235169
2900.68	0.235271
2917.43	0.235374
2934.27	0.235476
2951.21	0.235579
2968.25	0.235681
2985.38	0.235783
3002.62	0.235886
3019.95	0.235988
3037.39	0.23609
3054.92	0.236192
3072.56	0.236294
3090.3	0.236396
3108.14	0.236498
3126.08	0.2366
3144.13	0.236702
3162.28	0.236804
3180.53	0.236906
3198.9	0.237008
3217.36	0.237109
3235.94	0.237211
3254.62	0.237313
3273.41	0.237414
3292.3	0.237516
3311.31	0.237617
3330.43	0.237719
3349.65	0.23782
3368.99	0.237921
3388.44	0.238023
3408	0.238124
3427.68	0.238225
3447.47	0.238326
3467.37	0.238427
3487.39	0.238528
3507.52	0.238629
3527.77	0.23873
3548.13	0.238831
3568.62	0.238932
3589.22	0.239033
3609.94	0.239133
3630.78	0.239234
3651.74	0.239334
3672.82	0.239435
3694.03	0.239535
3715.35	0.239636
3736.8	0.239736
3758.37	0.239836
3780.07	0.239937
3801.89	0.240037
3823.84	0.240137
3845.92	0.240237
3868.12	0.240337
3890.45	0.240437
3912.91	0.240537
3935.5	0.240637
3958.22	0.240736
3981.07	0.240836
4004.05	0.240936
4027.17	0.241035
4050.42	0.241135
4073.8	0.241234
4097.32	0.241334
4120.98	0.241433
4144.77	0.241532
4168.69	0.241632
4192.76	0.241731
4216.97	0.24183
4241.31	0.241929
4265.8	0.242028
4290.42	0.242127
4315.19	0.242226
4340.1	0.242324
4365.16	0.242423
4390.36	0.242522
4415.7	0.24262
4441.2	0.242719
4466.84	0.242817
4492.62	0.242916
4518.56	0.243014
4544.65	0.243112
4570.88	0.243211
4597.27	0.243309
4623.81	0.243407
4650.5	0.243505
4677.35	0.243603
4704.35	0.243701
4731.51	0.243799
4758.83	0.243896
4786.3	0.243994
4813.93	0.244092
4841.72	0.244189
4869.68	0.244287
4897.79	0.244384
4926.06	0.244481
4954.5	0.244579
4983.1	0.244676
5011.87	0.244773
5040.81	0.24487
5069.91	0.244967
5099.18	0.245064
5128.61	0.245161
5158.22	0.245258
5188	0.245355
5217.95	0.245451
5248.07	0.245548
5278.37	0.245644
5308.84	0.245741
5339.49	0.245837
5370.32	0.245934
5401.32	0.24603
5432.5	0.246126
5463.87	0.246222
5495.41	0.246318
5527.13	0.246414
5559.04	0.24651
5591.14	0.246606
5623.41	0.246702
5655.88	0.246798
5688.53	0.246893
5721.37	0.246989
5754.4	0.247084
5787.62	0.24718
5821.03	0.247275
5854.64	0.24737
5888.44	0.247466
5922.43	0.247561
5956.62	0.247656
5991.01	0.247751
6025.6	0.247846
6060.38	0.247941
6095.37	0.248035
6130.56	0.24813
6165.95	0.248225
6201.55	0.248319
6237.35	0.248414
6273.36	0.248508
6309.57	0.248603
6346	0.248697
6382.63	0.248791
6419.48	0.248885
6456.54	0.248979
6493.82	0.249073
6531.31	0.249167
6569.01	0.249261
6606.93	0.249355
6645.08	0.249449
6683.44	0.249542
6722.02	0.249636
6760.83	0.249729
6799.86	0.249823
6839.12	0.249916
6878.6	0.25001
6918.31	0.250103
6958.25	0.250196
6998.42	0.250289
7038.82	0.250382
7079.46	0.250475
7120.33	0.250568
7161.43	0.25066
7202.78	0.250753
7244.36	0.250846
7286.18	0.250938
7328.25	0.251031
7370.55	0.251123
7413.1	0.251216
7455.9	0.251308
7498.94	0.2514
7542.23	0.251492
7585.78	0.251584
7629.57	0.251676
7673.61	0.251768
7717.92	0.25186
7762.47	0.251952
7807.28	0.252043
7852.36	0.252135
7897.69	0.252226
7943.28	0.252318
7989.14	0.252409
8035.26	0.2525
8081.65	0.252592
8128.31	0.252683
8175.23	0.252774
8222.43	0.252865
8269.9	0.252956
8317.64	0.253047
8365.66	0.253137
8413.95	0.253228
8462.53	0.253319
8511.38	0.253409
8560.52	0.2535
8609.94	0.25359
8659.64	0.253681
8709.64	0.253771
8759.92	0.253861
8810.49	0.253951
8861.35	0.254041
8912.51	0.254131
8963.96	0.254221
9015.71	0.254311
9067.76	0.254401
9120.11	0.25449
9172.76	0.25458
9225.71	0.254669
9278.97	0.254759
9332.54	0.254848
9386.42	0.254938
9440.61	0.255027
9495.11	0.255116
9549.93	0.255205
9605.06	0.255294
9660.51	0.255383
9716.28	0.255472
9772.37	0.255561
9828.79	0.255649
9885.53	0.255738
9942.6	0.255827
10000	0.255915
10057.7	0.256003
10115.8	0.256092
10174.2	0.25618
10232.9	0.256268
10292	0.256356
10351.4	0.256444
10411.2	0.256532
10471.3	0.25662
10531.7	0.256708
10592.5	0.256796
10653.7	0.256883
10715.2	0.256971
10777.1	0.257059
10839.3	0.257146
10901.8	0.257233
10964.8	0.257321
11028.1	0.257408
11091.7	0.257495
11155.8	0.257582
11220.2	0.257669
11285	0.257756
11350.1	0.257843
11415.6	0.25793
11481.5	0.258016
11547.8	0.258103
11614.5	0.25819
11681.5	0.258276
11749	0.258363
11816.8	0.258449
11885	0.258535
11953.6	0.258621
12022.6	0.258708
12092.1	0.258794
12161.9	0.25888
12232.1	0.258965
12302.7	0.259051
12373.7	0.259137
12445.1	0.259223
12517	0.259308
12589.3	0.259394
12661.9	0.259479
12735	0.259565
12808.6	0.25965
12882.5	0.259735
12956.9	0.259821
13031.7	0.259906
13106.9	0.259991
13182.6	0.260076
13258.7	0.260161
13335.2	0.260245
13412.2	0.26033
13489.6	0.260415
13567.5	0.260499
13645.8	0.260584
13724.6	0.260668
13803.8	0.260753
13883.5	0.260837
13963.7	0.260921
14044.3	0.261005
14125.4	0.26109
14206.9	0.261174
14288.9	0.261258
14371.4	0.261341
14454.4	0.261425
14537.8	0.261509
14621.8	0.261593
14706.2	0.261676
14791.1	0.26176
14876.5	0.261843
14962.4	0.261927
15048.7	0.26201
15135.6	0.262093
15223	0.262176
15310.9	0.262259
15399.3	0.262343
15488.2	0.262425
15577.6	0.262508
15667.5	0.262591
15758	0.262674
15848.9	0.262757
15940.4	0.262839
16032.5	0.262922
16125	0.263004
16218.1	0.263087
16311.7	0.263169
16405.9	0.263251
16500.6	0.263333
16595.9	0.263416
16691.7	0.263498
16788	0.26358
16885	0.263662
16982.4	0.263743
17080.5	0.263825
17179.1	0.263907
17278.3	0.263989
17378	0.26407
17478.3	0.264152
17579.2	0.264233
17680.7	0.264314
17782.8	0.264396
17885.5	0.264477
17988.7	0.264558
18092.6	0.264639
18197	0.26472
18302.1	0.264801
18407.7	0.264882
18514	0.264963
18620.9	0.265044
18728.4	0.265124
18836.5	0.265205
18945.2	0.265286
19054.6	0.265366
19164.6	0.265446
19275.2	0.265527
19386.5	0.265607
19498.4	0.265687
19611	0.265767
19724.2	0.265848
19838.1	0.265928
19952.6	0.266008
20067.8	0.266087
20183.7	0.266167
20300.2	0.266247
20417.4	0.266327
20535.3	0.266406
20653.8	0.266486
20773	0.266565
20893	0.266645
21013.6	0.266724
21134.9	0.266804
21256.9	0.266883
21379.6	0.266962
21503	0.267041
21627.2	0.26712
21752	0.267199
21877.6	0.267278
22003.9	0.267357
22130.9	0.267436
22258.7	0.267514
22387.2	0.267593
22516.5	0.267672
22646.4	0.26775
22777.2	0.267829
22908.7	0.267907
23040.9	0.267985
23173.9	0.268064
23307.7	0.268142
23442.3	0.26822
23577.6	0.268298
23713.7	0.268376
23850.6	0.268454
23988.3	0.268532
24126.8	0.26861
24266.1	0.268688
24406.2	0.268766
24547.1	0.268843
24688.8	0.268921
24831.3	0.268998
24974.7	0.269076
25118.9	0.269153
25263.9	0.269231
25409.7	0.269308
25556.4	0.269385
25704	0.269462
25852.3	0.26954
26001.6	0.269617
26151.7	0.269694
26302.7	0.269771
26454.5	0.269847
26607.3	0.269924
26760.9	0.270001
26915.3	0.270078
27070.7	0.270154
27227	0.270231
27384.2	0.270308
27542.3	0.270384
27701.3	0.270461
27861.2	0.270537
28022.1	0.270613
28183.8	0.270689
28346.5	0.270766
28510.2	0.270842
28674.8	0.270918
28840.3	0.270994
29006.8	0.27107
29174.3	0.271146
29342.7	0.271222
29512.1	0.271297
29682.5	0.271373
29853.8	0.271449
30026.2	0.271524
30199.5	0.2716
30373.9	0.271676
30549.2	0.271751
30725.6	0.271826
30903	0.271902
31081.4	0.271977
31260.8	0.272052
31441.3	0.272128
31622.8	0.272203
31805.3	0.272278
31989	0.272353
32173.6	0.272428
32359.4	0.272503
32546.2	0.272578
32734.1	0.272652
32923	0.272727
33113.1	0.272802
33304.3	0.272876
33496.5	0.272951
33689.9	0.273026
33884.4	0.2731
34080	0.273175
34276.8	0.273249
34474.7	0.273323
34673.7	0.273398
34873.9	0.273472
35075.2	0.273546
35277.7	0.27362
35481.3	0.273694
35686.2	0.273768
35892.2	0.273842
36099.4	0.273916
36307.8	0.27399
36517.4	0.274064
36728.2	0.274138
36940.3	0.274212
37153.5	0.274285
37368	0.274359
37583.7	0.274433
37800.7	0.274506
38018.9	0.27458
38238.4	0.274653
38459.2	0.274726
38681.2	0.2748
38904.5	0.274873
39129.1	0.274946
39355	0.27502
39582.2	0.275093
39810.7	0.275166
40040.5	0.275239
40271.7	0.275312
40504.2	0.275385
40738	0.275458
40973.2	0.275531
41209.8	0.275604
41447.7	0.275677
41686.9	0.275749
41927.6	0.275822
42169.7	0.275895
42413.1	0.275967
42658	0.27604
42904.2	0.276112
43151.9	0.276185
43401	0.276257
43651.6	0.27633
43903.6	0.276402
44157	0.276474
44412	0.276547
44668.4	0.276619
44926.2	0.276691
45185.6	0.276763
45446.5	0.276835
45708.8	0.276907
45972.7	0.276979
46238.1	0.277051
46505	0.277123
46773.5	0.277195
47043.5	0.277267
47315.1	0.277339
47588.3	0.277411
47863	0.277482
48139.3	0.277554
48417.2	0.277626
48696.8	0.277697
48977.9	0.277769
49260.6	0.27784
49545	0.277912
49831	0.277983
50118.7	0.278055
50408.1	0.278126
50699.1	0.278198
50991.8	0.278269
51286.1	0.27834
51582.2	0.278411
51880	0.278482
52179.5	0.278554
52480.7	0.278625
52783.7	0.278696
53088.4	0.278767
53394.9	0.278838
53703.2	0.278909
54013.2	0.27898
54325	0.279051
54638.7	0.279121
54954.1	0.279192
55271.3	0.279263
55590.4	0.279334
55911.4	0.279404
56234.1	0.279475
56558.8	0.279546
56885.3	0.279616
57213.7	0.279687
57544	0.279757
57876.2	0.279828
58210.3	0.279898
58546.4	0.279969
58884.4	0.280039
59224.3	0.28011
59566.2	0.28018
59910.1	0.28025
60256	0.28032
60603.8	0.280391
60953.7	0.280461
61305.6	0.280531
61659.5	0.280601
62015.5	0.280671
62373.5	0.280741
62733.6	0.280811
63095.7	0.280881
63460	0.280951
63826.3	0.281021
64194.8	0.281091
64565.4	0.281161
64938.2	0.281231
65313.1	0.281301
65690.1	0.281371
66069.3	0.28144
66450.8	0.28151
66834.4	0.28158
67220.2	0.281649
67608.3	0.281719
67998.6	0.281789
68391.2	0.281858
68786	0.281928
69183.1	0.281997
69582.5	0.282067
69984.2	0.282136
70388.2	0.282206
70794.6	0.282275
71203.3	0.282344
71614.3	0.282414
72027.8	0.282483
72443.6	0.282552
72861.8	0.282622
73282.5	0.282691
73705.5	0.28276
74131	0.282829
74559	0.282898
74989.4	0.282967
75422.3	0.283036
75857.8	0.283106
76295.7	0.283175
76736.1	0.283244
77179.2	0.283313
77624.7	0.283382
78072.8	0.28345
78523.6	0.283519
78976.9	0.283588
79432.8	0.283657
79891.4	0.283726
80352.6	0.283795
80816.5	0.283863
81283.1	0.283932
81752.3	0.284001
82224.3	0.28407
82699	0.284138
83176.4	0.284207
83656.6	0.284276
84139.5	0.284344
84625.3	0.284413
85113.8	0.284481
85605.2	0.28455
86099.4	0.284618
86596.4	0.284687
87096.4	0.284755
87599.2	0.284824
88104.9	0.284892
88613.5	0.284961
89125.1	0.285029
89639.6	0.285097
90157.1	0.285166
90677.6	0.285234
91201.1	0.285302
91727.6	0.28537
92257.1	0.285439
92789.7	0.285507
93325.4	0.285575
93864.2	0.285643
94406.1	0.285711
94951.1	0.285779
95499.3	0.285848
96050.6	0.285916
96605.1	0.285984
97162.8	0.286052
97723.7	0.28612
98287.9	0.286188
98855.3	0.286256
99426	0.286324
100000	0.286392
100577	0.28646
101158	0.286527
101742	0.286595
102329	0.286663
102920	0.286731
103514	0.286799
104112	0.286867
104713	0.286934
105317	0.287002
105925	0.28707
106537	0.287138
107152	0.287205
107771	0.287273
108393	0.287341
109018	0.287408
109648	0.287476
110281	0.287544
110917	0.287611
111558	0.287679
112202	0.287746
112850	0.287814
113501	0.287881
114156	0.287949
114815	0.288016
115478	0.288084
116145	0.288151
116815	0.288219
117490	0.288286
118168	0.288354
118850	0.288421
119536	0.288488
120226	0.288556
120921	0.288623
121619	0.28869
122321	0.288758
123027	0.288825
123737	0.288892
124451	0.288959
125170	0.289027
125893	0.289094
126619	0.289161
127350	0.289228
128086	0.289296
128825	0.289363
129569	0.28943
130317	0.289497
131069	0.289564
131826	0.289631
132587	0.289698
133352	0.289765
134122	0.289833
134896	0.2899
135675	0.289967
136458	0.290034
137246	0.290101
138038	0.290168
138835	0.290235
139637	0.290302
140443	0.290369
141254	0.290436
142069	0.290503
142889	0.29057
143714	0.290636
144544	0.290703
145378	0.29077
146218	0.290837
147062	0.290904
147911	0.290971
148765	0.291038
149624	0.291105
150487	0.291171
151356	0.291238
152230	0.291305
153109	0.291372
153993	0.291439
154882	0.291505
155776	0.291572
156675	0.291639
157580	0.291706
158489	0.291772
159404	0.291839
160325	0.291906
161250	0.291973
162181	0.292039
163117	0.292106
164059	0.292173
165006	0.292239
165959	0.292306
166917	0.292373
167880	0.292439
168850	0.292506
169824	0.292573
170805	0.292639
171791	0.292706
172783	0.292772
173780	0.292839
174783	0.292906
175792	0.292972
176807	0.293039
177828	0.293105
178855	0.293172
179887	0.293238
180926	0.293305
181970	0.293371
183021	0.293438
184077	0.293504
185140	0.293571
186209	0.293637
187284	0.293704
188365	0.29377
189452	0.293837
190546	0.293903
191646	0.29397
192752	0.294036
193865	0.294103
194984	0.294169
196110	0.294236
197242	0.294302
198381	0.294369
199526	0.294435
200678	0.294501
201837	0.294568
203002	0.294634
204174	0.294701
205353	0.294767
206538	0.294833
207730	0.2949
208930	0.294966
210136	0.295033
211349	0.295099
212569	0.295165
213796	0.295232
215030	0.295298
216272	0.295364
217520	0.295431
218776	0.295497
220039	0.295563
221309	0.29563
222587	0.295696
223872	0.295762
225165	0.295829
226464	0.295895
227772	0.295961
229087	0.296028
230409	0.296094
231739	0.29616
233077	0.296227
234423	0.296293
235776	0.296359
237137	0.296426
238506	0.296492
239883	0.296558
241268	0.296624
242661	0.296691
244062	0.296757
245471	0.296823
246888	0.29689
248313	0.296956
249747	0.297022
251189	0.297088
252639	0.297155
254097	0.297221
255564	0.297287
257040	0.297353
258523	0.29742
260016	0.297486
261517	0.297552
263027	0.297619
264545	0.297685
266073	0.297751
267609	0.297817
269153	0.297884
270707	0.29795
272270	0.298016
273842	0.298082
275423	0.298149
277013	0.298215
278612	0.298281
280221	0.298347
281838	0.298414
283465	0.29848
285102	0.298546
286748	0.298612
288403	0.298679
290068	0.298745
291743	0.298811
293427	0.298877
295121	0.298944
296825	0.29901
298538	0.299076
300262	0.299142
301995	0.299209
303739	0.299275
305492	0.299341
307256	0.299407
309030	0.299474
310814	0.29954
312608	0.299606
314413	0.299672
316228	0.299739
318053	0.299805
319890	0.299871
321736	0.299937
323594	0.300004
325462	0.30007
327341	0.300136
329230	0.300203
331131	0.300269
333043	0.300335
334965	0.300401
336899	0.300468
338844	0.300534
340800	0.3006
342768	0.300667
344747	0.300733
346737	0.300799
348739	0.300865
350752	0.300932
352777	0.300998
354813	0.301064
356862	0.301131
358922	0.301197
360994	0.301263
363078	0.30133
365174	0.301396
367282	0.301462
369403	0.301529
371535	0.301595
373680	0.301661
375837	0.301728
378007	0.301794
380189	0.30186
382384	0.301927
384592	0.301993
386812	0.302059
389045	0.302126
391291	0.302192
393550	0.302258
395822	0.302325
398107	0.302391
400405	0.302457
402717	0.302524
405042	0.30259
407380	0.302657
409732	0.302723
412098	0.302789
414477	0.302856
416869	0.302922
419276	0.302989
421697	0.303055
424131	0.303122
426580	0.303188
429042	0.303254
431519	0.303321
434010	0.303387
436516	0.303454
439036	0.30352
441570	0.303587
444120	0.303653
446684	0.30372
449262	0.303786
451856	0.303853
454465	0.303919
457088	0.303985
459727	0.304052
462381	0.304118
465050	0.304185
467735	0.304252
470435	0.304318
473151	0.304385
475883	0.304451
478630	0.304518
481393	0.304584
484172	0.304651
486968	0.304717
489779	0.304784
492606	0.30485
495450	0.304917
498310	0.304984
501187	0.30505
504081	0.305117
506991	0.305183
509918	0.30525
512861	0.305317
515822	0.305383
518800	0.30545
521795	0.305516
524807	0.305583
527837	0.30565
530884	0.305716
533949	0.305783
537032	0.30585
540132	0.305916
543250	0.305983
546387	0.30605
549541	0.306116
552713	0.306183
555904	0.30625
559114	0.306317
562341	0.306383
565588	0.30645
568853	0.306517
572137	0.306584
575440	0.30665
578762	0.306717
582103	0.306784
585464	0.306851
588844	0.306917
592243	0.306984
595662	0.307051
599101	0.307118
602560	0.307185
606038	0.307252
609537	0.307318
613056	0.307385
616595	0.307452
620155	0.307519
623735	0.307586
627336	0.307653
630957	0.30772
634600	0.307786
638263	0.307853
641948	0.30792
645654	0.307987
649382	0.308054
653131	0.308121
656901	0.308188
660693	0.308255
664508	0.308322
668344	0.308389
672202	0.308456
676083	0.308523
679986	0.30859
683912	0.308657
687860	0.308724
691831	0.308791
695825	0.308858
699842	0.308925
703882	0.308992
707946	0.309059
712033	0.309126
716143	0.309193
720278	0.30926
724436	0.309328
728618	0.309395
732825	0.309462
737055	0.309529
741310	0.309596
745590	0.309663
749894	0.30973
754223	0.309798
758578	0.309865
762957	0.309932
767361	0.309999
771792	0.310066
776247	0.310134
780728	0.310201
785236	0.310268
789769	0.310335
794328	0.310403
798914	0.31047
803526	0.310537
808165	0.310604
812831	0.310672
817523	0.310739
822243	0.310806
826990	0.310874
831764	0.310941
836566	0.311008
841395	0.311076
846253	0.311143
851138	0.311211
856052	0.311278
860994	0.311345
865964	0.311413
870964	0.31148
875992	0.311548
881049	0.311615
886135	0.311683
891251	0.31175
896396	0.311817
901571	0.311885
906776	0.311952
912011	0.31202
917276	0.312088
922571	0.312155
927897	0.312223
933254	0.31229
938642	0.312358
944061	0.312425
949511	0.312493
954993	0.312561
960506	0.312628
966051	0.312696
971628	0.312763
977237	0.312831
982879	0.312899
988553	0.312966
994260	0.313034
1e+06	0.313102
1.00577e+06	0.31317
1.01158e+06	0.313237
1.01742e+06	0.313305
1.02329e+06	0.313373
1.0292e+06	0.313441
1.03514e+06	0.313508
1.04112e+06	0.313576
1.04713e+06	0.313644
1.05317e+06	0.313712
1.05925e+06	0.31378
1.06537e+06	0.313847
1.07152e+06	0.313915
1.07771e+06	0.313983
1.08393e+06	0.314051
1.09018e+06	0.314119
1.09648e+06	0.314187
1.10281e+06	0.314255
1.10917e+06	0.314322
1.11558e+06	0.31439
1.12202e+06	0.314458
1.1285e+06	0.314526
1.13501e+06	0.314594
1.14156e+06	0.314662
1.14815e+06	0.31473
1.15478e+06	0.314798
1.16145e+06	0.314866
1.16815e+06	0.314934
1.1749e+06	0.315002
1.18168e+06	0.31507
1.1885e+06	0.315138
1.19536e+06	0.315207
1.20226e+06	0.315275
1.20921e+06	0.315343
1.21619e+06	0.315411
1.22321e+06	0.315479
1.23027e+06	0.315547
1.23737e+06	0.315615
1.24451e+06	0.315683
1.2517e+06	0.315752
1.25893e+06	0.31582
1.26619e+06	0.315888
1.2735e+06	0.315956
1.28086e+06	0.316024
1.28825e+06	0.316093
1.29569e+06	0.316161
1.30317e+06	0.316229
1.31069e+06	0.316297
1.31826e+06	0.316366
1.32587e+06	0.316434
1.33352e+06	0.316502
1.34122e+06	0.316571
1.34896e+06	0.316639
1.35675e+06	0.316707
1.36458e+06	0.316776
1.37246e+06	0.316844
1.38038e+06	0.316913
1.38835e+06	0.316981
1.39637e+06	0.317049
1.40443e+06	0.317118
1.41254e+06	0.317186
1.42069e+06	0.317255
1.42889e+06	0.317323
1.43714e+06	0.317392
1.44544e+06	0.31746
1.45378e+06	0.317529
1.46218e+06	0.317597
1.47062e+06	0.317666
1.47911e+06	0.317734
1.48765e+06	0.317803
1.49624e+06	0.317872
1.50487e+06	0.31794
1.51356e+06	0.318009
1.5223e+06	0.318077
1.53109e+06	0.318146
1.53993e+06	0.318215
1.54882e+06	0.318283
1.55776e+06	0.318352
1.56675e+06	0.318421
1.5758e+06	0.31849
1.58489e+06	0.318558
1.59404e+06	0.318627
1.60325e+06	0.318696
1.6125e+06	0.318765
1.62181e+06	0.318833
1.63117e+06	0.318902
1.64059e+06	0.318971
1.65006e+06	0.31904
1.65959e+06	0.319109
1.66917e+06	0.319177
1.6788e+06	0.319246
1.6885e+06	0.319315
1.69824e+06	0.319384
1.70805e+06	0.319453
1.71791e+06	0.319522
1.72783e+06	0.319591
1.7378e+06	0.31966
1.74783e+06	0.319729
1.75792e+06	0.319798
1.76807e+06	0.319867
1.77828e+06	0.319936
1.78855e+06	0.320005
1.79887e+06	0.320074
1.80926e+06	0.320143
1.8197e+06	0.320212
1.83021e+06	0.320281
1.84077e+06	0.32035
1.8514e+06	0.320419
1.86209e+06	0.320488
1.87284e+06	0.320558
1.88365e+06	0.320627
1.89452e+06	0.320696
1.90546e+06	0.320765
1.91646e+06	0.320834
1.92752e+06	0.320903
1.93865e+06	0.320973
1.94984e+06	0.321042
1.9611e+06	0.321111
1.97242e+06	0.32118
1.98381e+06	0.32125
1.99526e+06	0.321319
2.00678e+06	0.321388
2.01837e+06	0.321458
2.03002e+06	0.321527
2.04174e+06	0.321596
2.05353e+06	0.321666
2.06538e+06	0.321735
2.0773e+06	0.321805
2.0893e+06	0.321874
2.10136e+06	0.321943
2.11349e+06	0.322013
2.12569e+06	0.322082
2.13796e+06	0.322152
2.1503e+06	0.322221
2.16272e+06	0.322291
2.1752e+06	0.32236
2.18776e+06	0.32243
2.20039e+06	0.322499
2.21309e+06	0.322569
2.22587e+06	0.322639
2.23872e+06	0.322708
2.25165e+06	0.322778
2.26464e+06	0.322847
2.27772e+06	0.322917
2.29087e+06	0.322987
2.30409e+06	0.323056
2.31739e+06	0.323126
2.33077e+06	0.323196
2.34423e+06	0.323266
2.35776e+06	0.323335
2.37137e+06	0.323405
2.38506e+06	0.323475
2.39883e+06	0.323545
2.41268e+06	0.323614
2.42661e+06	0.323684
2.44062e+06	0.323754
2.45471e+06	0.323824
2.46888e+06	0.323894
2.48313e+06	0.323964
2.49747e+06	0.324034
2.51189e+06	0.324103
2.52639e+06	0.324173
2.54097e+06	0.324243
2.55564e+06	0.324313
2.5704e+06	0.324383
2.58523e+06	0.324453
2.60016e+06	0.324523
2.61517e+06	0.324593
2.63027e+06	0.324663
2.64545e+06	0.324733
2.66073e+06	0.324803
2.67609e+06	0.324874
2.69153e+06	0.324944
2.70707e+06	0.325014
2.7227e+06	0.325084
2.73842e+06	0.325154
2.75423e+06	0.325224
2.77013e+06	0.325294
2.78612e+06	0.325365
2.80221e+06	0.325435
2.81838e+06	0.325505
2.83465e+06	0.325575
2.85102e+06	0.325645
2.86748e+06	0.325716
2.88403e+06	0.325786
2.90068e+06	0.325856
2.91743e+06	0.325927
2.93427e+06	0.325997
2.95121e+06	0.326067
2.96825e+06	0.326138
2.98538e+06	0.326208
3.00262e+06	0.326279
3.01995e+06	0.326349
3.03739e+06	0.326419
3.05492e+06	0.32649
3.07256e+06	0.32656
3.0903e+06	0.326631
3.10814e+06	0.326701
3.12608e+06	0.326772
3.14413e+06	0.326842
3.16228e+06	0.326913
3.18053e+06	0.326983
3.1989e+06	0.327054
3.21736e+06	0.327125
3.23594e+06	0.327195
3.25462e+06	0.327266
3.27341e+06	0.327337
3.2923e+06	0.327407
3.31131e+06	0.327478
3.33043e+06	0.327549
3.34965e+06	0.327619
3.36899e+06	0.32769
3.38844e+06	0.327761
3.408e+06	0.327832
3.42768e+06	0.327902
3.44747e+06	0.327973
3.46737e+06	0.328044
3.48739e+06	0.328115
3.50752e+06	0.328186
3.52777e+06	0.328256
3.54813e+06	0.328327
3.56862e+06	0.328398
3.58922e+06	0.328469
3.60994e+06	0.32854
3.63078e+06	0.328611
3.65174e+06	0.328682
3.67282e+06	0.328753
3.69403e+06	0.328824
3.71535e+06	0.328895
3.7368e+06	0.328966
3.75837e+06	0.329037
3.78007e+06	0.329108
3.80189e+06	0.329179
3.82384e+06	0.32925
3.84592e+06	0.329321
3.86812e+06	0.329392
3.89045e+06	0.329464
3.91291e+06	0.329535
3.9355e+06	0.329606
3.95822e+06	0.329677
3.98107e+06	0.329748
4.00405e+06	0.32982
4.02717e+06	0.329891
4.05042e+06	0.329962
4.0738e+06	0.330033
4.09732e+06	0.330105
4.12098e+06	0.330176
4.14477e+06	0.330247
4.16869e+06	0.330319
4.19276e+06	0.33039
4.21697e+06	0.330461
4.24131e+06	0.330533
4.2658e+06	0.330604
4.29042e+06	0.330676
4.31519e+06	0.330747
4.3401e+06	0.330819
4.36516e+06	0.33089
4.39036e+06	0.330962
4.4157e+06	0.331033
4.4412e+06	0.331105
4.46684e+06	0.331176
4.49262e+06	0.331248
4.51856e+06	0.331319
4.54465e+06	0.331391
4.57088e+06	0.331463
4.59727e+06	0.331534
4.62381e+06	0.331606
4.6505e+06	0.331678
4.67735e+06	0.331749
4.70435e+06	0.331821
4.73151e+06	0.331893
4.75883e+06	0.331964
4.7863e+06	0.332036
4.81393e+06	0.332108
4.84172e+06	0.33218
4.86968e+06	0.332252
4.89779e+06	0.332323
4.92606e+06	0.332395
4.9545e+06	0.332467
4.9831e+06	0.332539
5.01187e+06	0.332611
5.04081e+06	0.332683
5.06991e+06	0.332755
5.09918e+06	0.332827
5.12861e+06	0.332899
5.15822e+06	0.332971
5.188e+06	0.333043
5.21795e+06	0.333115
5.24807e+06	0.333187
5.27837e+06	0.333259
5.30884e+06	0.333331
5.33949e+06	0.333403
5.37032e+06	0.333475
5.40132e+06	0.333547
5.4325e+06	0.333619
5.46387e+06	0.333692
5.49541e+06	0.333764
5.52713e+06	0.333836
5.55904e+06	0.333908
5.59114e+06	0.33398
5.62341e+06	0.334053
5.65588e+06	0.334125
5.68853e+06	0.334197
5.72137e+06	0.33427
5.7544e+06	0.334342
5.78762e+06	0.334414
5.82103e+06	0.334487
5.85464e+06	0.334559
5.88844e+06	0.334631
5.92243e+06	0.334704
5.95662e+06	0.334776
5.99101e+06	0.334849
6.0256e+06	0.334921
6.06038e+06	0.334994
6.09537e+06	0.335066
6.13056e+06	0.335139
6.16595e+06	0.335211
6.20155e+06	0.335284
6.23735e+06	0.335356
6.27336e+06	0.335429
6.30957e+06	0.335501
6.346e+06	0.335574
6.38263e+06	0.335647
6.41948e+06	0.335719
6.45654e+06	0.335792
6.49382e+06	0.335865
6.53131e+06	0.335937
6.56901e+06	0.33601
6.60693e+06	0.336083
6.64508e+06	0.336156
6.68344e+06	0.336229
6.72202e+06	0.336301
6.76083e+06	0.336374
6.79986e+06	0.336447
6.83912e+06	0.33652
6.8786e+06	0.336593
6.91831e+06	0.336666
6.95825e+06	0.336739
6.99842e+06	0.336812
7.03882e+06	0.336884
7.07946e+06	0.336957
7.12033e+06	0.33703
7.16143e+06	0.337103
7.20278e+06	0.337176
7.24436e+06	0.337249
7.28618e+06	0.337323
7.32825e+06	0.337396
7.37055e+06	0.337469
7.4131e+06	0.337542
7.4559e+06	0.337615
7.49894e+06	0.337688
7.54223e+06	0.337761
7.58578e+06	0.337835
7.62957e+06	0.337908
7.67361e+06	0.337981
7.71792e+06	0.338054
7.76247e+06	0.338127
7.80728e+06	0.338201
7.85236e+06	0.338274
7.89769e+06	0.338347
7.94328e+06	0.338421
7.98914e+06	0.338494
8.03526e+06	0.338567
8.08165e+06	0.338641
8.12831e+06	0.338714
8.17523e+06	0.338788
8.22243e+06	0.338861
8.2699e+06	0.338935
8.31764e+06	0.339008
8.36566e+06	0.339082
8.41395e+06	0.339155
8.46253e+06	0.339229
8.51138e+06	0.339302
8.56052e+06	0.339376
8.60994e+06	0.339449
8.65964e+06	0.339523
8.70964e+06	0.339597
8.75992e+06	0.33967
8.81049e+06	0.339744
8.86135e+06	0.339818
8.91251e+06	0.339891
8.96396e+06	0.339965
9.01571e+06	0.340039
9.06776e+06	0.340113
9.12011e+06	0.340186
9.17276e+06	0.34026
9.22571e+06	0.340334
9.27897e+06	0.340408
9.33254e+06	0.340482
9.38642e+06	0.340556
9.44061e+06	0.340629
9.49511e+06	0.340703
9.54993e+06	0.340777
9.60506e+06	0.340851
9.66051e+06	0.340925
9.71628e+06	0.340999
9.77237e+06	0.341073
9.82879e+06	0.341147
9.88553e+06	0.341221
9.9426e+06	0.341295
1e+07	0.341369
