Stopping power dEdx from Ionisation for N14[0.0] Z = 7 in G4_TISSUE_SOFT_ICRP, process name: ionIoni
E [MeV]	dEdx [MeV/mm]
0.001	43.5121
0.00100577	43.6375
0.00101158	43.7633
0.00101742	43.8894
0.00102329	44.0159
0.0010292	44.1428
0.00103514	44.27
0.00104112	44.3976
0.00104713	44.5256
0.00105317	44.6539
0.00105925	44.7826
0.00106537	44.9117
0.00107152	45.0412
0.00107771	45.171
0.00108393	45.3012
0.00109018	45.4318
0.00109648	45.5627
0.00110281	45.6941
0.00110917	45.8258
0.00111558	45.9579
0.00112202	46.0903
0.0011285	46.2232
0.00113501	46.3564
0.00114156	46.49
0.00114815	46.624
0.00115478	46.7584
0.00116145	46.8932
0.00116815	47.0284
0.0011749	47.1639
0.00118168	47.2999
0.0011885	47.4362
0.00119536	47.5729
0.00120226	47.71
0.00120921	47.8476
0.00121619	47.9855
0.00122321	48.1238
0.00123027	48.2625
0.00123737	48.4016
0.00124451	48.5411
0.0012517	48.681
0.00125893	48.8213
0.00126619	48.9621
0.0012735	49.1032
0.00128086	49.2447
0.00128825	49.3867
0.00129569	49.529
0.00130317	49.6718
0.00131069	49.815
0.00131826	49.9585
0.00132587	50.1025
0.00133352	50.247
0.00134122	50.3918
0.00134896	50.537
0.00135675	50.6827
0.00136458	50.8288
0.00137246	50.9753
0.00138038	51.1222
0.00138835	51.2696
0.00139637	51.4174
0.00140443	51.5656
0.00141254	51.7142
0.00142069	51.8633
0.00142889	52.0127
0.00143714	52.1627
0.00144544	52.313
0.00145378	52.4638
0.00146218	52.615
0.00147062	52.7667
0.00147911	52.9188
0.00148765	53.0713
0.00149624	53.2243
0.00150487	53.3777
0.00151356	53.5315
0.0015223	53.6858
0.00153109	53.8406
0.00153993	53.9958
0.00154882	54.1514
0.00155776	54.3075
0.00156675	54.464
0.0015758	54.621
0.00158489	54.7785
0.00159404	54.9363
0.00160325	55.0947
0.0016125	55.2535
0.00162181	55.4128
0.00163117	55.5725
0.00164059	55.7327
0.00165006	55.8933
0.00165959	56.0544
0.00166917	56.216
0.0016788	56.378
0.0016885	56.5405
0.00169824	56.7035
0.00170805	56.8669
0.00171791	57.0308
0.00172783	57.1952
0.0017378	57.3601
0.00174783	57.5254
0.00175792	57.6912
0.00176807	57.8575
0.00177828	58.0243
0.00178855	58.1915
0.00179887	58.3593
0.00180926	58.5275
0.0018197	58.6962
0.00183021	58.8654
0.00184077	59.035
0.0018514	59.2052
0.00186209	59.3758
0.00187284	59.547
0.00188365	59.7186
0.00189452	59.8908
0.00190546	60.0634
0.00191646	60.2365
0.00192752	60.4101
0.00193865	60.5843
0.00194984	60.7589
0.0019611	60.934
0.00197242	61.1096
0.00198381	61.2858
0.00199526	61.4624
0.00200678	61.6396
0.00201837	61.8173
0.00203002	61.9954
0.00204174	62.1741
0.00205353	62.3533
0.00206538	62.5331
0.0020773	62.7133
0.0020893	62.8941
0.00210136	63.0754
0.00211349	63.2572
0.00212569	63.4395
0.00213796	63.6224
0.0021503	63.8057
0.00216272	63.9897
0.0021752	64.1741
0.00218776	64.3591
0.00220039	64.5446
0.00221309	64.7306
0.00222587	64.9172
0.00223872	65.1043
0.00225165	65.292
0.00226464	65.4802
0.00227772	65.6689
0.00229087	65.8582
0.00230409	66.048
0.00231739	66.2384
0.00233077	66.4293
0.00234423	66.6208
0.00235776	66.8128
0.00237137	67.0054
0.00238506	67.1985
0.00239883	67.3922
0.00241268	67.5865
0.00242661	67.7813
0.00244062	67.9767
0.00245471	68.1726
0.00246888	68.3691
0.00248313	68.5662
0.00249747	68.7638
0.00251189	68.962
0.00252639	69.1608
0.00254097	69.3601
0.00255564	69.56
0.0025704	69.7605
0.00258523	69.9616
0.00260016	70.1633
0.00261517	70.3655
0.00263027	70.5683
0.00264545	70.7717
0.00266073	70.9757
0.00267609	71.1803
0.00269153	71.3855
0.00270707	71.5912
0.0027227	71.7976
0.00273842	72.0045
0.00275423	72.2121
0.00277013	72.4202
0.00278612	72.629
0.00280221	72.8383
0.00281838	73.0482
0.00283465	73.2588
0.00285102	73.47
0.00286748	73.6817
0.00288403	73.8941
0.00290068	74.1071
0.00291743	74.3207
0.00293427	74.5349
0.00295121	74.7498
0.00296825	74.9652
0.00298538	75.1813
0.00300262	75.398
0.00301995	75.6153
0.00303739	75.8333
0.00305492	76.0518
0.00307256	76.2711
0.0030903	76.4909
0.00310814	76.7114
0.00312608	76.9325
0.00314413	77.1542
0.00316228	77.3766
0.00318053	77.5997
0.0031989	77.8233
0.00321736	78.0476
0.00323594	78.2726
0.00325462	78.4982
0.00327341	78.7245
0.0032923	78.9514
0.00331131	79.179
0.00333043	79.4072
0.00334965	79.6361
0.00336899	79.8656
0.00338844	80.0958
0.003408	80.3267
0.00342768	80.5582
0.00344747	80.7904
0.00346737	81.0233
0.00348739	81.2568
0.00350752	81.4885
0.00352777	81.7177
0.00354813	81.9475
0.00356862	82.1781
0.00358922	82.4093
0.00360994	82.6411
0.00363078	82.8736
0.00365174	83.1068
0.00367282	83.3407
0.00369403	83.5752
0.00371535	83.8104
0.0037368	84.0463
0.00375837	84.2829
0.00378007	84.5201
0.00380189	84.758
0.00382384	84.9967
0.00384592	85.236
0.00386812	85.476
0.00389045	85.7166
0.00391291	85.958
0.0039355	86.2001
0.00395822	86.4429
0.00398107	86.6863
0.00400405	86.9305
0.00402717	87.1754
0.00405042	87.4209
0.0040738	87.6672
0.00409732	87.9142
0.00412098	88.1619
0.00414477	88.4104
0.00416869	88.6595
0.00419276	88.9094
0.00421697	89.1599
0.00424131	89.4112
0.0042658	89.6633
0.00429042	89.916
0.00431519	90.1695
0.0043401	90.4237
0.00436516	90.6787
0.00439036	90.9343
0.0044157	91.1908
0.0044412	91.4479
0.00446684	91.7058
0.00449262	91.9645
0.00451856	92.2239
0.00454465	92.484
0.00457088	92.7449
0.00459727	93.0065
0.00462381	93.269
0.0046505	93.5321
0.00467735	93.796
0.00470435	94.0607
0.00473151	94.3262
0.00475883	94.5924
0.0047863	94.8593
0.00481393	95.1271
0.00484172	95.3956
0.00486968	95.6649
0.00489779	95.935
0.00492606	96.2059
0.0049545	96.4775
0.0049831	96.7499
0.00501187	97.0232
0.00504081	97.2972
0.00506991	97.572
0.00509918	97.8475
0.00512861	98.1239
0.00515822	98.4011
0.005188	98.6791
0.00521795	98.9579
0.00524807	99.2375
0.00527837	99.5179
0.00530884	99.7991
0.00533949	100.081
0.00537032	100.364
0.00540132	100.648
0.0054325	100.932
0.00546387	101.217
0.00549541	101.504
0.00552713	101.791
0.00555904	102.078
0.00559114	102.367
0.00562341	102.656
0.00565588	102.947
0.00568853	103.238
0.00572137	103.53
0.0057544	103.823
0.00578762	104.116
0.00582103	104.411
0.00585464	104.706
0.00588844	105.003
0.00592243	105.3
0.00595662	105.598
0.00599101	105.896
0.0060256	106.196
0.00606038	106.497
0.00609537	106.798
0.00613056	107.1
0.00616595	107.403
0.00620155	107.708
0.00623735	108.012
0.00627336	108.318
0.00630957	108.625
0.006346	108.933
0.00638263	109.241
0.00641948	109.55
0.00645654	109.861
0.00649382	110.172
0.00653131	110.484
0.00656901	110.797
0.00660693	111.111
0.00664508	111.426
0.00668344	111.741
0.00672202	112.058
0.00676083	112.376
0.00679986	112.694
0.00683912	113.013
0.0068786	113.334
0.00691831	113.655
0.00695825	113.977
0.00699842	114.3
0.00703882	114.624
0.00707946	114.949
0.00712033	115.275
0.00716143	115.602
0.00720278	115.93
0.00724436	116.259
0.00728618	116.588
0.00732825	116.919
0.00737055	117.251
0.0074131	117.583
0.0074559	117.917
0.00749894	118.252
0.00754223	118.587
0.00758578	118.924
0.00762957	119.261
0.00767361	119.6
0.00771792	119.939
0.00776247	120.279
0.00780728	120.621
0.00785236	120.963
0.00789769	121.307
0.00794328	121.651
0.00798914	121.997
0.00803526	122.343
0.00808165	122.69
0.00812831	123.039
0.00817523	123.388
0.00822243	123.739
0.0082699	124.09
0.00831764	124.443
0.00836566	124.796
0.00841395	125.151
0.00846253	125.506
0.00851138	125.863
0.00856052	126.221
0.00860994	126.579
0.00865964	126.939
0.00870964	127.3
0.00875992	127.662
0.00881049	128.025
0.00886135	128.389
0.00891251	128.754
0.00896396	129.12
0.00901571	129.487
0.00906776	129.855
0.00912011	130.224
0.00917276	130.595
0.00922571	130.966
0.00927897	131.339
0.00933254	131.712
0.00938642	132.087
0.00944061	132.463
0.00949511	132.84
0.00954993	133.218
0.00960506	133.597
0.00966051	133.977
0.00971628	134.358
0.00977237	134.741
0.00982879	135.124
0.00988553	135.509
0.0099426	135.895
0.01	136.282
0.0100577	136.67
0.0101158	137.059
0.0101742	137.449
0.0102329	137.84
0.010292	138.233
0.0103514	138.627
0.0104112	139.022
0.0104713	139.418
0.0105317	139.815
0.0105925	140.213
0.0106537	140.613
0.0107152	141.013
0.0107771	141.415
0.0108393	141.818
0.0109018	142.222
0.0109648	142.628
0.0110281	143.034
0.0110917	143.442
0.0111558	143.851
0.0112202	144.261
0.011285	144.672
0.0113501	145.085
0.0114156	145.498
0.0114815	145.913
0.0115478	146.329
0.0116145	146.747
0.0116815	147.165
0.011749	147.585
0.0118168	148.006
0.011885	148.428
0.0119536	148.852
0.0120226	149.277
0.0120921	149.703
0.0121619	150.13
0.0122321	150.558
0.0123027	150.988
0.0123737	151.419
0.0124451	151.851
0.012517	152.285
0.0125893	152.719
0.0126619	153.155
0.012735	153.593
0.0128086	154.031
0.0128825	154.471
0.0129569	154.912
0.0130317	155.355
0.0131069	155.798
0.0131826	156.244
0.0132587	156.69
0.0133352	157.137
0.0134122	157.586
0.0134896	158.037
0.0135675	158.488
0.0136458	158.941
0.0137246	159.395
0.0138038	159.851
0.0138835	160.308
0.0139637	160.766
0.0140443	161.028
0.0141254	161.135
0.0142069	161.244
0.0142889	161.353
0.0143714	161.464
0.0144544	161.575
0.0145378	161.688
0.0146218	161.802
0.0147062	161.917
0.0147911	162.033
0.0148765	162.15
0.0149624	162.268
0.0150487	162.387
0.0151356	162.507
0.015223	162.628
0.0153109	162.75
0.0153993	162.873
0.0154882	162.997
0.0155776	163.122
0.0156675	163.247
0.015758	163.374
0.0158489	163.501
0.0159404	163.63
0.0160325	163.759
0.016125	163.889
0.0162181	164.02
0.0163117	164.152
0.0164059	164.285
0.0165006	164.418
0.0165959	164.553
0.0166917	164.688
0.016788	164.824
0.016885	164.961
0.0169824	165.098
0.0170805	165.236
0.0171791	165.375
0.0172783	165.515
0.017378	165.656
0.0174783	165.797
0.0175792	165.939
0.0176807	166.082
0.0177828	166.225
0.0178855	166.369
0.0179887	166.514
0.0180926	166.66
0.018197	166.806
0.0183021	166.953
0.0184077	167.101
0.018514	167.249
0.0186209	167.398
0.0187284	167.548
0.0188365	167.698
0.0189452	167.849
0.0190546	168
0.0191646	168.153
0.0192752	168.306
0.0193865	168.459
0.0194984	168.613
0.019611	168.768
0.0197242	168.923
0.0198381	169.079
0.0199526	169.236
0.0200678	169.393
0.0201837	169.551
0.0203002	169.709
0.0204174	169.868
0.0205353	170.028
0.0206538	170.188
0.020773	170.349
0.020893	170.51
0.0210136	170.672
0.0211349	170.834
0.0212569	170.997
0.0213796	171.161
0.021503	171.325
0.0216272	171.49
0.021752	171.655
0.0218776	171.821
0.0220039	171.987
0.0221309	172.154
0.0222587	172.322
0.0223872	172.49
0.0225165	172.659
0.0226464	172.828
0.0227772	172.998
0.0229087	173.168
0.0230409	173.339
0.0231739	173.51
0.0233077	173.682
0.0234423	173.855
0.0235776	174.028
0.0237137	174.202
0.0238506	174.376
0.0239883	174.551
0.0241268	174.726
0.0242661	174.902
0.0244062	175.078
0.0245471	175.255
0.0246888	175.432
0.0248313	175.61
0.0249747	175.789
0.0251189	175.968
0.0252639	176.147
0.0254097	176.328
0.0255564	176.508
0.025704	176.69
0.0258523	176.871
0.0260016	177.054
0.0261517	177.237
0.0263027	177.42
0.0264545	177.604
0.0266073	177.789
0.0267609	177.974
0.0269153	178.16
0.0270707	178.346
0.027227	178.533
0.0273842	178.72
0.0275423	178.908
0.0277013	179.097
0.0278612	179.286
0.0280221	179.475
0.0281838	179.666
0.0283465	179.856
0.0285102	180.048
0.0286748	180.24
0.0288403	180.432
0.0290068	180.625
0.0291743	180.819
0.0293427	181.013
0.0295121	181.208
0.0296825	181.404
0.0298538	181.6
0.0300262	181.796
0.0301995	181.993
0.0303739	182.191
0.0305492	182.39
0.0307256	182.589
0.030903	182.788
0.0310814	182.989
0.0312608	183.19
0.0314413	183.391
0.0316228	183.593
0.0318053	183.796
0.031989	183.999
0.0321736	184.203
0.0323594	184.408
0.0325462	184.613
0.0327341	184.819
0.032923	185.026
0.0331131	185.233
0.0333043	185.441
0.0334965	185.649
0.0336899	185.858
0.0338844	186.068
0.03408	186.279
0.0342768	186.49
0.0344747	186.702
0.0346737	186.914
0.0348739	187.127
0.0350752	187.341
0.0352777	187.556
0.0354813	187.771
0.0356862	187.987
0.0358922	188.203
0.0360994	188.421
0.0363078	188.639
0.0365174	188.858
0.0367282	189.077
0.0369403	189.297
0.0371535	189.518
0.037368	189.74
0.0375837	189.962
0.0378007	190.185
0.0380189	190.409
0.0382384	190.633
0.0384592	190.859
0.0386812	191.085
0.0389045	191.311
0.0391291	191.539
0.039355	191.767
0.0395822	191.996
0.0398107	192.226
0.0400405	192.457
0.0402717	192.688
0.0405042	192.92
0.040738	193.153
0.0409732	193.387
0.0412098	193.622
0.0414477	193.857
0.0416869	194.093
0.0419276	194.33
0.0421697	194.568
0.0424131	194.807
0.042658	195.046
0.0429042	195.286
0.0431519	195.527
0.043401	195.769
0.0436516	196.012
0.0439036	196.256
0.044157	196.5
0.044412	196.746
0.0446684	196.992
0.0449262	197.239
0.0451856	197.487
0.0454465	197.736
0.0457088	197.985
0.0459727	198.236
0.0462381	198.487
0.046505	198.74
0.0467735	198.993
0.0470435	199.247
0.0473151	199.502
0.0475883	199.758
0.047863	200.015
0.0481393	200.273
0.0484172	200.532
0.0486968	200.792
0.0489779	201.052
0.0492606	201.314
0.049545	201.577
0.049831	201.84
0.0501187	202.105
0.0504081	202.37
0.0506991	202.636
0.0509918	202.904
0.0512861	203.172
0.0515822	203.442
0.05188	203.712
0.0521795	203.983
0.0524807	204.255
0.0527837	204.529
0.0530884	204.803
0.0533949	205.079
0.0537032	205.355
0.0540132	205.632
0.054325	205.911
0.0546387	206.19
0.0549541	206.471
0.0552713	206.752
0.0555904	207.035
0.0559114	207.319
0.0562341	207.603
0.0565588	207.889
0.0568853	208.176
0.0572137	208.464
0.057544	208.753
0.0578762	209.043
0.0582103	209.334
0.0585464	209.626
0.0588844	209.92
0.0592243	210.214
0.0595662	210.51
0.0599101	210.807
0.060256	211.104
0.0606038	211.403
0.0609537	211.704
0.0613056	212.005
0.0616595	212.307
0.0620155	212.611
0.0623735	212.915
0.0627336	213.221
0.0630957	213.528
0.06346	213.836
0.0638263	214.146
0.0641948	214.456
0.0645654	214.768
0.0649382	215.081
0.0653131	215.395
0.0656901	215.71
0.0660693	216.027
0.0664508	216.344
0.0668344	216.663
0.0672202	216.983
0.0676083	217.305
0.0679986	217.627
0.0683912	217.951
0.068786	218.276
0.0691831	218.603
0.0695825	218.93
0.0699842	219.259
0.0703882	219.589
0.0707946	219.92
0.0712033	220.253
0.0716143	220.587
0.0720278	220.922
0.0724436	221.258
0.0728618	221.596
0.0732825	221.935
0.0737055	222.275
0.074131	222.617
0.074559	222.96
0.0749894	223.304
0.0754223	223.65
0.0758578	223.997
0.0762957	224.345
0.0767361	224.695
0.0771792	225.046
0.0776247	225.398
0.0780728	225.751
0.0785236	226.106
0.0789769	226.463
0.0794328	226.82
0.0798914	227.179
0.0803526	227.54
0.0808165	227.902
0.0812831	228.265
0.0817523	228.629
0.0822243	228.995
0.082699	229.363
0.0831764	229.732
0.0836566	230.102
0.0841395	230.473
0.0846253	230.846
0.0851138	231.221
0.0856052	231.597
0.0860994	231.974
0.0865964	232.353
0.0870964	232.733
0.0875992	233.115
0.0881049	233.498
0.0886135	233.882
0.0891251	234.268
0.0896396	234.656
0.0901571	235.045
0.0906776	235.435
0.0912011	235.827
0.0917276	236.221
0.0922571	236.616
0.0927897	237.012
0.0933254	237.41
0.0938642	237.809
0.0944061	238.21
0.0949511	238.613
0.0954993	239.017
0.0960506	239.422
0.0966051	239.829
0.0971628	240.238
0.0977237	240.648
0.0982879	241.06
0.0988553	241.473
0.099426	241.887
0.1	242.304
0.100577	242.722
0.101158	243.141
0.101742	243.562
0.102329	243.985
0.10292	244.409
0.103514	244.834
0.104112	245.262
0.104713	245.691
0.105317	246.121
0.105925	246.553
0.106537	246.987
0.107152	247.422
0.107771	247.859
0.108393	248.298
0.109018	248.738
0.109648	249.18
0.110281	249.623
0.110917	250.068
0.111558	250.515
0.112202	250.963
0.11285	251.414
0.113501	251.865
0.114156	252.319
0.114815	252.774
0.115478	253.23
0.116145	253.688
0.116815	254.148
0.11749	254.61
0.118168	255.074
0.11885	255.539
0.119536	256.005
0.120226	256.474
0.120921	256.944
0.121619	257.416
0.122321	257.889
0.123027	258.364
0.123737	258.841
0.124451	259.32
0.12517	259.8
0.125893	260.283
0.126619	260.766
0.12735	261.252
0.128086	261.739
0.128825	262.228
0.129569	262.719
0.130317	263.212
0.131069	263.706
0.131826	264.202
0.132587	264.7
0.133352	265.199
0.134122	265.701
0.134896	266.204
0.135675	266.708
0.136458	267.215
0.137246	267.723
0.138038	268.234
0.138835	268.746
0.139637	269.259
0.140443	269.775
0.141254	270.292
0.142069	270.811
0.142889	271.332
0.143714	271.855
0.144544	272.379
0.145378	272.906
0.146218	273.434
0.147062	273.964
0.147911	274.496
0.148765	275.029
0.149624	275.565
0.150487	276.102
0.151356	276.641
0.15223	277.182
0.153109	277.724
0.153993	278.269
0.154882	278.815
0.155776	279.363
0.156675	279.913
0.15758	280.465
0.158489	281.019
0.159404	281.575
0.160325	282.132
0.16125	282.691
0.162181	283.252
0.163117	283.815
0.164059	284.38
0.165006	284.947
0.165959	285.515
0.166917	286.086
0.16788	286.658
0.16885	287.232
0.169824	287.808
0.170805	288.386
0.171791	288.965
0.172783	289.547
0.17378	290.13
0.174783	290.716
0.175792	291.303
0.176807	291.892
0.177828	292.483
0.178855	293.076
0.179887	293.67
0.180926	294.267
0.18197	294.865
0.183021	295.466
0.184077	296.068
0.18514	296.672
0.186209	297.278
0.187284	297.886
0.188365	298.495
0.189452	299.107
0.190546	299.72
0.191646	300.336
0.192752	301.266
0.193865	302.244
0.194984	303.227
0.19611	304.216
0.197242	305.211
0.198381	306.212
0.199526	307.219
0.200678	308.232
0.201837	309.251
0.203002	310.276
0.204174	311.308
0.205353	312.346
0.206538	313.39
0.20773	314.44
0.20893	315.497
0.210136	316.56
0.211349	317.63
0.212569	318.706
0.213796	319.789
0.21503	320.878
0.216272	321.974
0.21752	323.077
0.218776	324.186
0.220039	325.303
0.221309	326.426
0.222587	327.556
0.223872	328.693
0.225165	329.837
0.226464	330.988
0.227772	332.146
0.229087	333.311
0.230409	334.484
0.231739	335.664
0.233077	336.851
0.234423	338.045
0.235776	339.247
0.237137	340.457
0.238506	341.674
0.239883	342.898
0.241268	344.13
0.242661	345.37
0.244062	346.618
0.245471	347.873
0.246888	349.137
0.248313	350.408
0.249747	351.687
0.251189	352.975
0.252639	354.27
0.254097	355.574
0.255564	356.885
0.25704	358.206
0.258523	359.534
0.260016	360.871
0.261517	362.216
0.263027	363.57
0.264545	364.933
0.266073	366.304
0.267609	367.684
0.269153	369.073
0.270707	370.47
0.27227	371.877
0.273842	373.292
0.275423	374.717
0.277013	376.151
0.278612	377.594
0.280221	379.046
0.281838	380.508
0.283465	381.979
0.285102	383.459
0.286748	384.949
0.288403	386.449
0.290068	387.959
0.291743	389.478
0.293427	391.007
0.295121	392.546
0.296825	394.095
0.298538	395.654
0.300262	397.223
0.301995	398.803
0.303739	400.393
0.305492	401.993
0.307256	403.604
0.30903	405.225
0.310814	406.857
0.312608	408.5
0.314413	410.153
0.316228	411.818
0.318053	413.493
0.31989	415.179
0.321736	416.877
0.323594	418.585
0.325462	420.305
0.327341	422.037
0.32923	423.78
0.331131	425.534
0.333043	427.301
0.334965	429.078
0.336899	430.868
0.338844	432.67
0.3408	434.484
0.342768	435.969
0.344747	437.803
0.346737	439.649
0.348739	441.507
0.350752	443.377
0.352777	445.127
0.354813	446.754
0.356862	448.39
0.358922	450.033
0.360994	451.683
0.363078	453.342
0.365174	455.008
0.367282	456.682
0.369403	458.363
0.371535	460.053
0.37368	461.75
0.375837	463.455
0.378007	465.168
0.380189	466.889
0.382384	468.618
0.384592	470.354
0.386812	472.099
0.389045	473.851
0.391291	475.611
0.39355	477.38
0.395822	479.156
0.398107	480.94
0.400405	482.732
0.402717	484.532
0.405042	486.34
0.40738	488.157
0.409732	489.981
0.412098	491.813
0.414477	493.653
0.416869	495.501
0.419276	497.358
0.421697	499.222
0.424131	501.095
0.42658	502.975
0.429042	504.864
0.431519	506.761
0.43401	508.666
0.436516	510.579
0.439036	512.5
0.44157	514.43
0.44412	516.367
0.446684	518.313
0.449262	520.266
0.451856	522.228
0.454465	524.198
0.457088	526.177
0.459727	528.163
0.462381	530.158
0.46505	532.161
0.467735	534.171
0.470435	536.191
0.473151	538.218
0.475883	540.253
0.47863	542.297
0.481393	544.349
0.484172	546.408
0.486968	548.477
0.489779	550.553
0.492606	552.637
0.49545	554.73
0.49831	556.83
0.501187	558.939
0.504081	561.056
0.506991	563.181
0.509918	565.314
0.512861	567.456
0.515822	569.605
0.5188	571.762
0.521795	573.928
0.524807	576.101
0.527837	578.283
0.530884	580.473
0.533949	582.67
0.537032	584.876
0.540132	587.09
0.54325	589.311
0.546387	591.541
0.549541	593.779
0.552713	596.024
0.555904	598.277
0.559114	600.539
0.562341	602.808
0.565588	605.085
0.568853	607.37
0.572137	609.662
0.57544	611.963
0.578762	614.271
0.582103	616.587
0.585464	618.91
0.588844	621.242
0.592243	623.581
0.595662	625.927
0.599101	628.281
0.60256	630.643
0.606038	633.012
0.609537	635.389
0.613056	637.773
0.616595	640.164
0.620155	642.563
0.623735	644.97
0.627336	647.383
0.630957	649.804
0.6346	652.232
0.638263	654.667
0.641948	657.11
0.645654	659.56
0.649382	662.016
0.653131	664.48
0.656901	666.951
0.660693	669.428
0.664508	671.913
0.668344	674.404
0.672202	676.902
0.676083	679.407
0.679986	681.919
0.683912	684.437
0.68786	686.962
0.691831	689.493
0.695825	692.031
0.699842	694.575
0.703882	697.125
0.707946	699.682
0.712033	702.245
0.716143	704.814
0.720278	707.39
0.724436	709.971
0.728618	712.559
0.732825	715.152
0.737055	717.751
0.74131	720.356
0.74559	722.967
0.749894	725.583
0.754223	728.205
0.758578	730.832
0.762957	733.465
0.767361	736.103
0.771792	738.747
0.776247	741.395
0.780728	744.049
0.785236	746.708
0.789769	749.371
0.794328	752.04
0.798914	754.713
0.803526	757.391
0.808165	760.074
0.812831	762.761
0.817523	765.453
0.822243	768.149
0.82699	770.849
0.831764	773.554
0.836566	776.262
0.841395	778.974
0.846253	781.691
0.851138	784.411
0.856052	787.135
0.860994	789.862
0.865964	792.593
0.870964	795.327
0.875992	798.065
0.881049	800.805
0.886135	803.549
0.891251	806.296
0.896396	809.045
0.901571	811.797
0.906776	814.552
0.912011	817.31
0.917276	820.07
0.922571	822.832
0.927897	825.596
0.933254	828.362
0.938642	831.13
0.944061	833.9
0.949511	836.672
0.954993	839.445
0.960506	842.22
0.966051	844.996
0.971628	847.773
0.977237	850.552
0.982879	853.331
0.988553	856.111
0.99426	858.892
1	861.673
1.00577	864.454
1.01158	867.236
1.01742	870.018
1.02329	872.8
1.0292	875.582
1.03514	878.364
1.04112	881.145
1.04713	883.926
1.05317	886.706
1.05925	889.485
1.06537	892.263
1.07152	895.04
1.07771	897.816
1.08393	900.59
1.09018	903.363
1.09648	906.134
1.10281	908.903
1.10917	911.67
1.11558	914.435
1.12202	917.197
1.1285	919.957
1.13501	922.715
1.14156	925.469
1.14815	928.221
1.15478	930.969
1.16145	933.715
1.16815	936.456
1.1749	939.195
1.18168	941.929
1.1885	944.659
1.19536	947.386
1.20226	950.108
1.20921	952.826
1.21619	955.539
1.22321	958.247
1.23027	960.951
1.23737	963.649
1.24451	966.342
1.2517	969.03
1.25893	971.712
1.26619	974.389
1.2735	977.059
1.28086	979.723
1.28825	982.381
1.29569	985.033
1.30317	987.678
1.31069	990.316
1.31826	992.947
1.32587	995.571
1.33352	998.188
1.34122	1000.8
1.34896	1003.4
1.35675	1005.99
1.36458	1008.58
1.37246	1011.16
1.38038	1013.72
1.38835	1016.29
1.39637	1018.84
1.40443	1021.38
1.41254	1023.91
1.42069	1026.44
1.42889	1028.95
1.43714	1031.46
1.44544	1033.96
1.45378	1036.44
1.46218	1038.92
1.47062	1041.38
1.47911	1043.84
1.48765	1046.28
1.49624	1048.71
1.50487	1051.14
1.51356	1053.55
1.5223	1055.95
1.53109	1058.34
1.53993	1060.71
1.54882	1063.08
1.55776	1065.43
1.56675	1067.77
1.5758	1070.1
1.58489	1072.41
1.59404	1074.72
1.60325	1077
1.6125	1079.28
1.62181	1081.54
1.63117	1083.79
1.64059	1086.03
1.65006	1088.25
1.65959	1090.46
1.66917	1092.65
1.6788	1094.83
1.6885	1097
1.69824	1099.15
1.70805	1101.29
1.71791	1103.41
1.72783	1105.51
1.7378	1107.6
1.74783	1109.68
1.75792	1111.74
1.76807	1113.78
1.77828	1115.81
1.78855	1117.82
1.79887	1119.82
1.80926	1121.8
1.8197	1123.76
1.83021	1125.71
1.84077	1127.64
1.8514	1129.55
1.86209	1131.45
1.87284	1133.32
1.88365	1135.19
1.89452	1137.03
1.90546	1138.85
1.91646	1140.66
1.92752	1142.45
1.93865	1144.22
1.94984	1145.98
1.9611	1147.71
1.97242	1149.43
1.98381	1151.13
1.99526	1152.81
2.00678	1154.47
2.01837	1156.11
2.03002	1157.73
2.04174	1159.34
2.05353	1160.92
2.06538	1162.49
2.0773	1164.03
2.0893	1165.56
2.10136	1167.06
2.11349	1168.55
2.12569	1170.02
2.13796	1171.46
2.1503	1172.89
2.16272	1174.29
2.1752	1175.68
2.18776	1177.04
2.20039	1178.39
2.21309	1179.71
2.22587	1181.01
2.23872	1182.3
2.25165	1183.56
2.26464	1184.8
2.27772	1186.02
2.29087	1187.22
2.30409	1188.39
2.31739	1189.55
2.33077	1190.68
2.34423	1191.79
2.35776	1192.89
2.37137	1193.96
2.38506	1195
2.39883	1196.03
2.41268	1197.04
2.42661	1198.02
2.44062	1198.98
2.45471	1199.92
2.46888	1200.84
2.48313	1201.74
2.49747	1202.61
2.51189	1203.46
2.52639	1204.29
2.54097	1205.1
2.55564	1205.89
2.5704	1206.65
2.58523	1207.39
2.60016	1208.11
2.61517	1208.81
2.63027	1209.48
2.64545	1210.14
2.66073	1210.77
2.67609	1211.38
2.69153	1211.96
2.70707	1212.53
2.7227	1213.07
2.73842	1213.59
2.75423	1214.09
2.77013	1214.56
2.78612	1215.01
2.80221	1215.44
2.81838	1215.85
2.83465	1216.24
2.85102	1216.6
2.86748	1216.95
2.88403	1217.27
2.90068	1217.57
2.91743	1217.84
2.93427	1218.1
2.95121	1218.33
2.96825	1218.54
2.98538	1218.73
3.00262	1218.89
3.01995	1219.04
3.03739	1219.16
3.05492	1219.26
3.07256	1219.34
3.0903	1219.4
3.10814	1219.44
3.12608	1219.45
3.14413	1219.45
3.16228	1219.42
3.18053	1219.37
3.1989	1219.3
3.21736	1219.21
3.23594	1219.09
3.25462	1218.96
3.27341	1218.81
3.2923	1218.63
3.31131	1218.43
3.33043	1218.22
3.34965	1217.98
3.36899	1217.72
3.38844	1217.44
3.408	1217.15
3.42768	1216.83
3.44747	1216.49
3.46737	1216.13
3.48739	1215.75
3.50752	1215.35
3.52777	1214.93
3.54813	1214.49
3.56862	1214.03
3.58922	1213.55
3.60994	1213.06
3.63078	1212.54
3.65174	1212.01
3.67282	1211.45
3.69403	1210.88
3.71535	1210.29
3.7368	1209.67
3.75837	1209.04
3.78007	1208.4
3.80189	1207.73
3.82384	1207.05
3.84592	1206.34
3.86812	1205.62
3.89045	1204.88
3.91291	1204.13
3.9355	1203.35
3.95822	1202.56
3.98107	1201.75
4.00405	1200.93
4.02717	1200.09
4.05042	1199.23
4.0738	1198.35
4.09732	1197.46
4.12098	1196.55
4.14477	1195.62
4.16869	1194.68
4.19276	1191.88
4.21697	1190.93
4.24131	1189.97
4.2658	1188.99
4.29042	1188
4.31519	1186.99
4.3401	1185.96
4.36516	1184.92
4.39036	1183.87
4.4157	1182.79
4.4412	1181.71
4.46684	1180.61
4.49262	1179.49
4.51856	1178.36
4.54465	1177.22
4.57088	1176.06
4.59727	1174.89
4.62381	1173.7
4.6505	1172.5
4.67735	1171.29
4.70435	1170.06
4.73151	1168.82
4.75883	1167.57
4.7863	1166.3
4.81393	1165.02
4.84172	1163.73
4.86968	1162.43
4.89779	1161.11
4.92606	1159.78
4.9545	1158.44
4.9831	1157.09
5.01187	1155.72
5.04081	1154.35
5.06991	1152.96
5.09918	1151.56
5.12861	1150.15
5.15822	1148.73
5.188	1147.3
5.21795	1145.86
5.24807	1144.41
5.27837	1142.94
5.30884	1141.47
5.33949	1139.99
5.37032	1138.49
5.40132	1136.99
5.4325	1135.48
5.46387	1133.96
5.49541	1132.43
5.52713	1130.89
5.55904	1129.34
5.59114	1127.78
5.62341	1126.22
5.65588	1124.64
5.68853	1123.06
5.72137	1121.47
5.7544	1119.87
5.78762	1118.26
5.82103	1116.65
5.85464	1115.02
5.88844	1113.39
5.92243	1111.76
5.95662	1110.11
5.99101	1108.46
6.0256	1106.8
6.06038	1105.14
6.09537	1103.47
6.13056	1101.79
6.16595	1100.1
6.20155	1098.41
6.23735	1096.71
6.27336	1095.01
6.30957	1093.3
6.346	1091.59
6.38263	1089.87
6.41948	1088.14
6.45654	1086.41
6.49382	1084.68
6.53131	1082.94
6.56901	1081.19
6.60693	1079.44
6.64508	1077.69
6.68344	1075.93
6.72202	1074.16
6.76083	1072.39
6.79986	1070.62
6.83912	1068.84
6.8786	1067.06
6.91831	1065.28
6.95825	1063.49
6.99842	1061.7
7.03882	1059.9
7.07946	1058.1
7.12033	1056.3
7.16143	1054.5
7.20278	1052.69
7.24436	1050.88
7.28618	1049.06
7.32825	1047.25
7.37055	1045.43
7.4131	1043.61
7.4559	1041.78
7.49894	1039.95
7.54223	1038.12
7.58578	1036.29
7.62957	1034.46
7.67361	1032.62
7.71792	1030.79
7.76247	1028.95
7.80728	1027.11
7.85236	1025.26
7.89769	1023.42
7.94328	1021.58
7.98914	1019.73
8.03526	1017.88
8.08165	1016.03
8.12831	1014.18
8.17523	1012.33
8.22243	1010.48
8.2699	1008.62
8.31764	1006.77
8.36566	1004.91
8.41395	1003.06
8.46253	1001.2
8.51138	999.342
8.56052	997.485
8.60994	995.627
8.65964	993.768
8.70964	991.909
8.75992	990.05
8.81049	988.191
8.86135	986.331
8.91251	984.472
8.96396	982.612
9.01571	980.753
9.06776	978.893
9.12011	977.034
9.17276	975.175
9.22571	973.316
9.27897	971.457
9.33254	969.599
9.38642	967.741
9.44061	965.883
9.49511	964.026
9.54993	962.17
9.60506	960.314
9.66051	958.458
9.71628	956.603
9.77237	954.749
9.82879	952.896
9.88553	951.043
9.9426	949.191
10	947.34
10.0577	945.49
10.1158	943.64
10.1742	941.792
10.2329	939.944
10.292	938.097
10.3514	936.252
10.4112	934.407
10.4713	932.563
10.5317	930.721
10.5925	928.879
10.6537	927.039
10.7152	925.199
10.7771	923.361
10.8393	921.524
10.9018	919.689
10.9648	917.854
11.0281	916.021
11.0917	914.189
11.1558	912.358
11.2202	910.528
11.285	908.7
11.3501	906.873
11.4156	905.048
11.4815	903.223
11.5478	901.4
11.6145	899.579
11.6815	897.758
11.749	895.94
11.8168	894.122
11.885	892.306
11.9536	890.491
12.0226	888.678
12.0921	886.866
12.1619	885.055
12.2321	883.246
12.3027	881.439
12.3737	879.632
12.4451	877.828
12.517	876.024
12.5893	874.222
12.6619	872.422
12.735	870.623
12.8086	868.825
12.8825	867.029
12.9569	865.234
13.0317	863.441
13.1069	861.649
13.1826	859.858
13.2587	858.069
13.3352	856.282
13.4122	854.496
13.4896	852.711
13.5675	850.928
13.6458	849.146
13.7246	847.365
13.8038	845.586
13.8835	843.809
13.9637	842.032
14.0443	840.258
14.1254	838.484
14.2069	836.712
14.2889	834.941
14.3714	833.172
14.4544	831.404
14.5378	829.638
14.6218	827.872
14.7062	826.109
14.7911	824.346
14.8765	822.585
14.9624	820.825
15.0487	819.067
15.1356	817.309
15.223	815.553
15.3109	813.799
15.3993	812.046
15.4882	810.294
15.5776	808.543
15.6675	806.793
15.758	805.045
15.8489	803.298
15.9404	801.552
16.0325	799.808
16.125	798.065
16.2181	796.323
16.3117	794.582
16.4059	792.842
16.5006	791.104
16.5959	789.366
16.6917	787.63
16.788	785.895
16.885	784.161
16.9824	782.429
17.0805	780.697
17.1791	778.967
17.2783	777.238
17.378	775.51
17.4783	773.782
17.5792	772.057
17.6807	770.332
17.7828	768.615
17.8855	766.892
17.9887	765.17
18.0926	763.449
18.197	761.729
18.3021	760.01
18.4077	758.292
18.514	756.575
18.6209	754.859
18.7284	753.144
18.8365	751.431
18.9452	749.718
19.0546	748.006
19.1646	746.295
19.2752	744.586
19.3865	742.877
19.4984	741.169
19.611	739.462
19.7242	737.756
19.8381	736.051
19.9526	734.347
20.0678	732.644
20.1837	730.942
20.3002	729.241
20.4174	727.54
20.5353	725.841
20.6538	724.142
20.773	722.445
20.893	720.748
21.0136	719.052
21.1349	717.357
21.2569	715.663
21.3796	713.97
21.503	712.278
21.6272	710.586
21.752	708.895
21.8776	707.206
22.0039	705.517
22.1309	703.828
22.2587	702.141
22.3872	700.455
22.5165	698.769
22.6464	697.084
22.7772	695.4
22.9087	693.717
23.0409	692.035
23.1739	690.353
23.3077	688.673
23.4423	686.993
23.5776	685.314
23.7137	683.635
23.8506	681.958
23.9883	680.281
24.1268	678.605
24.2661	676.93
24.4062	675.256
24.5471	673.582
24.6888	671.91
24.8313	670.238
24.9747	668.567
25.1189	666.897
25.2639	665.227
25.4097	663.558
25.5564	661.891
25.704	660.224
25.8523	658.557
26.0016	656.892
26.1517	655.227
26.3027	653.563
26.4545	651.9
26.6073	650.238
26.7609	648.577
26.9153	646.916
27.0707	645.256
27.227	643.597
27.3842	641.939
27.5423	640.282
27.7013	638.626
27.8612	636.942
28.0221	635.205
28.1838	633.468
28.3465	631.733
28.5102	629.998
28.6748	628.264
28.8403	626.531
29.0068	624.834
29.1743	623.1
29.3427	621.366
29.5121	619.634
29.6825	617.902
29.8538	616.17
30.0262	614.438
30.1995	612.705
30.3739	610.974
30.5492	609.243
30.7256	607.512
30.903	605.783
31.0814	604.132
31.2608	602.403
31.4413	600.698
31.6228	598.969
31.8053	597.241
31.989	595.514
32.1736	593.787
32.3594	592.06
32.5462	590.335
32.7341	588.61
32.923	586.886
33.1131	585.163
33.3043	583.44
33.4965	581.717
33.6899	579.995
33.8844	578.275
34.08	576.891
34.2768	575.17
34.4747	573.447
34.6737	571.727
34.8739	568.876
35.0752	567.139
35.2777	565.506
35.4813	563.771
35.6862	562.037
35.8922	560.305
36.0994	558.575
36.3078	556.848
36.5174	555.122
36.7282	553.396
36.9403	551.672
37.1535	549.95
37.368	548.228
37.5837	546.508
37.8007	544.788
38.0189	543.07
38.2384	541.354
38.4592	539.638
38.6812	537.924
38.9045	536.211
39.1291	534.499
39.355	532.79
39.5822	531.081
39.8107	529.373
40.0405	527.667
40.2717	525.962
40.5042	524.259
40.738	522.557
40.9732	520.856
41.2098	519.157
41.4477	517.784
41.6869	516.087
41.9276	514.392
42.1697	512.698
42.4131	511.005
42.658	509.315
42.9042	507.626
43.1519	505.938
43.401	504.253
43.6516	502.564
43.9036	500.882
44.157	499.201
44.412	497.523
44.6684	495.847
44.9262	494.172
45.1856	492.499
45.4465	490.829
45.7088	489.16
45.9727	487.494
46.2381	485.83
46.505	484.168
46.7735	482.508
47.0435	480.87
47.3151	479.214
47.5883	477.561
47.863	475.909
48.1393	474.261
48.4172	472.614
48.6968	470.969
48.9779	469.352
49.2606	467.762
49.545	466.172
49.831	464.585
50.1187	462.998
50.4081	461.414
50.6991	459.832
50.9918	458.252
51.2861	456.674
51.5822	455.097
51.88	453.523
52.1795	451.951
52.4807	450.381
52.7837	448.813
53.0884	447.247
53.3949	445.684
53.7032	444.122
54.0132	442.563
54.325	441.007
54.6387	439.452
54.9541	437.9
55.2713	436.351
55.5904	434.803
55.9114	433.258
56.2341	431.716
56.5588	430.176
56.8853	428.757
57.2137	427.22
57.544	425.686
57.8762	424.155
58.2103	422.626
58.5464	421.099
58.8844	419.576
59.2243	418.056
59.5662	416.538
59.9101	415.023
60.256	413.51
60.6038	412.001
60.9537	410.494
61.3056	408.991
61.6595	407.49
62.0155	405.993
62.3735	404.77
62.7336	403.276
63.0957	401.784
63.46	400.296
63.8263	398.81
64.1948	397.328
64.5654	395.849
64.9382	394.373
65.3131	392.9
65.6901	391.431
66.0693	389.964
66.4508	388.501
66.8344	387.041
67.2202	385.584
67.6083	384.131
67.9986	382.681
68.3912	381.234
68.786	379.791
69.1831	378.351
69.5825	376.914
69.9842	375.481
70.3882	374.051
70.7946	372.625
71.2033	371.201
71.6143	369.781
72.0278	368.365
72.4436	366.952
72.8618	365.542
73.2825	364.136
73.7055	362.734
74.131	361.335
74.559	359.939
74.9894	358.547
75.4223	357.158
75.8578	355.773
76.2957	354.392
76.7361	353.014
77.1792	351.639
77.6247	350.268
78.0728	348.901
78.5236	347.537
78.9769	346.184
79.4328	344.827
79.8914	343.546
80.3526	342.195
80.8165	340.848
81.2831	339.505
81.7523	338.165
82.2243	336.828
82.699	335.495
83.1764	334.166
83.6566	332.84
84.1395	331.518
84.6253	330.2
85.1138	328.885
85.6052	327.574
86.0994	326.267
86.5964	324.963
87.0964	323.663
87.5992	322.367
88.1049	321.074
88.6135	319.785
89.1251	318.499
89.6396	317.217
90.1571	315.939
90.6776	314.665
91.2011	313.394
91.7276	312.127
92.2571	310.864
92.7897	309.604
93.3254	308.348
93.8642	307.096
94.4061	305.847
94.9511	304.602
95.4993	303.361
96.0506	302.123
96.6051	300.889
97.1628	299.659
97.7237	298.433
98.2879	297.21
98.8553	295.991
99.426	294.776
100	293.564
100.577	292.357
101.158	291.152
101.742	289.952
102.329	288.755
102.92	287.562
103.514	286.373
104.112	285.187
104.713	284.095
105.317	282.915
105.925	281.739
106.537	280.567
107.152	279.398
107.771	278.233
108.393	277.072
109.018	275.914
109.648	274.76
110.281	273.61
110.917	272.468
111.558	271.325
112.202	270.186
112.85	269.05
113.501	267.919
114.156	266.791
114.815	265.666
115.478	264.546
116.145	263.429
116.815	262.316
117.49	261.207
118.168	260.101
118.85	258.999
119.536	257.901
120.226	256.806
120.921	255.715
121.619	254.628
122.321	253.544
123.027	252.464
123.737	251.388
124.451	250.315
125.17	249.246
125.893	248.18
126.619	247.118
127.35	246.06
128.086	245.005
128.825	243.954
129.569	242.907
130.317	241.863
131.069	240.823
131.826	239.786
132.587	238.754
133.352	237.724
134.122	236.698
134.896	235.676
135.675	234.658
136.458	233.643
137.246	232.632
138.038	231.624
138.835	230.62
139.637	229.619
140.443	228.622
141.254	227.628
142.069	226.639
142.889	225.652
143.714	224.669
144.544	223.69
145.378	222.715
146.218	221.742
147.062	220.828
147.911	219.863
148.765	218.9
149.624	217.942
150.487	216.986
151.356	216.034
152.23	215.086
153.109	214.141
153.993	213.2
154.882	212.262
155.776	211.328
156.675	210.397
157.58	209.47
158.489	208.546
159.404	207.626
160.325	206.709
161.25	205.796
162.181	204.886
163.117	203.979
164.059	203.076
165.006	202.177
165.959	201.281
166.917	200.388
167.88	199.499
168.85	198.613
169.824	197.73
170.805	196.851
171.791	195.976
172.783	195.103
173.78	194.234
174.783	193.369
175.792	192.507
176.807	191.648
177.828	190.793
178.855	189.941
179.887	189.092
180.926	188.247
181.97	187.405
183.021	186.566
184.077	185.731
185.14	184.899
186.209	184.07
187.284	183.245
188.365	182.423
189.452	181.604
190.546	180.788
191.646	179.976
192.752	179.167
193.865	178.361
194.984	177.559
196.11	176.759
197.242	175.963
198.381	175.17
199.526	174.381
200.678	173.594
201.837	172.811
203.002	172.031
204.174	171.254
205.353	170.481
206.538	169.71
207.73	168.943
208.93	168.179
210.136	167.417
211.349	166.659
212.569	165.905
213.796	165.153
215.03	164.405
216.272	163.66
217.52	162.918
218.776	162.179
220.039	161.443
221.309	160.71
222.587	159.98
223.872	159.253
225.165	158.529
226.464	157.808
227.772	157.091
229.087	156.376
230.409	155.664
231.739	154.955
233.077	154.25
234.423	153.547
235.776	152.847
237.137	152.15
238.506	151.457
239.883	150.766
241.268	150.078
242.661	149.393
244.062	148.71
245.471	148.031
246.888	147.355
248.313	146.681
249.747	146.011
251.189	145.343
252.639	144.678
254.097	144.016
255.564	143.357
257.04	142.701
258.523	142.047
260.016	141.397
261.517	140.749
263.027	140.104
264.545	139.461
266.073	138.822
267.609	138.185
269.153	137.551
270.707	136.92
272.27	136.292
273.842	135.666
275.423	135.043
277.013	134.423
278.612	133.805
280.221	133.19
281.838	132.578
283.465	131.969
285.102	131.362
286.748	130.758
288.403	130.156
290.068	129.557
291.743	128.961
293.427	128.368
295.121	127.777
296.825	127.188
298.538	126.603
300.262	126.02
301.995	125.439
303.739	124.861
305.492	124.286
307.256	123.713
309.03	123.143
310.814	122.575
312.608	122.01
314.413	121.447
316.228	120.887
318.053	120.329
319.89	119.774
321.736	119.221
323.594	118.671
325.462	118.123
327.341	117.578
329.23	117.035
331.131	116.495
333.043	115.957
334.965	115.421
336.899	114.888
338.844	114.357
340.8	113.829
342.768	113.303
344.747	112.78
346.737	112.259
348.739	111.74
350.752	111.223
352.777	110.709
354.813	110.197
356.862	109.688
358.922	109.181
360.994	108.676
363.078	108.174
365.174	107.673
367.282	107.175
369.403	106.68
371.535	106.186
373.68	105.695
375.837	105.207
378.007	104.72
380.189	104.236
382.384	103.753
384.592	103.274
386.812	102.796
389.045	102.32
391.291	101.847
393.55	101.376
395.822	100.907
398.107	100.44
400.405	99.9755
402.717	99.5129
405.042	99.0526
407.38	98.5943
409.732	98.1382
412.098	97.6843
414.477	97.2324
416.869	96.7826
419.276	96.3349
421.697	95.8892
424.131	95.4457
426.58	95.0042
429.042	94.5648
431.519	94.1274
434.01	93.6921
436.516	93.2588
439.036	92.8275
441.57	92.3983
444.12	91.971
446.684	91.5458
449.262	91.1225
451.856	90.7013
454.465	90.282
457.088	89.8646
459.727	89.4493
462.381	89.0358
465.05	88.6243
467.735	88.2148
470.435	87.8072
473.151	87.4015
475.883	86.9977
478.63	86.5958
481.393	86.1958
484.172	85.7976
486.968	85.4014
489.779	85.007
492.606	84.6145
495.45	84.2239
498.31	83.8351
501.187	83.4481
504.081	83.063
506.991	82.6796
509.918	82.2982
512.861	81.9185
515.822	81.5406
518.8	81.1645
521.795	80.7902
524.807	80.4177
527.837	80.0469
530.884	79.6779
533.949	79.3106
537.032	78.9451
540.132	78.5814
543.25	78.2194
546.387	77.8591
549.541	77.5005
552.713	77.1436
555.904	76.7884
559.114	76.435
562.341	76.0832
565.588	75.7331
568.853	75.3846
572.137	75.0379
575.44	74.6928
578.762	74.3493
582.103	74.0075
585.464	73.6673
588.844	73.3288
592.243	72.9919
595.662	72.6566
599.101	72.3229
602.56	71.9908
606.038	71.6603
609.537	71.3314
613.056	71.0041
616.595	70.6783
620.155	70.3541
623.735	70.0315
627.336	69.7105
630.957	69.3909
634.6	69.073
638.263	68.7565
641.948	68.4416
645.654	68.1282
649.382	67.8163
653.131	67.506
656.901	67.1971
660.693	66.8897
664.508	66.5838
668.344	66.2794
672.202	65.9764
676.083	65.675
679.986	65.3749
683.912	65.0764
687.86	64.7793
691.831	64.4836
695.825	64.1893
699.842	63.8965
703.882	63.6051
707.946	63.3152
712.033	63.0266
716.143	62.7394
720.278	62.4537
724.436	62.1693
728.618	61.8863
732.825	61.6047
737.055	61.3244
741.31	61.0456
745.59	60.768
749.894	60.4919
754.223	60.2171
758.578	59.9436
762.957	59.6714
767.361	59.4006
771.792	59.1311
776.247	58.863
780.728	58.5961
785.236	58.3305
789.769	58.0663
794.328	57.8033
798.914	57.5417
803.526	57.2813
808.165	57.0221
812.831	56.7643
817.523	56.5077
822.243	56.2524
826.99	55.9983
831.764	55.7455
836.566	55.4939
841.395	55.2436
846.253	54.9944
851.138	54.7465
856.052	54.4999
860.994	54.2544
865.964	54.0102
870.964	53.7671
875.992	53.5253
881.049	53.2846
886.135	53.0451
891.251	52.8068
896.396	52.5697
901.571	52.3338
906.776	52.099
912.011	51.8653
917.276	51.6329
922.571	51.4015
927.897	51.1714
933.254	50.9423
938.642	50.7144
944.061	50.4876
949.511	50.262
954.993	50.0374
960.506	49.814
966.051	49.5917
971.628	49.3705
977.237	49.1503
982.879	48.9313
988.553	48.7134
994.26	48.4965
1000	48.2807
1005.77	48.066
1011.58	47.8523
1017.42	47.6398
1023.29	47.4282
1029.2	47.2177
1035.14	47.0083
1041.12	46.7999
1047.13	46.5926
1053.17	46.3863
1059.25	46.181
1065.37	45.9767
1071.52	45.7735
1077.71	45.5712
1083.93	45.37
1090.18	45.1698
1096.48	44.9706
1102.81	44.7723
1109.17	44.5751
1115.58	44.3788
1122.02	44.1836
1128.5	43.9893
1135.01	43.796
1141.56	43.6036
1148.15	43.4122
1154.78	43.2218
1161.45	43.0323
1168.15	42.8438
1174.9	42.6562
1181.68	42.4696
1188.5	42.2839
1195.36	42.0991
1202.26	41.9152
1209.21	41.7323
1216.19	41.5503
1223.21	41.3692
1230.27	41.1891
1237.37	41.0098
1244.51	40.8314
1251.7	40.654
1258.93	40.4774
1266.19	40.3017
1273.5	40.1269
1280.86	39.953
1288.25	39.7799
1295.69	39.6078
1303.17	39.4365
1310.69	39.266
1318.26	39.0964
1325.87	38.9277
1333.52	38.7599
1341.22	38.5928
1348.96	38.4267
1356.75	38.2613
1364.58	38.0968
1372.46	37.9332
1380.38	37.7704
1388.35	37.6083
1396.37	37.4472
1404.43	37.2868
1412.54	37.1272
1420.69	36.9685
1428.89	36.8106
1437.14	36.6534
1445.44	36.4971
1453.78	36.3415
1462.18	36.1868
1470.62	36.0328
1479.11	35.8796
1487.65	35.7272
1496.24	35.5756
1504.87	35.4248
1513.56	35.2747
1522.3	35.1254
1531.09	34.9768
1539.93	34.829
1548.82	34.682
1557.76	34.5357
1566.75	34.3901
1575.8	34.2453
1584.89	34.1013
1594.04	33.9579
1603.25	33.8153
1612.5	33.6735
1621.81	33.5323
1631.17	33.3919
1640.59	33.2522
1650.06	33.1133
1659.59	32.975
1669.17	32.8375
1678.8	32.7006
1688.5	32.5645
1698.24	32.429
1708.05	32.2943
1717.91	32.1602
1727.83	32.0269
1737.8	31.8942
1747.83	31.7622
1757.92	31.6309
1768.07	31.5002
1778.28	31.3703
1788.55	31.241
1798.87	31.1124
1809.26	30.9844
1819.7	30.8571
1830.21	30.7304
1840.77	30.6045
1851.4	30.4791
1862.09	30.3544
1872.84	30.2304
1883.65	30.107
1894.52	29.9842
1905.46	29.8621
1916.46	29.7406
1927.52	29.6198
1938.65	29.4995
1949.84	29.3799
1961.1	29.2609
1972.42	29.1426
1983.81	29.0248
1995.26	28.9077
2006.78	28.7911
2018.37	28.6752
2030.02	28.5599
2041.74	28.4452
2053.53	28.3311
2065.38	28.2175
2077.3	28.1046
2089.3	27.9923
2101.36	27.8805
2113.49	27.7693
2125.69	27.6588
2137.96	27.5488
2150.3	27.4393
2162.72	27.3305
2175.2	27.2222
2187.76	27.1145
2200.39	27.0073
2213.09	26.9007
2225.87	26.7947
2238.72	26.6892
2251.65	26.5843
2264.64	26.4799
2277.72	26.3761
2290.87	26.2728
2304.09	26.1701
2317.39	26.0679
2330.77	25.9663
2344.23	25.8651
2357.76	25.7646
2371.37	25.6645
2385.06	25.565
2398.83	25.466
2412.68	25.3675
2426.61	25.2696
2440.62	25.1722
2454.71	25.0753
2468.88	24.9789
2483.13	24.883
2497.47	24.7876
2511.89	24.6927
2526.39	24.5984
2540.97	24.5045
2555.64	24.4112
2570.4	24.3183
2585.23	24.2259
2600.16	24.134
2615.17	24.0427
2630.27	23.9518
2645.45	23.8614
2660.73	23.7714
2676.09	23.682
2691.53	23.593
2707.07	23.5045
2722.7	23.4165
2738.42	23.3289
2754.23	23.2419
2770.13	23.1553
2786.12	23.0691
2802.21	22.9834
2818.38	22.8982
2834.65	22.8135
2851.02	22.7292
2867.48	22.6453
2884.03	22.5619
2900.68	22.479
2917.43	22.3965
2934.27	22.3144
2951.21	22.2328
2968.25	22.1516
2985.38	22.0709
3002.62	21.9906
3019.95	21.9108
3037.39	21.8313
3054.92	21.7523
3072.56	21.6738
3090.3	21.5956
3108.14	21.5179
3126.08	21.4407
3144.13	21.3638
3162.28	21.2873
3180.53	21.2113
3198.9	21.1357
3217.36	21.0605
3235.94	20.9857
3254.62	20.9114
3273.41	20.8374
3292.3	20.7638
3311.31	20.6907
3330.43	20.6179
3349.65	20.5455
3368.99	20.4736
3388.44	20.402
3408	20.3309
3427.68	20.2601
3447.47	20.1897
3467.37	20.1197
3487.39	20.0501
3507.52	19.9809
3527.77	19.912
3548.13	19.8436
3568.62	19.7755
3589.22	19.7078
3609.94	19.6405
3630.78	19.5735
3651.74	19.5069
3672.82	19.4407
3694.03	19.3749
3715.35	19.3094
3736.8	19.2443
3758.37	19.1796
3780.07	19.1152
3801.89	19.0512
3823.84	18.9875
3845.92	18.9242
3868.12	18.8612
3890.45	18.7987
3912.91	18.7364
3935.5	18.6745
3958.22	18.613
3981.07	18.5518
4004.05	18.4909
4027.17	18.4304
4050.42	18.3703
4073.8	18.3105
4097.32	18.251
4120.98	18.1918
4144.77	18.133
4168.69	18.0745
4192.76	18.0164
4216.97	17.9586
4241.31	17.9011
4265.8	17.844
4290.42	17.7871
4315.19	17.7306
4340.1	17.6745
4365.16	17.6186
4390.36	17.5631
4415.7	17.5079
4441.2	17.453
4466.84	17.3984
4492.62	17.3441
4518.56	17.2902
4544.65	17.2365
4570.88	17.1832
4597.27	17.1302
4623.81	17.0775
4650.5	17.0251
4677.35	16.973
4704.35	16.9212
4731.51	16.8697
4758.83	16.8185
4786.3	16.7676
4813.93	16.717
4841.72	16.6667
4869.68	16.6167
4897.79	16.5669
4926.06	16.5175
4954.5	16.4684
4983.1	16.4195
5011.87	16.371
5040.81	16.3227
5069.91	16.2747
5099.18	16.227
5128.61	16.1796
5158.22	16.1325
5188	16.0856
5217.95	16.0391
5248.07	15.9928
5278.37	15.9467
5308.84	15.901
5339.49	15.8555
5370.32	15.8103
5401.32	15.7654
5432.5	15.7207
5463.87	15.6763
5495.41	15.6322
5527.13	15.5884
5559.04	15.5448
5591.14	15.5014
5623.41	15.4584
5655.88	15.4156
5688.53	15.373
5721.37	15.3307
5754.4	15.2887
5787.62	15.2469
5821.03	15.2054
5854.64	15.1642
5888.44	15.1231
5922.43	15.0824
5956.62	15.0419
5991.01	15.0016
6025.6	14.9616
6060.38	14.9218
6095.37	14.8823
6130.56	14.8431
6165.95	14.804
6201.55	14.7653
6237.35	14.7267
6273.36	14.6884
6309.57	14.6503
6346	14.6125
6382.63	14.5749
6419.48	14.5376
6456.54	14.5005
6493.82	14.4636
6531.31	14.4269
6569.01	14.3905
6606.93	14.3543
6645.08	14.3184
6683.44	14.2826
6722.02	14.2471
6760.83	14.2119
6799.86	14.1768
6839.12	14.142
6878.6	14.1074
6918.31	14.073
6958.25	14.0389
6998.42	14.0049
7038.82	13.9712
7079.46	13.9377
7120.33	13.9044
7161.43	13.8714
7202.78	13.8385
7244.36	13.8059
7286.18	13.7735
7328.25	13.7412
7370.55	13.7092
7413.1	13.6775
7455.9	13.6459
7498.94	13.6145
7542.23	13.5834
7585.78	13.5524
7629.57	13.5216
7673.61	13.4911
7717.92	13.4608
7762.47	13.4306
7807.28	13.4007
7852.36	13.371
7897.69	13.3414
7943.28	13.3121
7989.14	13.283
8035.26	13.254
8081.65	13.2253
8128.31	13.1967
8175.23	13.1684
8222.43	13.1402
8269.9	13.1123
8317.64	13.0845
8365.66	13.0569
8413.95	13.0295
8462.53	13.0023
8511.38	12.9753
8560.52	12.9485
8609.94	12.9218
8659.64	12.8954
8709.64	12.8691
8759.92	12.843
8810.49	12.8171
8861.35	12.7914
8912.51	12.7659
8963.96	12.7406
9015.71	12.7154
9067.76	12.6904
9120.11	12.6656
9172.76	12.6409
9225.71	12.6165
9278.97	12.5922
9332.54	12.5681
9386.42	12.5442
9440.61	12.5204
9495.11	12.4968
9549.93	12.4734
9605.06	12.4502
9660.51	12.4271
9716.28	12.4042
9772.37	12.3815
9828.79	12.3589
9885.53	12.3365
9942.6	12.3143
10000	12.2922
10057.7	12.2704
10115.8	12.2486
10174.2	12.2271
10232.9	12.2057
10292	12.1844
10351.4	12.1633
10411.2	12.1424
10471.3	12.1217
10531.7	12.1011
10592.5	12.0806
10653.7	12.0604
10715.2	12.0402
10777.1	12.0203
10839.3	12.0005
10901.8	11.9808
10964.8	11.9613
11028.1	11.942
11091.7	11.9228
11155.8	11.9037
11220.2	11.8848
11285	11.8661
11350.1	11.8475
11415.6	11.8291
11481.5	11.8108
11547.8	11.7927
11614.5	11.7747
11681.5	11.7568
11749	11.7391
11816.8	11.7216
11885	11.7042
11953.6	11.6869
12022.6	11.6698
12092.1	11.6528
12161.9	11.636
12232.1	11.6193
12302.7	11.6027
12373.7	11.5863
12445.1	11.5701
12517	11.5539
12589.3	11.5379
12661.9	11.5221
12735	11.5064
12808.6	11.4908
12882.5	11.4753
12956.9	11.46
13031.7	11.4449
13106.9	11.4298
13182.6	11.4149
13258.7	11.4002
13335.2	11.3855
13412.2	11.371
13489.6	11.3566
13567.5	11.3416
13645.8	11.3263
13724.6	11.311
13803.8	11.296
13883.5	11.281
13963.7	11.2662
14044.3	11.2515
14125.4	11.2369
14206.9	11.2225
14288.9	11.2081
14371.4	11.1939
14454.4	11.1799
14537.8	11.1659
14621.8	11.1521
14706.2	11.1383
14791.1	11.1247
14876.5	11.1113
14962.4	11.0979
15048.7	11.0847
15135.6	11.0715
15223	11.0585
15310.9	11.0456
15399.3	11.0329
15488.2	11.0202
15577.6	11.0077
15667.5	10.9952
15758	10.9829
15848.9	10.9707
15940.4	10.9586
16032.5	10.9466
16125	10.9348
16218.1	10.923
16311.7	10.9114
16405.9	10.8998
16500.6	10.8884
16595.9	10.8771
16691.7	10.8659
16788	10.8548
16885	10.8438
16982.4	10.8329
17080.5	10.8221
17179.1	10.8114
17278.3	10.8008
17378	10.7904
17478.3	10.78
17579.2	10.7697
17680.7	10.7596
17782.8	10.7495
17885.5	10.7396
17988.7	10.7297
18092.6	10.72
18197	10.7103
18302.1	10.7008
18407.7	10.6913
18514	10.682
18620.9	10.6727
18728.4	10.6636
18836.5	10.6545
18945.2	10.6455
19054.6	10.6367
19164.6	10.6279
19275.2	10.6192
19386.5	10.6106
19498.4	10.6022
19611	10.5938
19724.2	10.5855
19838.1	10.5773
19952.6	10.5692
20067.8	10.5611
20183.7	10.5532
20300.2	10.5454
20417.4	10.5376
20535.3	10.53
20653.8	10.5224
20773	10.5149
20893	10.5075
21013.6	10.5002
21134.9	10.493
21256.9	10.4859
21379.6	10.4788
21503	10.4719
21627.2	10.465
21752	10.4582
21877.6	10.4515
22003.9	10.4449
22130.9	10.4384
22258.7	10.432
22387.2	10.4256
22516.5	10.4193
22646.4	10.4131
22777.2	10.407
22908.7	10.401
23040.9	10.395
23173.9	10.3891
23307.7	10.3834
23442.3	10.3776
23577.6	10.372
23713.7	10.3665
23850.6	10.361
23988.3	10.3556
24126.8	10.3503
24266.1	10.345
24406.2	10.3399
24547.1	10.3348
24688.8	10.3298
24831.3	10.3248
24974.7	10.32
25118.9	10.3152
25263.9	10.3105
25409.7	10.3058
25556.4	10.3013
25704	10.2968
25852.3	10.2923
26001.6	10.288
26151.7	10.2837
26302.7	10.2795
26454.5	10.2754
26607.3	10.2713
26760.9	10.2673
26915.3	10.2634
27070.7	10.2595
27227	10.2558
27384.2	10.252
27542.3	10.2484
27701.3	10.2448
27861.2	10.2413
28022.1	10.2378
28183.8	10.2345
28346.5	10.2312
28510.2	10.2279
28674.8	10.2247
28840.3	10.2216
29006.8	10.2186
29174.3	10.2156
29342.7	10.2127
29512.1	10.2098
29682.5	10.207
29853.8	10.2043
30026.2	10.2016
30199.5	10.199
30373.9	10.1964
30549.2	10.194
30725.6	10.1915
30903	10.1892
31081.4	10.1869
31260.8	10.1846
31441.3	10.1824
31622.8	10.1803
31805.3	10.1783
31989	10.1762
32173.6	10.1743
32359.4	10.1724
32546.2	10.1706
32734.1	10.1688
32923	10.1671
33113.1	10.1654
33304.3	10.1638
33496.5	10.1623
33689.9	10.1608
33884.4	10.1593
34080	10.1579
34276.8	10.1566
34474.7	10.1553
34673.7	10.1541
34873.9	10.1529
35075.2	10.1518
35277.7	10.1508
35481.3	10.1498
35686.2	10.1488
35892.2	10.1479
36099.4	10.147
36307.8	10.1462
36517.4	10.1455
36728.2	10.1448
36940.3	10.1441
37153.5	10.1435
37368	10.143
37583.7	10.1425
37800.7	10.142
38018.9	10.1416
38238.4	10.1413
38459.2	10.1409
38681.2	10.1407
38904.5	10.1405
39129.1	10.1403
39355	10.1402
39582.2	10.1401
39810.7	10.1401
40040.5	10.1401
40271.7	10.1402
40504.2	10.1403
40738	10.1404
40973.2	10.1406
41209.8	10.1409
41447.7	10.1412
41686.9	10.1415
41927.6	10.1419
42169.7	10.1423
42413.1	10.1427
42658	10.1432
42904.2	10.1438
43151.9	10.1444
43401	10.145
43651.6	10.1457
43903.6	10.1464
44157	10.1471
44412	10.1479
44668.4	10.1488
44926.2	10.1496
45185.6	10.1505
45446.5	10.1515
45708.8	10.1525
45972.7	10.1535
46238.1	10.1546
46505	10.1557
46773.5	10.1569
47043.5	10.158
47315.1	10.1593
47588.3	10.1605
47863	10.1618
48139.3	10.1631
48417.2	10.1645
48696.8	10.1659
48977.9	10.1674
49260.6	10.1688
49545	10.1704
49831	10.1719
50118.7	10.1735
50408.1	10.1751
50699.1	10.1768
50991.8	10.1785
51286.1	10.1802
51582.2	10.1819
51880	10.1837
52179.5	10.1855
52480.7	10.1874
52783.7	10.1893
53088.4	10.1912
53394.9	10.1932
53703.2	10.1952
54013.2	10.1972
54325	10.1992
54638.7	10.2013
54954.1	10.2034
55271.3	10.2056
55590.4	10.2077
55911.4	10.2099
56234.1	10.2122
56558.8	10.2144
56885.3	10.2167
57213.7	10.2191
57544	10.2214
57876.2	10.2238
58210.3	10.2262
58546.4	10.2286
58884.4	10.2311
59224.3	10.2336
59566.2	10.2361
59910.1	10.2387
60256	10.2413
60603.8	10.2439
60953.7	10.2465
61305.6	10.2492
61659.5	10.2519
62015.5	10.2546
62373.5	10.2573
62733.6	10.2601
63095.7	10.2629
63460	10.2657
63826.3	10.2685
64194.8	10.2714
64565.4	10.2743
64938.2	10.2772
65313.1	10.2802
65690.1	10.2831
66069.3	10.2861
66450.8	10.2891
66834.4	10.2922
67220.2	10.2953
67608.3	10.2983
67998.6	10.3015
68391.2	10.3046
68786	10.3078
69183.1	10.3109
69582.5	10.3141
69984.2	10.3174
70388.2	10.3206
70794.6	10.3239
71203.3	10.3272
71614.3	10.3305
72027.8	10.3338
72443.6	10.3372
72861.8	10.3406
73282.5	10.344
73705.5	10.3474
74131	10.3508
74559	10.3543
74989.4	10.3577
75422.3	10.3612
75857.8	10.3648
76295.7	10.3683
76736.1	10.3719
77179.2	10.3754
77624.7	10.379
78072.8	10.3827
78523.6	10.3863
78976.9	10.39
79432.8	10.3936
79891.4	10.3973
80352.6	10.401
80816.5	10.4048
81283.1	10.4085
81752.3	10.4123
82224.3	10.416
82699	10.4198
83176.4	10.4237
83656.6	10.4275
84139.5	10.4313
84625.3	10.4352
85113.8	10.4391
85605.2	10.443
86099.4	10.4469
86596.4	10.4508
87096.4	10.4548
87599.2	10.4587
88104.9	10.4627
88613.5	10.4667
89125.1	10.4707
89639.6	10.4748
90157.1	10.4788
90677.6	10.4829
91201.1	10.4869
91727.6	10.491
92257.1	10.4951
92789.7	10.4992
93325.4	10.5034
93864.2	10.5075
94406.1	10.5117
94951.1	10.5158
95499.3	10.52
96050.6	10.5242
96605.1	10.5284
97162.8	10.5326
97723.7	10.5369
98287.9	10.5411
98855.3	10.5454
99426	10.5497
100000	10.554
100577	10.5583
101158	10.5626
101742	10.5669
102329	10.5713
102920	10.5756
103514	10.58
104112	10.5844
104713	10.5887
105317	10.5931
105925	10.5976
106537	10.602
107152	10.6064
107771	10.6109
108393	10.6153
109018	10.6198
109648	10.6243
110281	10.6287
110917	10.6332
111558	10.6378
112202	10.6423
112850	10.6468
113501	10.6513
114156	10.6559
114815	10.6605
115478	10.665
116145	10.6696
116815	10.6742
117490	10.6788
118168	10.6834
118850	10.688
119536	10.6926
120226	10.6973
120921	10.7019
121619	10.7066
122321	10.7112
123027	10.7159
123737	10.7206
124451	10.7253
125170	10.73
125893	10.7347
126619	10.7394
127350	10.7441
128086	10.7489
128825	10.7536
129569	10.7583
130317	10.7631
131069	10.7678
131826	10.7726
132587	10.7774
133352	10.7822
134122	10.787
134896	10.7918
135675	10.7966
136458	10.8014
137246	10.8062
138038	10.811
138835	10.8159
139637	10.8207
140443	10.8255
141254	10.8304
142069	10.8353
142889	10.8401
143714	10.845
144544	10.8499
145378	10.8548
146218	10.8596
147062	10.8645
147911	10.8694
148765	10.8744
149624	10.8793
150487	10.8842
151356	10.8891
152230	10.894
153109	10.899
153993	10.9039
154882	10.9089
155776	10.9138
156675	10.9188
157580	10.9237
158489	10.9287
159404	10.9337
160325	10.9387
161250	10.9436
162181	10.9486
163117	10.9536
164059	10.9586
165006	10.9636
165959	10.9686
166917	10.9736
167880	10.9786
168850	10.9837
169824	10.9887
170805	10.9937
171791	10.9987
172783	11.0038
173780	11.0088
174783	11.0139
175792	11.0189
176807	11.024
177828	11.029
178855	11.0341
179887	11.0391
180926	11.0442
181970	11.0493
183021	11.0543
184077	11.0594
185140	11.0645
186209	11.0696
187284	11.0747
188365	11.0797
189452	11.0848
190546	11.0899
191646	11.095
192752	11.1001
193865	11.1052
194984	11.1103
196110	11.1154
197242	11.1206
198381	11.1257
199526	11.1308
200678	11.1359
201837	11.141
203002	11.1462
204174	11.1513
205353	11.1564
206538	11.1615
207730	11.1667
208930	11.1718
210136	11.177
211349	11.1821
212569	11.1872
213796	11.1924
215030	11.1975
216272	11.2027
217520	11.2078
218776	11.213
220039	11.2181
221309	11.2233
222587	11.2285
223872	11.2336
225165	11.2388
226464	11.2439
227772	11.2491
229087	11.2543
230409	11.2594
231739	11.2646
233077	11.2698
234423	11.275
235776	11.2801
237137	11.2853
238506	11.2905
239883	11.2957
241268	11.3008
242661	11.306
244062	11.3112
245471	11.3164
246888	11.3216
248313	11.3268
249747	11.3319
251189	11.3371
252639	11.3423
254097	11.3475
255564	11.3527
257040	11.3579
258523	11.3631
260016	11.3683
261517	11.3735
263027	11.3787
264545	11.3839
266073	11.3891
267609	11.3942
269153	11.3994
270707	11.4046
272270	11.4098
273842	11.415
275423	11.4202
277013	11.4254
278612	11.4306
280221	11.4358
281838	11.441
283465	11.4462
285102	11.4514
286748	11.4566
288403	11.4618
290068	11.467
291743	11.4722
293427	11.4774
295121	11.4826
296825	11.4878
298538	11.493
300262	11.4982
301995	11.5035
303739	11.5087
305492	11.5139
307256	11.5191
309030	11.5243
310814	11.5295
312608	11.5347
314413	11.5399
316228	11.5451
318053	11.5503
319890	11.5555
321736	11.5607
323594	11.5659
325462	11.5711
327341	11.5763
329230	11.5815
331131	11.5867
333043	11.5919
334965	11.5971
336899	11.6023
338844	11.6075
340800	11.6127
342768	11.6179
344747	11.6231
346737	11.6282
348739	11.6334
350752	11.6386
352777	11.6438
354813	11.649
356862	11.6542
358922	11.6594
360994	11.6646
363078	11.6698
365174	11.675
367282	11.6802
369403	11.6854
371535	11.6906
373680	11.6957
375837	11.7009
378007	11.7061
380189	11.7113
382384	11.7165
384592	11.7217
386812	11.7268
389045	11.732
391291	11.7372
393550	11.7424
395822	11.7476
398107	11.7527
400405	11.7579
402717	11.7631
405042	11.7683
407380	11.7734
409732	11.7786
412098	11.7838
414477	11.789
416869	11.7941
419276	11.7993
421697	11.8045
424131	11.8096
426580	11.8148
429042	11.82
431519	11.8251
434010	11.8303
436516	11.8355
439036	11.8406
441570	11.8458
444120	11.8509
446684	11.8561
449262	11.8612
451856	11.8664
454465	11.8715
457088	11.8767
459727	11.8819
462381	11.887
465050	11.8921
467735	11.8973
470435	11.9024
473151	11.9076
475883	11.9127
478630	11.9179
481393	11.923
484172	11.9281
486968	11.9333
489779	11.9384
492606	11.9435
495450	11.9487
498310	11.9538
501187	11.9589
504081	11.9641
506991	11.9692
509918	11.9743
512861	11.9794
515822	11.9846
518800	11.9897
521795	11.9948
524807	11.9999
527837	12.005
530884	12.0102
533949	12.0153
537032	12.0204
540132	12.0255
543250	12.0306
546387	12.0357
549541	12.0408
552713	12.0459
555904	12.051
559114	12.0561
562341	12.0612
565588	12.0663
568853	12.0714
572137	12.0765
575440	12.0816
578762	12.0867
582103	12.0918
585464	12.0969
588844	12.102
592243	12.107
595662	12.1121
599101	12.1172
602560	12.1223
606038	12.1274
609537	12.1324
613056	12.1375
616595	12.1426
620155	12.1477
623735	12.1527
627336	12.1578
630957	12.1629
634600	12.1679
638263	12.173
641948	12.178
645654	12.1831
649382	12.1882
653131	12.1932
656901	12.1983
660693	12.2033
664508	12.2084
668344	12.2134
672202	12.2185
676083	12.2235
679986	12.2285
683912	12.2336
687860	12.2386
691831	12.2437
695825	12.2487
699842	12.2537
703882	12.2588
707946	12.2638
712033	12.2688
716143	12.2738
720278	12.2789
724436	12.2839
728618	12.2889
732825	12.2939
737055	12.2989
741310	12.304
745590	12.309
749894	12.314
754223	12.319
758578	12.324
762957	12.329
767361	12.334
771792	12.339
776247	12.344
780728	12.349
785236	12.354
789769	12.359
794328	12.364
798914	12.369
803526	12.374
808165	12.3789
812831	12.3839
817523	12.3889
822243	12.3939
826990	12.3989
831764	12.4038
836566	12.4088
841395	12.4138
846253	12.4188
851138	12.4237
856052	12.4287
860994	12.4337
865964	12.4386
870964	12.4436
875992	12.4485
881049	12.4535
886135	12.4584
891251	12.4634
896396	12.4683
901571	12.4733
906776	12.4782
912011	12.4832
917276	12.4881
922571	12.4931
927897	12.498
933254	12.5029
938642	12.5079
944061	12.5128
949511	12.5177
954993	12.5227
960506	12.5276
966051	12.5325
971628	12.5374
977237	12.5424
982879	12.5473
988553	12.5522
994260	12.5571
1e+06	12.562
1.00577e+06	12.5669
1.01158e+06	12.5718
1.01742e+06	12.5767
1.02329e+06	12.5816
1.0292e+06	12.5865
1.03514e+06	12.5914
1.04112e+06	12.5963
1.04713e+06	12.6012
1.05317e+06	12.6061
1.05925e+06	12.611
1.06537e+06	12.6159
1.07152e+06	12.6208
1.07771e+06	12.6257
1.08393e+06	12.6305
1.09018e+06	12.6354
1.09648e+06	12.6403
1.10281e+06	12.6452
1.10917e+06	12.6501
1.11558e+06	12.6549
1.12202e+06	12.6598
1.1285e+06	12.6647
1.13501e+06	12.6695
1.14156e+06	12.6744
1.14815e+06	12.6793
1.15478e+06	12.6841
1.16145e+06	12.689
1.16815e+06	12.6938
1.1749e+06	12.6987
1.18168e+06	12.7035
1.1885e+06	12.7084
1.19536e+06	12.7132
1.20226e+06	12.7181
1.20921e+06	12.7229
1.21619e+06	12.7277
1.22321e+06	12.7326
1.23027e+06	12.7374
1.23737e+06	12.7423
1.24451e+06	12.7471
1.2517e+06	12.7519
1.25893e+06	12.7567
1.26619e+06	12.7616
1.2735e+06	12.7664
1.28086e+06	12.7712
1.28825e+06	12.776
1.29569e+06	12.7808
1.30317e+06	12.7857
1.31069e+06	12.7905
1.31826e+06	12.7953
1.32587e+06	12.8001
1.33352e+06	12.8049
1.34122e+06	12.8097
1.34896e+06	12.8145
1.35675e+06	12.8193
1.36458e+06	12.8241
1.37246e+06	12.8289
1.38038e+06	12.8337
1.38835e+06	12.8385
1.39637e+06	12.8433
1.40443e+06	12.848
1.41254e+06	12.8528
1.42069e+06	12.8576
1.42889e+06	12.8624
1.43714e+06	12.8672
1.44544e+06	12.8719
1.45378e+06	12.8767
1.46218e+06	12.8815
1.47062e+06	12.8862
1.47911e+06	12.891
1.48765e+06	12.8958
1.49624e+06	12.9005
1.50487e+06	12.9053
1.51356e+06	12.9101
1.5223e+06	12.9148
1.53109e+06	12.9196
1.53993e+06	12.9243
1.54882e+06	12.9291
1.55776e+06	12.9338
1.56675e+06	12.9386
1.5758e+06	12.9433
1.58489e+06	12.948
1.59404e+06	12.9528
1.60325e+06	12.9575
1.6125e+06	12.9622
1.62181e+06	12.967
1.63117e+06	12.9717
1.64059e+06	12.9764
1.65006e+06	12.9812
1.65959e+06	12.9859
1.66917e+06	12.9906
1.6788e+06	12.9953
1.6885e+06	13
1.69824e+06	13.0047
1.70805e+06	13.0095
1.71791e+06	13.0142
1.72783e+06	13.0189
1.7378e+06	13.0236
1.74783e+06	13.0283
1.75792e+06	13.033
1.76807e+06	13.0377
1.77828e+06	13.0424
1.78855e+06	13.0471
1.79887e+06	13.0517
1.80926e+06	13.0564
1.8197e+06	13.0611
1.83021e+06	13.0658
1.84077e+06	13.0705
1.8514e+06	13.0752
1.86209e+06	13.0798
1.87284e+06	13.0845
1.88365e+06	13.0892
1.89452e+06	13.0939
1.90546e+06	13.0985
1.91646e+06	13.1032
1.92752e+06	13.1079
1.93865e+06	13.1125
1.94984e+06	13.1172
1.9611e+06	13.1218
1.97242e+06	13.1265
1.98381e+06	13.1311
1.99526e+06	13.1358
2.00678e+06	13.1404
2.01837e+06	13.1451
2.03002e+06	13.1497
2.04174e+06	13.1544
2.05353e+06	13.159
2.06538e+06	13.1636
2.0773e+06	13.1683
2.0893e+06	13.1729
2.10136e+06	13.1775
2.11349e+06	13.1822
2.12569e+06	13.1868
2.13796e+06	13.1914
2.1503e+06	13.196
2.16272e+06	13.2007
2.1752e+06	13.2053
2.18776e+06	13.2099
2.20039e+06	13.2145
2.21309e+06	13.2191
2.22587e+06	13.2237
2.23872e+06	13.2283
2.25165e+06	13.2329
2.26464e+06	13.2375
2.27772e+06	13.2421
2.29087e+06	13.2467
2.30409e+06	13.2513
2.31739e+06	13.2559
2.33077e+06	13.2605
2.34423e+06	13.2651
2.35776e+06	13.2697
2.37137e+06	13.2742
2.38506e+06	13.2788
2.39883e+06	13.2834
2.41268e+06	13.288
2.42661e+06	13.2925
2.44062e+06	13.2971
2.45471e+06	13.3017
2.46888e+06	13.3062
2.48313e+06	13.3108
2.49747e+06	13.3154
2.51189e+06	13.3199
2.52639e+06	13.3245
2.54097e+06	13.329
2.55564e+06	13.3336
2.5704e+06	13.3381
2.58523e+06	13.3427
2.60016e+06	13.3472
2.61517e+06	13.3518
2.63027e+06	13.3563
2.64545e+06	13.3608
2.66073e+06	13.3654
2.67609e+06	13.3699
2.69153e+06	13.3744
2.70707e+06	13.379
2.7227e+06	13.3835
2.73842e+06	13.388
2.75423e+06	13.3925
2.77013e+06	13.397
2.78612e+06	13.4016
2.80221e+06	13.4061
2.81838e+06	13.4106
2.83465e+06	13.4151
2.85102e+06	13.4196
2.86748e+06	13.4241
2.88403e+06	13.4286
2.90068e+06	13.4331
2.91743e+06	13.4376
2.93427e+06	13.4421
2.95121e+06	13.4466
2.96825e+06	13.4511
2.98538e+06	13.4556
3.00262e+06	13.46
3.01995e+06	13.4645
3.03739e+06	13.469
3.05492e+06	13.4735
3.07256e+06	13.478
3.0903e+06	13.4824
3.10814e+06	13.4869
3.12608e+06	13.4914
3.14413e+06	13.4958
3.16228e+06	13.5003
3.18053e+06	13.5048
3.1989e+06	13.5092
3.21736e+06	13.5137
3.23594e+06	13.5181
3.25462e+06	13.5226
3.27341e+06	13.527
3.2923e+06	13.5315
3.31131e+06	13.5359
3.33043e+06	13.5404
3.34965e+06	13.5448
3.36899e+06	13.5492
3.38844e+06	13.5537
3.408e+06	13.5581
3.42768e+06	13.5625
3.44747e+06	13.567
3.46737e+06	13.5714
3.48739e+06	13.5758
3.50752e+06	13.5802
3.52777e+06	13.5846
3.54813e+06	13.5891
3.56862e+06	13.5935
3.58922e+06	13.5979
3.60994e+06	13.6023
3.63078e+06	13.6067
3.65174e+06	13.6111
3.67282e+06	13.6155
3.69403e+06	13.6199
3.71535e+06	13.6243
3.7368e+06	13.6287
3.75837e+06	13.6331
3.78007e+06	13.6375
3.80189e+06	13.6418
3.82384e+06	13.6462
3.84592e+06	13.6506
3.86812e+06	13.655
3.89045e+06	13.6594
3.91291e+06	13.6637
3.9355e+06	13.6681
3.95822e+06	13.6725
3.98107e+06	13.6768
4.00405e+06	13.6812
4.02717e+06	13.6856
4.05042e+06	13.6899
4.0738e+06	13.6943
4.09732e+06	13.6986
4.12098e+06	13.703
4.14477e+06	13.7073
4.16869e+06	13.7117
4.19276e+06	13.716
4.21697e+06	13.7203
4.24131e+06	13.7247
4.2658e+06	13.729
4.29042e+06	13.7333
4.31519e+06	13.7377
4.3401e+06	13.742
4.36516e+06	13.7463
4.39036e+06	13.7507
4.4157e+06	13.755
4.4412e+06	13.7593
4.46684e+06	13.7636
4.49262e+06	13.7679
4.51856e+06	13.7722
4.54465e+06	13.7765
4.57088e+06	13.7808
4.59727e+06	13.7851
4.62381e+06	13.7894
4.6505e+06	13.7937
4.67735e+06	13.798
4.70435e+06	13.8023
4.73151e+06	13.8066
4.75883e+06	13.8109
4.7863e+06	13.8152
4.81393e+06	13.8195
4.84172e+06	13.8237
4.86968e+06	13.828
4.89779e+06	13.8323
4.92606e+06	13.8366
4.9545e+06	13.8408
4.9831e+06	13.8451
5.01187e+06	13.8494
5.04081e+06	13.8536
5.06991e+06	13.8579
5.09918e+06	13.8621
5.12861e+06	13.8664
5.15822e+06	13.8706
5.188e+06	13.8749
5.21795e+06	13.8791
5.24807e+06	13.8834
5.27837e+06	13.8876
5.30884e+06	13.8919
5.33949e+06	13.8961
5.37032e+06	13.9003
5.40132e+06	13.9046
5.4325e+06	13.9088
5.46387e+06	13.913
5.49541e+06	13.9172
5.52713e+06	13.9214
5.55904e+06	13.9257
5.59114e+06	13.9299
5.62341e+06	13.9341
5.65588e+06	13.9383
5.68853e+06	13.9425
5.72137e+06	13.9467
5.7544e+06	13.9509
5.78762e+06	13.9551
5.82103e+06	13.9593
5.85464e+06	13.9635
5.88844e+06	13.9677
5.92243e+06	13.9719
5.95662e+06	13.9761
5.99101e+06	13.9802
6.0256e+06	13.9844
6.06038e+06	13.9886
6.09537e+06	13.9928
6.13056e+06	13.9969
6.16595e+06	14.0011
6.20155e+06	14.0053
6.23735e+06	14.0094
6.27336e+06	14.0136
6.30957e+06	14.0178
6.346e+06	14.0219
6.38263e+06	14.0261
6.41948e+06	14.0302
6.45654e+06	14.0344
6.49382e+06	14.0385
6.53131e+06	14.0427
6.56901e+06	14.0468
6.60693e+06	14.0509
6.64508e+06	14.0551
6.68344e+06	14.0592
6.72202e+06	14.0633
6.76083e+06	14.0675
6.79986e+06	14.0716
6.83912e+06	14.0757
6.8786e+06	14.0798
6.91831e+06	14.0839
6.95825e+06	14.088
6.99842e+06	14.0922
7.03882e+06	14.0963
7.07946e+06	14.1004
7.12033e+06	14.1045
7.16143e+06	14.1086
7.20278e+06	14.1127
7.24436e+06	14.1168
7.28618e+06	14.1208
7.32825e+06	14.1249
7.37055e+06	14.129
7.4131e+06	14.1331
7.4559e+06	14.1372
7.49894e+06	14.1413
7.54223e+06	14.1453
7.58578e+06	14.1494
7.62957e+06	14.1535
7.67361e+06	14.1575
7.71792e+06	14.1616
7.76247e+06	14.1657
7.80728e+06	14.1697
7.85236e+06	14.1738
7.89769e+06	14.1778
7.94328e+06	14.1819
7.98914e+06	14.1859
8.03526e+06	14.19
8.08165e+06	14.194
8.12831e+06	14.198
8.17523e+06	14.2021
8.22243e+06	14.2061
8.2699e+06	14.2101
8.31764e+06	14.2142
8.36566e+06	14.2182
8.41395e+06	14.2222
8.46253e+06	14.2262
8.51138e+06	14.2302
8.56052e+06	14.2342
8.60994e+06	14.2383
8.65964e+06	14.2423
8.70964e+06	14.2463
8.75992e+06	14.2503
8.81049e+06	14.2543
8.86135e+06	14.2583
8.91251e+06	14.2623
8.96396e+06	14.2662
9.01571e+06	14.2702
9.06776e+06	14.2742
9.12011e+06	14.2782
9.17276e+06	14.2822
9.22571e+06	14.2861
9.27897e+06	14.2901
9.33254e+06	14.2941
9.38642e+06	14.2981
9.44061e+06	14.302
9.49511e+06	14.306
9.54993e+06	14.3099
9.60506e+06	14.3139
9.66051e+06	14.3178
9.71628e+06	14.3218
9.77237e+06	14.3257
9.82879e+06	14.3297
9.88553e+06	14.3336
9.9426e+06	14.3376
1e+07	14.3415
