Stopping power dEdx from Ionisation for N14[0.0] Z = 7 in Water, process name: ionIoni
E [MeV]	dEdx [MeV/mm]
0.001	24.1877
0.00100577	24.2578
0.00101158	24.3282
0.00101742	24.3987
0.00102329	24.4695
0.0010292	24.5404
0.00103514	24.6116
0.00104112	24.683
0.00104713	24.7545
0.00105317	24.8263
0.00105925	24.8983
0.00106537	24.9705
0.00107152	25.0429
0.00107771	25.1155
0.00108393	25.1883
0.00109018	25.2613
0.00109648	25.3346
0.00110281	25.408
0.00110917	25.4817
0.00111558	25.5556
0.00112202	25.6297
0.0011285	25.704
0.00113501	25.7785
0.00114156	25.8532
0.00114815	25.9281
0.00115478	26.0033
0.00116145	26.0787
0.00116815	26.1543
0.0011749	26.2301
0.00118168	26.3061
0.0011885	26.3824
0.00119536	26.4588
0.00120226	26.5355
0.00120921	26.6125
0.00121619	26.6896
0.00122321	26.7669
0.00123027	26.8445
0.00123737	26.9223
0.00124451	27.0004
0.0012517	27.0786
0.00125893	27.1571
0.00126619	27.2358
0.0012735	27.3147
0.00128086	27.3939
0.00128825	27.4733
0.00129569	27.5529
0.00130317	27.6327
0.00131069	27.7128
0.00131826	27.7931
0.00132587	27.8736
0.00133352	27.9544
0.00134122	28.0354
0.00134896	28.1166
0.00135675	28.1981
0.00136458	28.2798
0.00137246	28.3618
0.00138038	28.4439
0.00138835	28.5263
0.00139637	28.609
0.00140443	28.6919
0.00141254	28.775
0.00142069	28.8584
0.00142889	28.942
0.00143714	29.0258
0.00144544	29.1099
0.00145378	29.1943
0.00146218	29.2788
0.00147062	29.3637
0.00147911	29.4487
0.00148765	29.534
0.00149624	29.6196
0.00150487	29.7054
0.00151356	29.7914
0.0015223	29.8777
0.00153109	29.9643
0.00153993	30.0511
0.00154882	30.1381
0.00155776	30.2254
0.00156675	30.313
0.0015758	30.4008
0.00158489	30.4888
0.00159404	30.5771
0.00160325	30.6657
0.0016125	30.7545
0.00162181	30.8436
0.00163117	30.9329
0.00164059	31.0225
0.00165006	31.1123
0.00165959	31.2024
0.00166917	31.2928
0.0016788	31.3834
0.0016885	31.4743
0.00169824	31.5655
0.00170805	31.6569
0.00171791	31.7485
0.00172783	31.8405
0.0017378	31.9327
0.00174783	32.0252
0.00175792	32.1179
0.00176807	32.2109
0.00177828	32.3042
0.00178855	32.3977
0.00179887	32.4915
0.00180926	32.5856
0.0018197	32.6799
0.00183021	32.7746
0.00184077	32.8695
0.0018514	32.9646
0.00186209	33.0601
0.00187284	33.1558
0.00188365	33.2518
0.00189452	33.3481
0.00190546	33.4446
0.00191646	33.5414
0.00192752	33.6385
0.00193865	33.7359
0.00194984	33.8336
0.0019611	33.9315
0.00197242	34.0298
0.00198381	34.1283
0.00199526	34.2271
0.00200678	34.3262
0.00201837	34.4255
0.00203002	34.5252
0.00204174	34.6251
0.00205353	34.7253
0.00206538	34.8259
0.0020773	34.9267
0.0020893	35.0278
0.00210136	35.1292
0.00211349	35.2308
0.00212569	35.3328
0.00213796	35.4351
0.0021503	35.5377
0.00216272	35.6405
0.0021752	35.7437
0.00218776	35.8471
0.00220039	35.9509
0.00221309	36.0549
0.00222587	36.1593
0.00223872	36.2639
0.00225165	36.3689
0.00226464	36.4741
0.00227772	36.5797
0.00229087	36.6856
0.00230409	36.7917
0.00231739	36.8982
0.00233077	37.005
0.00234423	37.1121
0.00235776	37.2195
0.00237137	37.3272
0.00238506	37.4352
0.00239883	37.5435
0.00241268	37.6522
0.00242661	37.7611
0.00244062	37.8704
0.00245471	37.98
0.00246888	38.0899
0.00248313	38.2001
0.00249747	38.3106
0.00251189	38.4215
0.00252639	38.5326
0.00254097	38.6441
0.00255564	38.756
0.0025704	38.8681
0.00258523	38.9805
0.00260016	39.0933
0.00261517	39.2064
0.00263027	39.3199
0.00264545	39.4336
0.00266073	39.5477
0.00267609	39.6621
0.00269153	39.7769
0.00270707	39.892
0.0027227	40.0074
0.00273842	40.1231
0.00275423	40.2392
0.00277013	40.3556
0.00278612	40.4724
0.00280221	40.5894
0.00281838	40.7069
0.00283465	40.8246
0.00285102	40.9427
0.00286748	41.0612
0.00288403	41.1799
0.00290068	41.2991
0.00291743	41.4185
0.00293427	41.5383
0.00295121	41.6585
0.00296825	41.779
0.00298538	41.8998
0.00300262	42.021
0.00301995	42.1426
0.00303739	42.2645
0.00305492	42.3867
0.00307256	42.5093
0.0030903	42.6323
0.00310814	42.7556
0.00312608	42.8793
0.00314413	43.0033
0.00316228	43.1277
0.00318053	43.2524
0.0031989	43.3775
0.00321736	43.503
0.00323594	43.6288
0.00325462	43.755
0.00327341	43.8815
0.0032923	44.0084
0.00331131	44.1357
0.00333043	44.2633
0.00334965	44.3913
0.00336899	44.5197
0.00338844	44.6485
0.003408	44.7776
0.00342768	44.9071
0.00344747	45.037
0.00346737	45.1672
0.00348739	45.2978
0.00350752	45.4288
0.00352777	45.5602
0.00354813	45.6919
0.00356862	45.824
0.00358922	45.9566
0.00360994	46.0894
0.00363078	46.2227
0.00365174	46.3564
0.00367282	46.4904
0.00369403	46.6249
0.00371535	46.7597
0.0037368	46.8949
0.00375837	47.0305
0.00378007	47.1665
0.00380189	47.3028
0.00382384	47.4396
0.00384592	47.5768
0.00386812	47.7143
0.00389045	47.8523
0.00391291	47.9906
0.0039355	48.1294
0.00395822	48.2686
0.00398107	48.4081
0.00400405	48.5481
0.00402717	48.6884
0.00405042	48.8292
0.0040738	48.9704
0.00409732	49.1119
0.00412098	49.2539
0.00414477	49.3963
0.00416869	49.5391
0.00419276	49.6823
0.00421697	49.826
0.00424131	49.97
0.0042658	50.1145
0.00429042	50.2594
0.00431519	50.4046
0.0043401	50.5504
0.00436516	50.6965
0.00439036	50.843
0.0044157	50.99
0.0044412	51.1374
0.00446684	51.2852
0.00449262	51.4335
0.00451856	51.5822
0.00454465	51.7313
0.00457088	51.8808
0.00459727	52.0308
0.00462381	52.1812
0.0046505	52.332
0.00467735	52.4833
0.00470435	52.635
0.00473151	52.7871
0.00475883	52.9397
0.0047863	53.0927
0.00481393	53.2462
0.00484172	53.4001
0.00486968	53.5544
0.00489779	53.7092
0.00492606	53.8645
0.0049545	54.0201
0.0049831	54.1763
0.00501187	54.3329
0.00504081	54.4899
0.00506991	54.6474
0.00509918	54.8053
0.00512861	54.9637
0.00515822	55.1226
0.005188	55.2819
0.00521795	55.4416
0.00524807	55.6019
0.00527837	55.7626
0.00530884	55.9237
0.00533949	56.0853
0.00537032	56.2474
0.00540132	56.41
0.0054325	56.573
0.00546387	56.7365
0.00549541	56.9005
0.00552713	57.0649
0.00555904	57.2298
0.00559114	57.3952
0.00562341	57.5611
0.00565588	57.7274
0.00568853	57.8942
0.00572137	58.0615
0.0057544	58.2293
0.00578762	58.3976
0.00582103	58.5663
0.00585464	58.7355
0.00588844	58.9053
0.00592243	59.2235
0.00595662	59.3942
0.00599101	59.5654
0.0060256	59.7371
0.00606038	59.9093
0.00609537	60.082
0.00613056	60.2552
0.00616595	60.4289
0.00620155	60.603
0.00623735	60.7777
0.00627336	60.9529
0.00630957	61.1286
0.006346	61.3048
0.00638263	61.4815
0.00641948	61.6587
0.00645654	61.8364
0.00649382	62.0147
0.00653131	62.1934
0.00656901	62.3727
0.00660693	62.5525
0.00664508	62.7328
0.00668344	62.9136
0.00672202	63.0949
0.00676083	63.2768
0.00679986	63.4592
0.00683912	63.6421
0.0068786	63.8255
0.00691831	64.0095
0.00695825	64.194
0.00699842	64.379
0.00703882	64.5646
0.00707946	64.7507
0.00712033	64.9373
0.00716143	65.1245
0.00720278	65.3122
0.00724436	65.5005
0.00728618	65.6893
0.00732825	65.8786
0.00737055	66.0685
0.0074131	66.2589
0.0074559	66.4499
0.00749894	66.6414
0.00754223	66.8335
0.00758578	67.0262
0.00762957	67.2194
0.00767361	67.4131
0.00771792	67.6074
0.00776247	67.8023
0.00780728	67.9977
0.00785236	68.1937
0.00789769	68.3903
0.00794328	68.5874
0.00798914	68.7851
0.00803526	68.9834
0.00808165	69.1822
0.00812831	69.3816
0.00817523	69.5816
0.00822243	69.7822
0.0082699	69.9833
0.00831764	70.185
0.00836566	70.3873
0.00841395	70.5902
0.00846253	70.7937
0.00851138	70.9977
0.00856052	71.2024
0.00860994	71.4076
0.00865964	71.6134
0.00870964	71.8198
0.00875992	72.0268
0.00881049	72.2345
0.00886135	72.4427
0.00891251	72.6515
0.00896396	72.8609
0.00901571	73.0709
0.00906776	73.2815
0.00912011	73.4927
0.00917276	73.7046
0.00922571	73.917
0.00927897	74.1301
0.00933254	74.3437
0.00938642	74.558
0.00944061	74.7729
0.00949511	74.9884
0.00954993	75.2046
0.00960506	75.4214
0.00966051	75.6388
0.00971628	75.8568
0.00977237	76.0754
0.00982879	76.2947
0.00988553	76.5146
0.0099426	76.7352
0.01	76.9563
0.0100577	77.1782
0.0101158	77.4006
0.0101742	77.6237
0.0102329	77.8474
0.010292	78.0718
0.0103514	78.2969
0.0104112	78.5225
0.0104713	78.7489
0.0105317	78.9759
0.0105925	79.2035
0.0106537	79.4318
0.0107152	79.6607
0.0107771	79.8904
0.0108393	80.1206
0.0109018	80.3516
0.0109648	80.5832
0.0110281	80.8154
0.0110917	81.0484
0.0111558	81.282
0.0112202	81.5163
0.011285	81.7512
0.0113501	81.9869
0.0114156	82.2232
0.0114815	82.4602
0.0115478	82.6979
0.0116145	82.9362
0.0116815	83.1753
0.011749	83.415
0.0118168	83.6555
0.011885	83.8966
0.0119536	84.1384
0.0120226	84.3809
0.0120921	84.6242
0.0121619	84.8681
0.0122321	85.1127
0.0123027	85.358
0.0123737	85.6041
0.0124451	85.8508
0.012517	86.0983
0.0125893	86.3464
0.0126619	86.5953
0.012735	86.8449
0.0128086	87.0952
0.0128825	87.3463
0.0129569	87.598
0.0130317	87.8505
0.0131069	88.1037
0.0131826	88.3577
0.0132587	88.6124
0.0133352	88.8678
0.0134122	89.1239
0.0134896	89.3808
0.0135675	89.6385
0.0136458	89.8968
0.0137246	90.1559
0.0138038	90.4158
0.0138835	90.6764
0.0139637	90.9378
0.0140443	91.1999
0.0141254	91.4628
0.0142069	91.7264
0.0142889	91.9908
0.0143714	92.2559
0.0144544	92.5219
0.0145378	92.7885
0.0146218	93.056
0.0147062	93.3242
0.0147911	93.5932
0.0148765	93.863
0.0149624	94.1335
0.0150487	94.4049
0.0151356	94.677
0.015223	94.9499
0.0153109	95.2236
0.0153993	95.498
0.0154882	95.7733
0.0155776	96.0493
0.0156675	96.3262
0.015758	96.6038
0.0158489	96.8823
0.0159404	97.1615
0.0160325	97.4416
0.016125	97.7225
0.0162181	98.0041
0.0163117	98.2866
0.0164059	98.5699
0.0165006	98.854
0.0165959	99.139
0.0166917	99.4247
0.016788	99.7113
0.016885	99.9987
0.0169824	100.287
0.0170805	100.576
0.0171791	100.866
0.0172783	101.157
0.017378	101.448
0.0174783	101.741
0.0175792	102.034
0.0176807	102.328
0.0177828	102.623
0.0178855	102.919
0.0179887	103.215
0.0180926	103.513
0.018197	103.811
0.0183021	104.11
0.0184077	104.411
0.018514	104.711
0.0186209	105.013
0.0187284	105.316
0.0188365	105.62
0.0189452	105.924
0.0190546	106.229
0.0191646	106.536
0.0192752	106.843
0.0193865	107.151
0.0194984	107.459
0.019611	107.769
0.0197242	108.08
0.0198381	108.391
0.0199526	108.704
0.0200678	109.017
0.0201837	109.331
0.0203002	109.646
0.0204174	109.962
0.0205353	110.279
0.0206538	110.597
0.020773	110.916
0.020893	111.236
0.0210136	111.556
0.0211349	111.878
0.0212569	112.2
0.0213796	112.524
0.021503	112.848
0.0216272	113.173
0.021752	113.5
0.0218776	113.827
0.0220039	114.155
0.0221309	114.484
0.0222587	114.814
0.0223872	115.145
0.0225165	115.477
0.0226464	115.81
0.0227772	116.143
0.0229087	116.478
0.0230409	116.814
0.0231739	117.151
0.0233077	117.488
0.0234423	117.827
0.0235776	118.166
0.0237137	118.507
0.0238506	118.849
0.0239883	119.191
0.0241268	119.535
0.0242661	119.879
0.0244062	120.225
0.0245471	120.571
0.0246888	120.919
0.0248313	121.267
0.0249747	121.617
0.0251189	121.968
0.0252639	122.319
0.0254097	122.672
0.0255564	123.025
0.025704	123.38
0.0258523	123.736
0.0260016	124.092
0.0261517	124.45
0.0263027	124.809
0.0264545	125.168
0.0266073	125.529
0.0267609	125.891
0.0269153	126.254
0.0270707	126.618
0.027227	126.983
0.0273842	127.349
0.0275423	127.716
0.0277013	128.084
0.0278612	128.453
0.0280221	128.823
0.0281838	129.195
0.0283465	129.567
0.0285102	129.94
0.0286748	130.315
0.0288403	130.691
0.0290068	131.067
0.0291743	131.445
0.0293427	131.824
0.0295121	132.204
0.0296825	132.585
0.0298538	132.967
0.0300262	133.35
0.0301995	133.735
0.0303739	134.12
0.0305492	134.507
0.0307256	134.895
0.030903	135.283
0.0310814	135.673
0.0312608	136.064
0.0314413	136.457
0.0316228	136.85
0.0318053	137.244
0.031989	137.64
0.0321736	138.037
0.0323594	138.435
0.0325462	138.834
0.0327341	139.234
0.032923	139.635
0.0331131	140.038
0.0333043	140.441
0.0334965	140.846
0.0336899	141.252
0.0338844	141.659
0.03408	142.067
0.0342768	142.477
0.0344747	142.888
0.0346737	143.299
0.0348739	143.712
0.0350752	144.127
0.0352777	144.542
0.0354813	144.959
0.0356862	145.377
0.0358922	145.796
0.0360994	146.216
0.0363078	146.637
0.0365174	147.06
0.0367282	147.484
0.0369403	147.909
0.0371535	148.335
0.037368	148.763
0.0375837	149.192
0.0378007	149.622
0.0380189	150.053
0.0382384	150.485
0.0384592	150.919
0.0386812	151.354
0.0389045	151.79
0.0391291	152.228
0.039355	152.667
0.0395822	153.107
0.0398107	153.548
0.0400405	153.991
0.0402717	154.435
0.0405042	154.88
0.040738	155.326
0.0409732	155.774
0.0412098	156.223
0.0414477	156.673
0.0416869	157.125
0.0419276	157.578
0.0421697	158.032
0.0424131	158.487
0.042658	158.944
0.0429042	159.402
0.0431519	159.862
0.043401	160.322
0.0436516	160.785
0.0439036	161.248
0.044157	161.713
0.044412	162.179
0.0446684	162.646
0.0449262	163.115
0.0451856	163.585
0.0454465	164.057
0.0457088	164.53
0.0459727	165.004
0.0462381	165.48
0.046505	165.957
0.0467735	166.435
0.0470435	166.915
0.0473151	167.396
0.0475883	167.878
0.047863	168.362
0.0481393	168.847
0.0484172	169.334
0.0486968	169.822
0.0489779	170.312
0.0492606	170.803
0.049545	171.295
0.049831	171.789
0.0501187	172.284
0.0504081	172.78
0.0506991	173.278
0.0509918	173.778
0.0512861	174.279
0.0515822	174.781
0.05188	175.285
0.0521795	175.79
0.0524807	176.297
0.0527837	176.805
0.0530884	177.315
0.0533949	177.826
0.0537032	178.338
0.0540132	178.852
0.054325	179.368
0.0546387	179.885
0.0549541	180.403
0.0552713	180.923
0.0555904	181.445
0.0559114	181.968
0.0562341	182.492
0.0565588	183.018
0.0568853	183.546
0.0572137	184.075
0.057544	184.605
0.0578762	185.137
0.0582103	185.671
0.0585464	186.206
0.0588844	186.743
0.0592243	187.281
0.0595662	187.821
0.0599101	188.362
0.060256	188.905
0.0606038	189.45
0.0609537	189.996
0.0613056	190.544
0.0616595	191.093
0.0620155	191.644
0.0623735	192.196
0.0627336	192.75
0.0630957	193.306
0.06346	193.863
0.0638263	194.422
0.0641948	194.982
0.0645654	195.544
0.0649382	196.108
0.0653131	196.673
0.0656901	197.24
0.0660693	197.808
0.0664508	198.378
0.0668344	198.95
0.0672202	199.524
0.0676083	200.099
0.0679986	200.676
0.0683912	201.254
0.068786	201.834
0.0691831	202.416
0.0695825	202.999
0.0699842	203.584
0.0703882	204.171
0.0707946	204.76
0.0712033	205.35
0.0716143	205.942
0.0720278	206.535
0.0724436	207.131
0.0728618	207.728
0.0732825	208.326
0.0737055	208.927
0.074131	209.529
0.074559	210.133
0.0749894	210.739
0.0754223	211.346
0.0758578	211.955
0.0762957	212.566
0.0767361	213.179
0.0771792	213.793
0.0776247	214.41
0.0780728	215.028
0.0785236	215.647
0.0789769	216.269
0.0794328	216.892
0.0798914	217.518
0.0803526	218.145
0.0808165	218.773
0.0812831	219.404
0.0817523	220.036
0.0822243	220.671
0.082699	221.307
0.0831764	221.944
0.0836566	222.584
0.0841395	223.226
0.0846253	223.869
0.0851138	224.514
0.0856052	225.162
0.0860994	225.811
0.0865964	226.461
0.0870964	227.114
0.0875992	227.769
0.0881049	228.425
0.0886135	229.084
0.0891251	229.744
0.0896396	230.406
0.0901571	231.07
0.0906776	231.736
0.0912011	232.404
0.0917276	233.074
0.0922571	233.746
0.0927897	234.42
0.0933254	235.096
0.0938642	235.773
0.0944061	236.453
0.0949511	237.134
0.0954993	237.818
0.0960506	238.503
0.0966051	239.191
0.0971628	239.88
0.0977237	240.572
0.0982879	241.265
0.0988553	241.96
0.099426	242.658
0.1	243.357
0.100577	244.059
0.101158	244.762
0.101742	245.468
0.102329	246.175
0.10292	246.885
0.103514	247.596
0.104112	248.31
0.104713	249.026
0.105317	249.744
0.105925	250.463
0.106537	251.185
0.107152	251.909
0.107771	252.635
0.108393	253.364
0.109018	254.094
0.109648	254.826
0.110281	255.561
0.110917	256.298
0.111558	257.036
0.112202	257.777
0.11285	258.52
0.113501	259.265
0.114156	260.013
0.114815	260.762
0.115478	261.514
0.116145	262.267
0.116815	263.023
0.11749	263.782
0.118168	264.542
0.11885	265.304
0.119536	266.069
0.120226	266.836
0.120921	267.605
0.121619	268.376
0.122321	269.15
0.123027	269.926
0.123737	270.704
0.124451	271.484
0.12517	272.267
0.125893	273.051
0.126619	273.838
0.12735	274.628
0.128086	275.419
0.128825	276.213
0.129569	277.009
0.130317	277.808
0.131069	278.609
0.131826	279.412
0.132587	280.217
0.133352	281.025
0.134122	281.835
0.134896	282.647
0.135675	283.462
0.136458	284.279
0.137246	285.098
0.138038	285.92
0.138835	286.744
0.139637	287.571
0.140443	288.399
0.141254	289.231
0.142069	290.064
0.142889	290.9
0.143714	291.739
0.144544	292.58
0.145378	293.423
0.146218	294.269
0.147062	295.117
0.147911	295.968
0.148765	296.821
0.149624	297.676
0.150487	298.534
0.151356	299.395
0.15223	300.258
0.153109	301.123
0.153993	301.991
0.154882	302.862
0.155776	303.735
0.156675	304.61
0.15758	305.488
0.158489	306.369
0.159404	307.252
0.160325	308.137
0.16125	309.026
0.162181	309.916
0.163117	310.81
0.164059	311.705
0.165006	312.604
0.165959	313.505
0.166917	314.409
0.16788	315.315
0.16885	316.224
0.169824	317.135
0.170805	318.049
0.171791	318.966
0.172783	319.885
0.17378	320.807
0.174783	321.732
0.175792	322.659
0.176807	323.589
0.177828	324.522
0.178855	325.458
0.179887	326.396
0.180926	327.336
0.18197	328.28
0.183021	329.226
0.184077	330.175
0.18514	331.127
0.186209	332.081
0.187284	333.038
0.188365	333.998
0.189452	334.961
0.190546	335.927
0.191646	336.895
0.192752	337.866
0.193865	338.84
0.194984	339.816
0.19611	340.796
0.197242	341.778
0.198381	342.763
0.199526	343.751
0.200678	344.742
0.201837	345.736
0.203002	346.732
0.204174	347.732
0.205353	348.734
0.206538	349.739
0.20773	350.747
0.20893	351.758
0.210136	352.772
0.211349	353.789
0.212569	354.809
0.213796	355.831
0.21503	356.857
0.216272	357.886
0.21752	358.917
0.218776	359.952
0.220039	360.989
0.221309	362.03
0.222587	363.073
0.223872	364.12
0.225165	365.169
0.226464	366.222
0.227772	367.278
0.229087	368.336
0.230409	369.398
0.231739	370.463
0.233077	371.53
0.234423	372.601
0.235776	373.675
0.237137	374.752
0.238506	375.833
0.239883	376.916
0.241268	378.002
0.242661	379.092
0.244062	380.184
0.245471	381.28
0.246888	382.379
0.248313	383.481
0.249747	384.587
0.251189	385.695
0.252639	386.807
0.254097	387.922
0.255564	389.04
0.25704	390.161
0.258523	391.286
0.260016	392.414
0.261517	393.545
0.263027	394.679
0.264545	395.817
0.266073	396.958
0.267609	398.102
0.269153	399.249
0.270707	400.4
0.27227	401.554
0.273842	402.712
0.275423	403.873
0.277013	405.037
0.278612	406.204
0.280221	407.375
0.281838	408.549
0.283465	409.727
0.285102	410.908
0.286748	412.092
0.288403	413.28
0.290068	414.471
0.291743	415.666
0.293427	416.864
0.295121	418.066
0.296825	419.271
0.298538	420.479
0.300262	421.691
0.301995	422.907
0.303739	424.125
0.305492	425.348
0.307256	426.574
0.30903	427.804
0.310814	429.037
0.312608	430.273
0.314413	431.513
0.316228	432.757
0.318053	434.005
0.31989	435.256
0.321736	436.51
0.323594	437.768
0.325462	439.03
0.327341	440.296
0.32923	441.565
0.331131	442.837
0.333043	444.114
0.334965	445.394
0.336899	446.678
0.338844	447.965
0.3408	449.257
0.342768	450.551
0.344747	451.85
0.346737	453.152
0.348739	454.459
0.350752	455.81
0.352777	457.236
0.354813	458.67
0.356862	460.111
0.358922	461.56
0.360994	463.016
0.363078	464.481
0.365174	465.952
0.367282	467.432
0.369403	468.919
0.371535	470.413
0.37368	471.915
0.375837	473.425
0.378007	474.943
0.380189	476.468
0.382384	478.001
0.384592	479.542
0.386812	481.09
0.389045	482.646
0.391291	484.21
0.39355	485.781
0.395822	487.361
0.398107	488.947
0.400405	490.542
0.402717	492.144
0.405042	493.754
0.40738	495.372
0.409732	496.998
0.412098	498.631
0.414477	500.272
0.416869	501.92
0.419276	503.576
0.421697	505.172
0.424131	506.746
0.42658	508.327
0.429042	509.916
0.431519	511.511
0.43401	513.113
0.436516	514.722
0.439036	516.339
0.44157	517.962
0.44412	519.592
0.446684	521.229
0.449262	522.873
0.451856	524.524
0.454465	526.181
0.457088	527.846
0.459727	529.517
0.462381	531.194
0.46505	532.879
0.467735	534.57
0.470435	536.267
0.473151	537.972
0.475883	539.682
0.47863	541.399
0.481393	543.123
0.484172	544.852
0.486968	546.588
0.489779	548.331
0.492606	550.079
0.49545	551.834
0.49831	553.594
0.501187	555.361
0.504081	557.133
0.506991	558.911
0.509918	560.695
0.512861	562.484
0.515822	564.28
0.5188	566.08
0.521795	567.886
0.524807	569.697
0.527837	571.514
0.530884	573.336
0.533949	575.162
0.537032	576.994
0.540132	578.83
0.54325	580.671
0.546387	582.517
0.549541	584.367
0.552713	586.222
0.555904	588.08
0.559114	589.943
0.562341	591.791
0.565588	593.636
0.568853	595.484
0.572137	597.336
0.57544	599.192
0.578762	601.052
0.582103	602.915
0.585464	604.782
0.588844	606.652
0.592243	608.526
0.595662	610.404
0.599101	612.285
0.60256	614.17
0.606038	616.058
0.609537	617.95
0.613056	619.845
0.616595	621.744
0.620155	623.646
0.623735	625.552
0.627336	627.461
0.630957	629.374
0.6346	631.29
0.638263	633.209
0.641948	635.132
0.645654	637.058
0.649382	638.987
0.653131	640.92
0.656901	642.856
0.660693	644.795
0.664508	646.738
0.668344	648.684
0.672202	650.633
0.676083	652.585
0.679986	654.541
0.683912	656.5
0.68786	658.462
0.691831	660.427
0.695825	662.396
0.699842	664.367
0.703882	666.341
0.707946	668.318
0.712033	670.298
0.716143	672.281
0.720278	674.267
0.724436	676.256
0.728618	678.248
0.732825	680.243
0.737055	682.241
0.74131	684.242
0.74559	686.245
0.749894	688.251
0.754223	690.26
0.758578	692.272
0.762957	694.286
0.767361	696.303
0.771792	698.323
0.776247	700.345
0.780728	702.37
0.785236	704.397
0.789769	706.426
0.794328	708.458
0.798914	710.492
0.803526	712.529
0.808165	714.567
0.812831	716.608
0.817523	718.651
0.822243	720.697
0.82699	722.744
0.831764	724.793
0.836566	726.845
0.841395	728.898
0.846253	730.954
0.851138	733.011
0.856052	735.07
0.860994	737.131
0.865964	739.193
0.870964	741.257
0.875992	743.323
0.881049	745.389
0.886135	747.458
0.891251	749.527
0.896396	751.597
0.901571	753.669
0.906776	755.741
0.912011	757.814
0.917276	759.889
0.922571	761.963
0.927897	764.039
0.933254	766.114
0.938642	768.191
0.944061	770.267
0.949511	772.344
0.954993	774.421
0.960506	776.498
0.966051	778.574
0.971628	780.651
0.977237	782.727
0.982879	784.803
0.988553	786.878
0.99426	788.953
1	791.027
1.00577	793.101
1.01158	795.174
1.01742	797.246
1.02329	799.317
1.0292	801.387
1.03514	803.457
1.04112	805.526
1.04713	807.593
1.05317	809.66
1.05925	811.726
1.06537	813.79
1.07152	815.853
1.07771	817.916
1.08393	819.977
1.09018	822.036
1.09648	824.095
1.10281	826.152
1.10917	828.207
1.11558	830.262
1.12202	832.314
1.1285	834.366
1.13501	836.416
1.14156	838.464
1.14815	840.51
1.15478	842.554
1.16145	844.596
1.16815	846.635
1.1749	848.672
1.18168	850.706
1.1885	852.737
1.19536	854.765
1.20226	856.79
1.20921	858.812
1.21619	860.83
1.22321	862.844
1.23027	864.854
1.23737	866.86
1.24451	868.862
1.2517	870.86
1.25893	872.852
1.26619	874.84
1.2735	876.823
1.28086	878.801
1.28825	880.773
1.29569	882.74
1.30317	884.702
1.31069	886.659
1.31826	888.609
1.32587	890.555
1.33352	892.494
1.34122	894.427
1.34896	896.355
1.35675	898.276
1.36458	900.191
1.37246	902.1
1.38038	904.003
1.38835	905.899
1.39637	907.789
1.40443	909.674
1.41254	911.554
1.42069	913.426
1.42889	915.292
1.43714	917.151
1.44544	919.003
1.45378	920.848
1.46218	922.685
1.47062	924.514
1.47911	926.336
1.48765	928.15
1.49624	929.956
1.50487	931.754
1.51356	933.544
1.5223	935.325
1.53109	937.098
1.53993	938.863
1.54882	940.619
1.55776	942.366
1.56675	944.104
1.5758	945.834
1.58489	947.554
1.59404	949.265
1.60325	950.967
1.6125	952.659
1.62181	954.342
1.63117	956.015
1.64059	957.679
1.65006	959.332
1.65959	960.976
1.66917	962.61
1.6788	964.233
1.6885	965.847
1.69824	967.45
1.70805	969.042
1.71791	970.625
1.72783	972.196
1.7378	973.757
1.74783	975.308
1.75792	976.847
1.76807	978.376
1.77828	979.894
1.78855	981.401
1.79887	982.897
1.80926	984.382
1.8197	985.856
1.83021	987.318
1.84077	988.77
1.8514	990.21
1.86209	991.639
1.87284	993.056
1.88365	994.463
1.89452	995.858
1.90546	997.241
1.91646	998.614
1.92752	999.975
1.93865	1001.32
1.94984	1002.66
1.9611	1003.99
1.97242	1005.31
1.98381	1006.61
1.99526	1007.9
2.00678	1009.18
2.01837	1010.46
2.03002	1011.72
2.04174	1012.96
2.05353	1014.2
2.06538	1015.43
2.0773	1016.65
2.0893	1017.85
2.10136	1019.04
2.11349	1020.18
2.12569	1021.32
2.13796	1022.44
2.1503	1023.54
2.16272	1024.64
2.1752	1025.73
2.18776	1026.8
2.20039	1027.87
2.21309	1028.92
2.22587	1029.96
2.23872	1030.99
2.25165	1032.01
2.26464	1033.01
2.27772	1034
2.29087	1034.98
2.30409	1035.95
2.31739	1036.91
2.33077	1037.85
2.34423	1038.78
2.35776	1039.7
2.37137	1040.6
2.38506	1041.5
2.39883	1042.38
2.41268	1043.24
2.42661	1044.09
2.44062	1044.93
2.45471	1045.76
2.46888	1046.57
2.48313	1047.37
2.49747	1048.16
2.51189	1048.94
2.52639	1049.69
2.54097	1050.44
2.55564	1051.17
2.5704	1051.89
2.58523	1052.6
2.60016	1053.29
2.61517	1053.97
2.63027	1054.63
2.64545	1055.28
2.66073	1055.92
2.67609	1056.55
2.69153	1057.16
2.70707	1057.75
2.7227	1058.33
2.73842	1058.9
2.75423	1059.46
2.77013	1060
2.78612	1060.53
2.80221	1061.05
2.81838	1061.56
2.83465	1062.06
2.85102	1062.54
2.86748	1063.02
2.88403	1063.47
2.90068	1063.92
2.91743	1064.35
2.93427	1064.77
2.95121	1065.17
2.96825	1065.56
2.98538	1065.94
3.00262	1066.31
3.01995	1066.66
3.03739	1066.99
3.05492	1067.32
3.07256	1067.63
3.0903	1067.92
3.10814	1068.21
3.12608	1068.48
3.14413	1068.73
3.16228	1068.98
3.18053	1069.21
3.1989	1069.42
3.21736	1069.63
3.23594	1069.82
3.25462	1070
3.27341	1070.16
3.2923	1070.31
3.31131	1070.45
3.33043	1070.58
3.34965	1070.7
3.36899	1070.8
3.38844	1070.89
3.408	1070.97
3.42768	1071.04
3.44747	1071.1
3.46737	1071.14
3.48739	1071.18
3.50752	1071.2
3.52777	1071.21
3.54813	1071.22
3.56862	1071.21
3.58922	1071.19
3.60994	1071.16
3.63078	1071.12
3.65174	1071.07
3.67282	1071.01
3.69403	1070.93
3.71535	1070.85
3.7368	1070.76
3.75837	1070.65
3.78007	1070.54
3.80189	1070.41
3.82384	1070.27
3.84592	1070.12
3.86812	1069.97
3.89045	1069.8
3.91291	1069.62
3.9355	1069.43
3.95822	1069.23
3.98107	1069.02
4.00405	1068.79
4.02717	1068.56
4.05042	1068.32
4.0738	1068.07
4.09732	1067.8
4.12098	1067.53
4.14477	1067.25
4.16869	1066.96
4.19276	1066.65
4.21697	1066.34
4.24131	1066.02
4.2658	1065.7
4.29042	1065.36
4.31519	1065.01
4.3401	1064.65
4.36516	1064.28
4.39036	1063.91
4.4157	1063.52
4.4412	1063.12
4.46684	1062.71
4.49262	1062.3
4.51856	1061.87
4.54465	1061.43
4.57088	1060.99
4.59727	1060.53
4.62381	1060.07
4.6505	1059.59
4.67735	1059.11
4.70435	1058.61
4.73151	1058.1
4.75883	1057.59
4.7863	1057.07
4.81393	1056.53
4.84172	1055.99
4.86968	1055.43
4.89779	1054.87
4.92606	1054.3
4.9545	1053.71
4.9831	1053.12
5.01187	1052.52
5.04081	1051.91
5.06991	1051.29
5.09918	1050.66
5.12861	1050.02
5.15822	1049.37
5.188	1048.72
5.21795	1048.05
5.24807	1047.38
5.27837	1046.69
5.30884	1046
5.33949	1045.3
5.37032	1044.59
5.40132	1043.88
5.4325	1043.15
5.46387	1042.42
5.49541	1041.68
5.52713	1040.93
5.55904	1040.18
5.59114	1039.41
5.62341	1038.64
5.65588	1037.86
5.68853	1037.07
5.72137	1036.27
5.7544	1035.47
5.78762	1034.66
5.82103	1033.84
5.85464	1033.02
5.88844	1032.18
5.92243	1031.35
5.95662	1030.5
5.99101	1029.65
6.0256	1028.78
6.06038	1027.92
6.09537	1027.04
6.13056	1026.16
6.16595	1025.27
6.20155	1024.37
6.23735	1023.47
6.27336	1022.56
6.30957	1021.64
6.346	1020.71
6.38263	1019.78
6.41948	1018.84
6.45654	1017.89
6.49382	1016.94
6.53131	1015.98
6.56901	1015.01
6.60693	1014.04
6.64508	1013.06
6.68344	1012.07
6.72202	1011.07
6.76083	1010.07
6.79986	1009.06
6.83912	1008.04
6.8786	1007.02
6.91831	1005.99
6.95825	1004.96
6.99842	1003.91
7.03882	1002.86
7.07946	1001.81
7.12033	1000.75
7.16143	999.68
7.20278	998.606
7.24436	997.525
7.28618	996.438
7.32825	995.344
7.37055	994.244
7.4131	993.138
7.4559	992.025
7.49894	990.906
7.54223	989.78
7.58578	988.648
7.62957	987.51
7.67361	986.365
7.71792	985.215
7.76247	984.058
7.80728	982.894
7.85236	981.725
7.89769	980.55
7.94328	979.368
7.98914	978.18
8.03526	976.987
8.08165	975.787
8.12831	974.582
8.17523	973.37
8.22243	972.153
8.2699	970.93
8.31764	969.701
8.36566	968.467
8.41395	967.227
8.46253	965.981
8.51138	964.73
8.56052	963.473
8.60994	962.211
8.65964	960.943
8.70964	959.67
8.75992	958.391
8.81049	957.107
8.86135	955.817
8.91251	954.522
8.96396	953.221
9.01571	951.915
9.06776	950.604
9.12011	949.287
9.17276	947.965
9.22571	946.638
9.27897	945.305
9.33254	943.967
9.38642	942.624
9.44061	941.276
9.49511	939.922
9.54993	938.564
9.60506	937.2
9.66051	935.831
9.71628	934.458
9.77237	933.079
9.82879	931.695
9.88553	930.307
9.9426	928.914
10	927.515
10.0577	926.112
10.1158	924.704
10.1742	923.292
10.2329	921.874
10.292	920.452
10.3514	919.025
10.4112	917.593
10.4713	916.157
10.5317	914.716
10.5925	913.27
10.6537	911.819
10.7152	910.364
10.7771	908.905
10.8393	907.441
10.9018	905.972
10.9648	904.499
11.0281	903.022
11.0917	901.54
11.1558	900.054
11.2202	898.563
11.285	897.069
11.3501	895.569
11.4156	894.066
11.4815	892.559
11.5478	891.047
11.6145	889.531
11.6815	888.011
11.749	886.487
11.8168	884.959
11.885	883.427
11.9536	881.89
12.0226	880.35
12.0921	878.806
12.1619	877.258
12.2321	875.707
12.3027	874.151
12.3737	872.592
12.4451	871.029
12.517	869.463
12.5893	867.892
12.6619	866.319
12.735	864.741
12.8086	863.161
12.8825	861.576
12.9569	859.988
13.0317	858.397
13.1069	856.803
13.1826	855.205
13.2587	853.603
13.3352	851.998
13.4122	850.39
13.4896	848.779
13.5675	847.165
13.6458	845.547
13.7246	843.926
13.8038	842.302
13.8835	840.674
13.9637	839.044
14.0443	837.41
14.1254	835.772
14.2069	834.131
14.2889	832.488
14.3714	830.841
14.4544	829.191
14.5378	827.539
14.6218	825.883
14.7062	824.225
14.7911	822.564
14.8765	820.9
14.9624	819.233
15.0487	817.563
15.1356	815.891
15.223	814.216
15.3109	812.538
15.3993	810.858
15.4882	809.175
15.5776	807.49
15.6675	805.802
15.758	804.111
15.8489	802.418
15.9404	800.722
16.0325	799.024
16.125	797.324
16.2181	795.621
16.3117	793.916
16.4059	792.208
16.5006	790.499
16.5959	788.786
16.6917	787.072
16.788	785.356
16.885	783.637
16.9824	781.916
17.0805	780.193
17.1791	778.467
17.2783	776.74
17.378	775.011
17.4783	773.279
17.5792	771.546
17.6807	769.811
17.7828	768.073
17.8855	766.334
17.9887	764.593
18.0926	762.849
18.197	761.104
18.3021	759.357
18.4077	757.609
18.514	755.858
18.6209	754.106
18.7284	752.352
18.8365	750.596
18.9452	748.838
19.0546	747.079
19.1646	745.318
19.2752	743.555
19.3865	741.79
19.4984	740.024
19.611	738.256
19.7242	736.487
19.8381	734.716
19.9526	732.943
20.0678	731.169
20.1837	729.393
20.3002	727.615
20.4174	725.836
20.5353	724.056
20.6538	722.273
20.773	720.489
20.893	718.704
21.0136	716.918
21.1349	715.146
21.2569	713.372
21.3796	711.597
21.503	709.82
21.6272	708.042
21.752	706.263
21.8776	704.483
22.0039	702.701
22.1309	700.918
22.2587	699.135
22.3872	697.35
22.5165	695.564
22.6464	693.777
22.7772	691.99
22.9087	690.201
23.0409	688.412
23.1739	686.622
23.3077	684.831
23.4423	683.04
23.5776	681.248
23.7137	679.455
23.8506	677.662
23.9883	675.869
24.1268	674.075
24.2661	672.281
24.4062	670.486
24.5471	668.691
24.6888	666.896
24.8313	665.101
24.9747	663.306
25.1189	661.51
25.2639	659.715
25.4097	657.919
25.5564	656.124
25.704	654.328
25.8523	652.533
26.0016	650.738
26.1517	648.943
26.3027	647.148
26.4545	645.354
26.6073	643.559
26.7609	641.766
26.9153	639.972
27.0707	638.179
27.227	636.387
27.3842	634.595
27.5423	632.803
27.7013	631.012
27.8612	629.222
28.0221	627.431
28.1838	625.637
28.3465	623.843
28.5102	622.05
28.6748	620.257
28.8403	618.465
29.0068	616.675
29.1743	614.885
29.3427	613.095
29.5121	611.307
29.6825	609.52
29.8538	607.734
30.0262	605.949
30.1995	604.165
30.3739	602.382
30.5492	600.6
30.7256	598.819
30.903	597.04
31.0814	595.261
31.2608	593.484
31.4413	591.709
31.6228	589.934
31.8053	588.161
31.989	586.389
32.1736	584.619
32.3594	582.85
32.5462	581.082
32.7341	579.316
32.923	577.551
33.1131	575.788
33.3043	574.026
33.4965	572.265
33.6899	570.506
33.8844	568.748
34.08	566.992
34.2768	565.237
34.4747	563.483
34.6737	561.731
34.8739	559.98
35.0752	558.23
35.2777	556.482
35.4813	554.734
35.6862	552.989
35.8922	551.244
36.0994	549.501
36.3078	547.76
36.5174	546.02
36.7282	544.282
36.9403	542.546
37.1535	540.811
37.368	539.078
37.5837	537.347
37.8007	535.617
38.0189	533.89
38.2384	532.164
38.4592	530.44
38.6812	528.718
38.9045	526.998
39.1291	525.28
39.355	523.564
39.5822	521.85
39.8107	520.138
40.0405	518.428
40.2717	516.719
40.5042	515.013
40.738	513.31
40.9732	511.608
41.2098	509.908
41.4477	508.21
41.6869	506.514
41.9276	504.821
42.1697	503.127
42.4131	501.436
42.658	499.746
42.9042	498.058
43.1519	496.373
43.401	494.69
43.6516	493.009
43.9036	491.331
44.157	489.655
44.412	487.981
44.6684	486.31
44.9262	484.641
45.1856	482.975
45.4465	481.312
45.7088	479.651
45.9727	477.993
46.2381	476.338
46.505	474.685
46.7735	473.036
47.0435	471.389
47.3151	469.744
47.5883	468.103
47.863	466.465
48.1393	464.829
48.4172	463.197
48.6968	461.567
48.9779	459.94
49.2606	458.317
49.545	456.696
49.831	455.078
50.1187	453.464
50.4081	451.852
50.6991	450.243
50.9918	448.637
51.2861	447.034
51.5822	445.435
51.88	443.838
52.1795	442.244
52.4807	440.653
52.7837	439.064
53.0884	437.479
53.3949	435.897
53.7032	434.317
54.0132	432.74
54.325	431.165
54.6387	429.594
54.9541	428.024
55.2713	426.458
55.5904	424.894
55.9114	423.332
56.2341	421.779
56.5588	420.23
56.8853	418.684
57.2137	417.14
57.544	415.599
57.8762	414.06
58.2103	412.524
58.5464	410.991
58.8844	409.46
59.2243	407.933
59.5662	406.408
59.9101	404.886
60.256	403.367
60.6038	401.851
60.9537	400.338
61.3056	398.829
61.6595	397.322
62.0155	395.819
62.3735	394.319
62.7336	392.822
63.0957	391.328
63.46	389.838
63.8263	388.351
64.1948	386.868
64.5654	385.388
64.9382	383.911
65.3131	382.438
65.6901	380.969
66.0693	379.503
66.4508	378.041
66.8344	376.582
67.2202	375.127
67.6083	373.675
67.9986	372.227
68.3912	370.783
68.786	369.342
69.1831	367.905
69.5825	366.472
69.9842	365.043
70.3882	363.614
70.7946	362.189
71.2033	360.768
71.6143	359.351
72.0278	357.937
72.4436	356.528
72.8618	355.122
73.2825	353.72
73.7055	352.321
74.131	350.927
74.559	349.536
74.9894	348.15
75.4223	346.767
75.8578	345.389
76.2957	344.014
76.7361	342.643
77.1792	341.276
77.6247	339.913
78.0728	338.555
78.5236	337.2
78.9769	335.849
79.4328	334.502
79.8914	333.158
80.3526	331.819
80.8165	330.484
81.2831	329.152
81.7523	327.824
82.2243	326.501
82.699	325.18
83.1764	323.864
83.6566	322.551
84.1395	321.241
84.6253	319.936
85.1138	318.633
85.6052	317.335
86.0994	316.039
86.5964	314.748
87.0964	313.46
87.5992	312.176
88.1049	310.896
88.6135	309.62
89.1251	308.347
89.6396	307.078
90.1571	305.813
90.6776	304.552
91.2011	303.295
91.7276	302.042
92.2571	300.792
92.7897	299.546
93.3254	298.305
93.8642	297.067
94.4061	295.832
94.9511	294.602
95.4993	293.376
96.0506	292.153
96.6051	290.934
97.1628	289.719
97.7237	288.508
98.2879	287.3
98.8553	286.096
99.426	284.896
100	283.699
100.577	282.507
101.158	281.318
101.742	280.133
102.329	278.952
102.92	277.774
103.514	276.601
104.112	275.431
104.713	274.266
105.317	273.104
105.925	271.946
106.537	270.792
107.152	269.642
107.771	268.496
108.393	267.354
109.018	266.215
109.648	265.081
110.281	263.95
110.917	262.823
111.558	261.7
112.202	260.581
112.85	259.466
113.501	258.354
114.156	257.247
114.815	256.143
115.478	255.043
116.145	253.946
116.815	252.854
117.49	251.766
118.168	250.681
118.85	249.6
119.536	248.524
120.226	247.451
120.921	246.382
121.619	245.317
122.321	244.256
123.027	243.198
123.737	242.145
124.451	241.095
125.17	240.049
125.893	239.007
126.619	237.969
127.35	236.934
128.086	235.903
128.825	234.876
129.569	233.853
130.317	232.833
131.069	231.817
131.826	230.804
132.587	229.795
133.352	228.79
134.122	227.788
134.896	226.79
135.675	225.795
136.458	224.804
137.246	223.816
138.038	222.831
138.835	221.85
139.637	220.871
140.443	219.895
141.254	218.921
142.069	217.95
142.889	216.983
143.714	216.018
144.544	215.057
145.378	214.1
146.218	213.145
147.062	212.194
147.911	211.247
148.765	210.303
149.624	209.362
150.487	208.425
151.356	207.492
152.23	206.562
153.109	205.636
153.993	204.714
154.882	203.795
155.776	202.88
156.675	201.969
157.58	201.062
158.489	200.159
159.404	199.259
160.325	198.364
161.25	197.472
162.181	196.584
163.117	195.7
164.059	194.821
165.006	193.945
165.959	193.073
166.917	192.205
167.88	191.341
168.85	190.482
169.824	189.626
170.805	188.774
171.791	187.926
172.783	187.083
173.78	186.243
174.783	185.408
175.792	184.576
176.807	183.748
177.828	182.924
178.855	182.105
179.887	181.289
180.926	180.477
181.97	179.669
183.021	178.864
184.077	178.064
185.14	177.267
186.209	176.474
187.284	175.684
188.365	174.899
189.452	174.116
190.546	173.337
191.646	172.562
192.752	171.79
193.865	171.021
194.984	170.255
196.11	169.493
197.242	168.733
198.381	167.976
199.526	167.222
200.678	166.471
201.837	165.723
203.002	164.976
204.174	164.233
205.353	163.491
206.538	162.752
207.73	162.014
208.93	161.278
210.136	160.546
211.349	159.834
212.569	159.123
213.796	158.414
215.03	157.707
216.272	157.001
217.52	156.297
218.776	155.595
220.039	154.895
221.309	154.197
222.587	153.501
223.872	152.806
225.165	152.114
226.464	151.424
227.772	150.736
229.087	150.05
230.409	149.366
231.739	148.685
233.077	148.005
234.423	147.328
235.776	146.653
237.137	145.981
238.506	145.311
239.883	144.643
241.268	143.978
242.661	143.315
244.062	142.655
245.471	141.997
246.888	141.342
248.313	140.689
249.747	140.039
251.189	139.392
252.639	138.747
254.097	138.105
255.564	137.466
257.04	136.829
258.523	136.196
260.016	135.565
261.517	134.936
263.027	134.311
264.545	133.688
266.073	133.069
267.609	132.452
269.153	131.838
270.707	131.227
272.27	130.618
273.842	130.013
275.423	129.411
277.013	128.811
278.612	128.215
280.221	127.621
281.838	127.027
283.465	126.436
285.102	125.848
286.748	125.263
288.403	124.681
290.068	124.101
291.743	123.525
293.427	122.952
295.121	122.382
296.825	121.815
298.538	121.25
300.262	120.689
301.995	120.131
303.739	119.576
305.492	119.023
307.256	118.474
309.03	117.927
310.814	117.384
312.608	116.843
314.413	116.305
316.228	115.77
318.053	115.238
319.89	114.709
321.736	114.182
323.594	113.659
325.462	113.137
327.341	112.619
329.23	112.103
331.131	111.59
333.043	111.079
334.965	110.571
336.899	110.065
338.844	109.562
340.8	109.06
342.768	108.561
344.747	108.064
346.737	107.57
348.739	107.077
350.752	106.586
352.777	106.097
354.813	105.61
356.862	105.124
358.922	104.641
360.994	104.159
363.078	103.68
365.174	103.202
367.282	102.727
369.403	102.253
371.535	101.782
373.68	101.312
375.837	100.844
378.007	100.379
380.189	99.9153
382.384	99.4537
384.592	98.9943
386.812	98.5368
389.045	98.0814
391.291	97.6281
393.55	97.1767
395.822	96.7274
398.107	96.2802
400.405	95.8349
402.717	95.3917
405.042	94.9505
407.38	94.5113
409.732	94.0741
412.098	93.6388
414.477	93.2056
416.869	92.7742
419.276	92.3448
421.697	91.9167
424.131	91.4902
426.58	91.0656
429.042	90.643
431.519	90.2223
434.01	89.8036
436.516	89.3868
439.036	88.9721
441.57	88.5593
444.12	88.1486
446.684	87.7398
449.262	87.3331
451.856	86.9284
454.465	86.5258
457.088	86.1252
459.727	85.7266
462.381	85.3301
465.05	84.9357
467.735	84.5433
470.435	84.1529
473.151	83.7646
475.883	83.3784
478.63	82.9942
481.393	82.612
484.172	82.2319
486.968	81.8538
489.779	81.4777
492.606	81.1036
495.45	80.7315
498.31	80.3614
501.187	79.9932
504.081	79.6269
506.991	79.2626
509.918	78.9002
512.861	78.5397
515.822	78.181
518.8	77.8241
521.795	77.469
524.807	77.1157
527.837	76.7641
530.884	76.4142
533.949	76.066
537.032	75.7193
540.132	75.3742
543.25	75.0307
546.387	74.6886
549.541	74.348
552.713	74.0087
555.904	73.6707
559.114	73.334
562.341	73.0006
565.588	72.6693
568.853	72.3392
572.137	72.0103
575.44	71.6827
578.762	71.3563
582.103	71.0312
585.464	70.7073
588.844	70.3848
592.243	70.0636
595.662	69.7437
599.101	69.4252
602.56	69.108
606.038	68.7921
609.537	68.4776
613.056	68.1645
616.595	67.8528
620.155	67.5425
623.735	67.2335
627.336	66.926
630.957	66.6199
634.6	66.3152
638.263	66.012
641.948	65.7102
645.654	65.4098
649.382	65.1108
653.131	64.8133
656.901	64.5172
660.693	64.2226
664.508	63.9294
668.344	63.6377
672.202	63.3474
676.083	63.0585
679.986	62.771
683.912	62.485
687.86	62.2004
691.831	61.9173
695.825	61.6355
699.842	61.3551
703.882	61.0755
707.946	60.7973
712.033	60.5204
716.143	60.245
720.278	59.9709
724.436	59.6982
728.618	59.427
732.825	59.1571
737.055	58.8886
741.31	58.6216
745.59	58.3559
749.894	58.0916
754.223	57.8287
758.578	57.5672
762.957	57.3071
767.361	57.0484
771.792	56.791
776.247	56.535
780.728	56.2803
785.236	56.027
789.769	55.7749
794.328	55.5242
798.914	55.2748
803.526	55.0267
808.165	54.7798
812.831	54.5341
817.523	54.2897
822.243	54.0464
826.99	53.8044
831.764	53.5635
836.566	53.3237
841.395	53.085
846.253	52.8473
851.138	52.6107
856.052	52.3752
860.994	52.1408
865.964	51.9075
870.964	51.6753
875.992	51.4441
881.049	51.2141
886.135	50.9852
891.251	50.7574
896.396	50.5307
901.571	50.3051
906.776	50.0806
912.011	49.8573
917.276	49.635
922.571	49.4138
927.897	49.1937
933.254	48.9748
938.642	48.7569
944.061	48.5401
949.511	48.3243
954.993	48.1097
960.506	47.8961
966.051	47.6835
971.628	47.472
977.237	47.2615
982.879	47.0521
988.553	46.8436
994.26	46.6362
1000	46.4298
1005.77	46.2244
1011.58	46.02
1017.42	45.8166
1023.29	45.6143
1029.2	45.4129
1035.14	45.2126
1041.12	45.0133
1047.13	44.815
1053.17	44.6177
1059.25	44.4214
1065.37	44.2261
1071.52	44.0318
1077.71	43.8385
1083.93	43.6461
1090.18	43.4547
1096.48	43.2643
1102.81	43.0748
1109.17	42.8862
1115.58	42.6986
1122.02	42.5119
1128.5	42.326
1135.01	42.1411
1141.56	41.9571
1148.15	41.7739
1154.78	41.5917
1161.45	41.4104
1168.15	41.23
1174.9	41.0505
1181.68	40.872
1188.5	40.6943
1195.36	40.5175
1202.26	40.3417
1209.21	40.1667
1216.19	39.9927
1223.21	39.8195
1230.27	39.6473
1237.37	39.4759
1244.51	39.3054
1251.7	39.1357
1258.93	38.967
1266.19	38.799
1273.5	38.632
1280.86	38.4658
1288.25	38.3004
1295.69	38.1358
1303.17	37.9721
1310.69	37.8092
1318.26	37.6471
1325.87	37.4858
1333.52	37.3253
1341.22	37.1656
1348.96	37.0066
1356.75	36.8407
1364.58	36.6718
1372.46	36.5038
1380.38	36.3365
1388.35	36.1701
1396.37	36.0044
1404.43	35.8394
1412.54	35.6749
1420.69	35.5112
1428.89	35.3482
1437.14	35.1861
1445.44	35.0247
1453.78	34.8641
1462.18	34.7044
1470.62	34.5454
1479.11	34.3872
1487.65	34.2299
1496.24	34.0734
1504.87	33.9177
1513.56	33.7628
1522.3	33.6088
1531.09	33.4556
1539.93	33.3033
1548.82	33.1518
1557.76	33.0012
1566.75	32.8514
1575.8	32.7025
1584.89	32.5544
1594.04	32.4073
1603.25	32.261
1612.5	32.1155
1621.81	31.971
1631.17	31.8273
1640.59	31.6845
1650.06	31.5426
1659.59	31.4015
1669.17	31.2613
1678.8	31.1221
1688.5	30.9836
1698.24	30.8461
1708.05	30.7094
1717.91	30.5736
1727.83	30.4387
1737.8	30.3046
1747.83	30.1714
1757.92	30.0391
1768.07	29.9076
1778.28	29.777
1788.55	29.6472
1798.87	29.5182
1809.26	29.39
1819.7	29.2627
1830.21	29.1362
1840.77	29.0105
1851.4	28.8856
1862.09	28.7614
1872.84	28.6381
1883.65	28.5155
1894.52	28.3936
1905.46	28.2725
1916.46	28.152
1927.52	28.0323
1938.65	27.9133
1949.84	27.7949
1961.1	27.6772
1972.42	27.5601
1983.81	27.4436
1995.26	27.3277
2006.78	27.2124
2018.37	27.0976
2030.02	26.9834
2041.74	26.8696
2053.53	26.7563
2065.38	26.6434
2077.3	26.531
2089.3	26.4189
2101.36	26.3076
2113.49	26.1997
2125.69	26.0921
2137.96	25.9849
2150.3	25.878
2162.72	25.7715
2175.2	25.6654
2187.76	25.5596
2200.39	25.4542
2213.09	25.3492
2225.87	25.2446
2238.72	25.1404
2251.65	25.0366
2264.64	24.9332
2277.72	24.8302
2290.87	24.7276
2304.09	24.6254
2317.39	24.5237
2330.77	24.4223
2344.23	24.3215
2357.76	24.221
2371.37	24.121
2385.06	24.0215
2398.83	23.9224
2412.68	23.8237
2426.61	23.7255
2440.62	23.6278
2454.71	23.5306
2468.88	23.4338
2483.13	23.3375
2497.47	23.2417
2511.89	23.1464
2526.39	23.0516
2540.97	22.9572
2555.64	22.8634
2570.4	22.7701
2585.23	22.6772
2600.16	22.5849
2615.17	22.4931
2630.27	22.4018
2645.45	22.311
2660.73	22.2207
2676.09	22.131
2691.53	22.0418
2707.07	21.9531
2722.7	21.8649
2738.42	21.7772
2754.23	21.6901
2770.13	21.6035
2786.12	21.5174
2802.21	21.4318
2818.38	21.3463
2834.65	21.2613
2851.02	21.1769
2867.48	21.0929
2884.03	21.0095
2900.68	20.9267
2917.43	20.8443
2934.27	20.7625
2951.21	20.6813
2968.25	20.6005
2985.38	20.5203
3002.62	20.4406
3019.95	20.3614
3037.39	20.2828
3054.92	20.2047
3072.56	20.1271
3090.3	20.05
3108.14	19.9734
3126.08	19.8974
3144.13	19.8218
3162.28	19.7467
3180.53	19.6722
3198.9	19.5981
3217.36	19.5245
3235.94	19.4514
3254.62	19.3787
3273.41	19.3065
3292.3	19.2348
3311.31	19.1635
3330.43	19.0927
3349.65	19.0223
3368.99	18.9523
3388.44	18.8827
3408	18.8135
3427.68	18.7446
3447.47	18.6762
3467.37	18.6081
3487.39	18.5404
3507.52	18.473
3527.77	18.4059
3548.13	18.3391
3568.62	18.2726
3589.22	18.2065
3609.94	18.1407
3630.78	18.0753
3651.74	18.0102
3672.82	17.9454
3694.03	17.8809
3715.35	17.8168
3736.8	17.7531
3758.37	17.6896
3780.07	17.6266
3801.89	17.5638
3823.84	17.5014
3845.92	17.4393
3868.12	17.3776
3890.45	17.3162
3912.91	17.2552
3935.5	17.1945
3958.22	17.1341
3981.07	17.0741
4004.05	17.0144
4027.17	16.9551
4050.42	16.8961
4073.8	16.8374
4097.32	16.779
4120.98	16.721
4144.77	16.6633
4168.69	16.6059
4192.76	16.5489
4216.97	16.492
4241.31	16.4355
4265.8	16.3792
4290.42	16.3233
4315.19	16.2677
4340.1	16.2124
4365.16	16.1574
4390.36	16.1028
4415.7	16.0485
4441.2	15.9945
4466.84	15.9408
4492.62	15.8875
4518.56	15.8345
4544.65	15.7818
4570.88	15.7295
4597.27	15.6775
4623.81	15.6258
4650.5	15.5745
4677.35	15.5234
4704.35	15.4728
4731.51	15.4224
4758.83	15.3724
4786.3	15.3227
4813.93	15.2733
4841.72	15.2243
4869.68	15.1756
4897.79	15.1272
4926.06	15.0791
4954.5	15.0313
4983.1	14.9839
5011.87	14.9368
5040.81	14.89
5069.91	14.8435
5099.18	14.7973
5128.61	14.7514
5158.22	14.7058
5188	14.6604
5217.95	14.6154
5248.07	14.5707
5278.37	14.5262
5308.84	14.482
5339.49	14.4381
5370.32	14.3944
5401.32	14.351
5432.5	14.3078
5463.87	14.2649
5495.41	14.2221
5527.13	14.1797
5559.04	14.1374
5591.14	14.0953
5623.41	14.0537
5655.88	14.0125
5688.53	13.9714
5721.37	13.9306
5754.4	13.8899
5787.62	13.8495
5821.03	13.8092
5854.64	13.7692
5888.44	13.7293
5922.43	13.6897
5956.62	13.6503
5991.01	13.6111
6025.6	13.5721
6060.38	13.5333
6095.37	13.4948
6130.56	13.4564
6165.95	13.4183
6201.55	13.3804
6237.35	13.3427
6273.36	13.3053
6309.57	13.268
6346	13.231
6382.63	13.1942
6419.48	13.1576
6456.54	13.1213
6493.82	13.0852
6531.31	13.0493
6569.01	13.0136
6606.93	12.9781
6645.08	12.9429
6683.44	12.9079
6722.02	12.8731
6760.83	12.8385
6799.86	12.8042
6839.12	12.7701
6878.6	12.7362
6918.31	12.7025
6958.25	12.669
6998.42	12.6357
7038.82	12.6026
7079.46	12.5697
7120.33	12.5369
7161.43	12.5044
7202.78	12.4721
7244.36	12.4401
7286.18	12.4082
7328.25	12.3765
7370.55	12.3451
7413.1	12.3139
7455.9	12.2829
7498.94	12.2521
7542.23	12.2215
7585.78	12.1911
7629.57	12.161
7673.61	12.131
7717.92	12.1013
7762.47	12.0717
7807.28	12.0424
7852.36	12.0132
7897.69	11.9843
7943.28	11.9556
7989.14	11.9271
8035.26	11.8987
8081.65	11.8706
8128.31	11.8426
8175.23	11.8149
8222.43	11.7873
8269.9	11.7599
8317.64	11.7327
8365.66	11.7057
8413.95	11.6788
8462.53	11.6521
8511.38	11.6255
8560.52	11.5992
8609.94	11.573
8659.64	11.5469
8709.64	11.5211
8759.92	11.4954
8810.49	11.4699
8861.35	11.4445
8912.51	11.4193
8963.96	11.3943
9015.71	11.3695
9067.76	11.3448
9120.11	11.3203
9172.76	11.2959
9225.71	11.2717
9278.97	11.2477
9332.54	11.2239
9386.42	11.2002
9440.61	11.1767
9495.11	11.1533
9549.93	11.1301
9605.06	11.107
9660.51	11.0841
9716.28	11.0614
9772.37	11.0388
9828.79	11.0163
9885.53	10.994
9942.6	10.9719
10000	10.9498
10057.7	10.928
10115.8	10.9063
10174.2	10.8847
10232.9	10.8633
10292	10.842
10351.4	10.8209
10411.2	10.8
10471.3	10.7791
10531.7	10.7585
10592.5	10.738
10653.7	10.7176
10715.2	10.6974
10777.1	10.6773
10839.3	10.6574
10901.8	10.6376
10964.8	10.618
11028.1	10.5985
11091.7	10.5791
11155.8	10.5599
11220.2	10.5409
11285	10.522
11350.1	10.5032
11415.6	10.4846
11481.5	10.4661
11547.8	10.4477
11614.5	10.4295
11681.5	10.4114
11749	10.3935
11816.8	10.3757
11885	10.358
11953.6	10.3405
12022.6	10.3231
12092.1	10.3059
12161.9	10.2887
12232.1	10.2717
12302.7	10.2549
12373.7	10.2381
12445.1	10.2215
12517	10.205
12589.3	10.1886
12661.9	10.1723
12735	10.1562
12808.6	10.1402
12882.5	10.1242
12956.9	10.1084
13031.7	10.0927
13106.9	10.0771
13182.6	10.0616
13258.7	10.0462
13335.2	10.0308
13412.2	10.0156
13489.6	10.0004
13567.5	9.98533
13645.8	9.97032
13724.6	9.95537
13803.8	9.94049
13883.5	9.92567
13963.7	9.91089
14044.3	9.89583
14125.4	9.88057
14206.9	9.86543
14288.9	9.85041
14371.4	9.83549
14454.4	9.82069
14537.8	9.80599
14621.8	9.79141
14706.2	9.77693
14791.1	9.76256
14876.5	9.7483
14962.4	9.73415
15048.7	9.72011
15135.6	9.70617
15223	9.69233
15310.9	9.6786
15399.3	9.66498
15488.2	9.65146
15577.6	9.63804
15667.5	9.62472
15758	9.61151
15848.9	9.59839
15940.4	9.58538
16032.5	9.57247
16125	9.55966
16218.1	9.54695
16311.7	9.53433
16405.9	9.52181
16500.6	9.5094
16595.9	9.49707
16691.7	9.48485
16788	9.47272
16885	9.46068
16982.4	9.44874
17080.5	9.43689
17179.1	9.42514
17278.3	9.41348
17378	9.40191
17478.3	9.39044
17579.2	9.37905
17680.7	9.36776
17782.8	9.35656
17885.5	9.34545
17988.7	9.33442
18092.6	9.32349
18197	9.31264
18302.1	9.30188
18407.7	9.29121
18514	9.28062
18620.9	9.27012
18728.4	9.25971
18836.5	9.24938
18945.2	9.23914
19054.6	9.22898
19164.6	9.21891
19275.2	9.20891
19386.5	9.199
19498.4	9.18918
19611	9.17943
19724.2	9.16977
19838.1	9.16018
19952.6	9.15068
20067.8	9.14126
20183.7	9.13191
20300.2	9.12265
20417.4	9.11346
20535.3	9.10435
20653.8	9.09532
20773	9.08637
20893	9.07749
21013.6	9.06869
21134.9	9.05996
21256.9	9.05131
21379.6	9.04273
21503	9.03423
21627.2	9.0258
21752	9.01745
21877.6	9.00917
22003.9	9.00096
22130.9	8.99282
22258.7	8.98475
22387.2	8.97676
22516.5	8.96883
22646.4	8.96098
22777.2	8.95319
22908.7	8.94548
23040.9	8.93783
23173.9	8.93025
23307.7	8.92274
23442.3	8.9153
23577.6	8.90793
23713.7	8.90062
23850.6	8.89338
23988.3	8.8862
24126.8	8.87909
24266.1	8.87204
24406.2	8.86506
24547.1	8.85815
24688.8	8.85129
24831.3	8.84451
24974.7	8.83778
25118.9	8.83112
25263.9	8.82452
25409.7	8.81798
25556.4	8.8115
25704	8.80508
25852.3	8.79873
26001.6	8.79243
26151.7	8.78619
26302.7	8.78002
26454.5	8.7739
26607.3	8.76784
26760.9	8.76184
26915.3	8.7559
27070.7	8.75002
27227	8.74419
27384.2	8.73842
27542.3	8.7327
27701.3	8.72705
27861.2	8.72144
28022.1	8.7159
28183.8	8.7104
28346.5	8.70497
28510.2	8.69958
28674.8	8.69425
28840.3	8.68898
29006.8	8.68376
29174.3	8.67859
29342.7	8.67347
29512.1	8.6684
29682.5	8.66339
29853.8	8.65843
30026.2	8.65351
30199.5	8.64865
30373.9	8.64384
30549.2	8.63908
30725.6	8.63437
30903	8.62971
31081.4	8.6251
31260.8	8.62053
31441.3	8.61602
31622.8	8.61155
31805.3	8.60713
31989	8.60275
32173.6	8.59843
32359.4	8.59415
32546.2	8.58991
32734.1	8.58573
32923	8.58158
33113.1	8.57749
33304.3	8.57344
33496.5	8.56943
33689.9	8.56546
33884.4	8.56155
34080	8.55767
34276.8	8.55384
34474.7	8.55005
34673.7	8.5463
34873.9	8.5426
35075.2	8.53894
35277.7	8.53532
35481.3	8.53174
35686.2	8.5282
35892.2	8.5247
36099.4	8.52125
36307.8	8.51783
36517.4	8.51446
36728.2	8.51112
36940.3	8.50782
37153.5	8.50456
37368	8.50135
37583.7	8.49816
37800.7	8.49502
38018.9	8.49192
38238.4	8.48885
38459.2	8.48582
38681.2	8.48283
38904.5	8.47987
39129.1	8.47695
39355	8.47407
39582.2	8.47122
39810.7	8.46841
40040.5	8.46564
40271.7	8.46289
40504.2	8.46019
40738	8.45752
40973.2	8.45488
41209.8	8.45227
41447.7	8.4497
41686.9	8.44717
41927.6	8.44466
42169.7	8.44219
42413.1	8.43976
42658	8.43735
42904.2	8.43498
43151.9	8.43264
43401	8.43033
43651.6	8.42805
43903.6	8.4258
44157	8.42358
44412	8.4214
44668.4	8.41924
44926.2	8.41712
45185.6	8.41502
45446.5	8.41296
45708.8	8.41092
45972.7	8.40891
46238.1	8.40693
46505	8.40498
46773.5	8.40306
47043.5	8.40117
47315.1	8.3993
47588.3	8.39747
47863	8.39565
48139.3	8.39387
48417.2	8.39211
48696.8	8.39039
48977.9	8.38868
49260.6	8.387
49545	8.38535
49831	8.38373
50118.7	8.38213
50408.1	8.38056
50699.1	8.37901
50991.8	8.37748
51286.1	8.37598
51582.2	8.37451
51880	8.37306
52179.5	8.37163
52480.7	8.37023
52783.7	8.36885
53088.4	8.36749
53394.9	8.36616
53703.2	8.36485
54013.2	8.36356
54325	8.3623
54638.7	8.36106
54954.1	8.35984
55271.3	8.35864
55590.4	8.35746
55911.4	8.35631
56234.1	8.35518
56558.8	8.35406
56885.3	8.35297
57213.7	8.3519
57544	8.35085
57876.2	8.34982
58210.3	8.34881
58546.4	8.34782
58884.4	8.34685
59224.3	8.3459
59566.2	8.34497
59910.1	8.34406
60256	8.34317
60603.8	8.3423
60953.7	8.34144
61305.6	8.3406
61659.5	8.33979
62015.5	8.33899
62373.5	8.3382
62733.6	8.33744
63095.7	8.33669
63460	8.33596
63826.3	8.33525
64194.8	8.33455
64565.4	8.33388
64938.2	8.33321
65313.1	8.33257
65690.1	8.33194
66069.3	8.33133
66450.8	8.33073
66834.4	8.33015
67220.2	8.32958
67608.3	8.32903
67998.6	8.3285
68391.2	8.32798
68786	8.32748
69183.1	8.32699
69582.5	8.32651
69984.2	8.32605
70388.2	8.32561
70794.6	8.32517
71203.3	8.32476
71614.3	8.32435
72027.8	8.32396
72443.6	8.32359
72861.8	8.32322
73282.5	8.32287
73705.5	8.32254
74131	8.32221
74559	8.3219
74989.4	8.32161
75422.3	8.32132
75857.8	8.32105
76295.7	8.32079
76736.1	8.32054
77179.2	8.3203
77624.7	8.32008
78072.8	8.31987
78523.6	8.31967
78976.9	8.31948
79432.8	8.3193
79891.4	8.31913
80352.6	8.31897
80816.5	8.31883
81283.1	8.31869
81752.3	8.31857
82224.3	8.31846
82699	8.31835
83176.4	8.31826
83656.6	8.31818
84139.5	8.31811
84625.3	8.31804
85113.8	8.31799
85605.2	8.31795
86099.4	8.31792
86596.4	8.31789
87096.4	8.31788
87599.2	8.31787
88104.9	8.31787
88613.5	8.31789
89125.1	8.31791
89639.6	8.31794
90157.1	8.31797
90677.6	8.31802
91201.1	8.31808
91727.6	8.31814
92257.1	8.31821
92789.7	8.31829
93325.4	8.31838
93864.2	8.31847
94406.1	8.31857
94951.1	8.31868
95499.3	8.3188
96050.6	8.31893
96605.1	8.31906
97162.8	8.3192
97723.7	8.31934
98287.9	8.3195
98855.3	8.31966
99426	8.31982
100000	8.32
100577	8.32018
101158	8.32036
101742	8.32056
102329	8.32076
102920	8.32096
103514	8.32117
104112	8.32139
104713	8.32161
105317	8.32184
105925	8.32207
106537	8.32231
107152	8.32256
107771	8.32281
108393	8.32307
109018	8.32333
109648	8.32359
110281	8.32387
110917	8.32414
111558	8.32442
112202	8.32471
112850	8.325
113501	8.3253
114156	8.3256
114815	8.3259
115478	8.32621
116145	8.32652
116815	8.32684
117490	8.32716
118168	8.32749
118850	8.32782
119536	8.32815
120226	8.32849
120921	8.32883
121619	8.32917
122321	8.32952
123027	8.32987
123737	8.33023
124451	8.33059
125170	8.33095
125893	8.33131
126619	8.33168
127350	8.33205
128086	8.33243
128825	8.3328
129569	8.33318
130317	8.33357
131069	8.33395
131826	8.33434
132587	8.33473
133352	8.33513
134122	8.33552
134896	8.33592
135675	8.33632
136458	8.33673
137246	8.33713
138038	8.33754
138835	8.33795
139637	8.33836
140443	8.33878
141254	8.33919
142069	8.33961
142889	8.34003
143714	8.34045
144544	8.34087
145378	8.3413
146218	8.34172
147062	8.34215
147911	8.34258
148765	8.34301
149624	8.34344
150487	8.34388
151356	8.34431
152230	8.34475
153109	8.34519
153993	8.34563
154882	8.34607
155776	8.34651
156675	8.34695
157580	8.34739
158489	8.34783
159404	8.34828
160325	8.34872
161250	8.34917
162181	8.34962
163117	8.35006
164059	8.35051
165006	8.35096
165959	8.35141
166917	8.35186
167880	8.35231
168850	8.35276
169824	8.35321
170805	8.35366
171791	8.35411
172783	8.35456
173780	8.35501
174783	8.35547
175792	8.35592
176807	8.35637
177828	8.35682
178855	8.35728
179887	8.35773
180926	8.35818
181970	8.35863
183021	8.35908
184077	8.35954
185140	8.35999
186209	8.36044
187284	8.36089
188365	8.36134
189452	8.36179
190546	8.36224
191646	8.36269
192752	8.36314
193865	8.36359
194984	8.36404
196110	8.36448
197242	8.36493
198381	8.36538
199526	8.36582
200678	8.36627
201837	8.36671
203002	8.36716
204174	8.3676
205353	8.36804
206538	8.36848
207730	8.36892
208930	8.36936
210136	8.3698
211349	8.37024
212569	8.37068
213796	8.37112
215030	8.37155
216272	8.37198
217520	8.37242
218776	8.37285
220039	8.37328
221309	8.37371
222587	8.37414
223872	8.37457
225165	8.37499
226464	8.37542
227772	8.37584
229087	8.37627
230409	8.37669
231739	8.37711
233077	8.37753
234423	8.37795
235776	8.37836
237137	8.37878
238506	8.37919
239883	8.37961
241268	8.38002
242661	8.38043
244062	8.38084
245471	8.38124
246888	8.38165
248313	8.38205
249747	8.38245
251189	8.38285
252639	8.38325
254097	8.38365
255564	8.38405
257040	8.38444
258523	8.38484
260016	8.38523
261517	8.38562
263027	8.38601
264545	8.38639
266073	8.38678
267609	8.38716
269153	8.38754
270707	8.38792
272270	8.3883
273842	8.38868
275423	8.38905
277013	8.38942
278612	8.3898
280221	8.39016
281838	8.39053
283465	8.3909
285102	8.39126
286748	8.39162
288403	8.39198
290068	8.39234
291743	8.3927
293427	8.39306
295121	8.39341
296825	8.39376
298538	8.39411
300262	8.39446
301995	8.3948
303739	8.39515
305492	8.39549
307256	8.39583
309030	8.39616
310814	8.3965
312608	8.39683
314413	8.39717
316228	8.3975
318053	8.39782
319890	8.39815
321736	8.39848
323594	8.3988
325462	8.39912
327341	8.39944
329230	8.39975
331131	8.40007
333043	8.40038
334965	8.40069
336899	8.401
338844	8.4013
340800	8.40161
342768	8.40191
344747	8.40221
346737	8.40251
348739	8.40281
350752	8.4031
352777	8.40339
354813	8.40368
356862	8.40397
358922	8.40426
360994	8.40454
363078	8.40482
365174	8.4051
367282	8.40538
369403	8.40565
371535	8.40593
373680	8.4062
375837	8.40647
378007	8.40674
380189	8.407
382384	8.40727
384592	8.40753
386812	8.40779
389045	8.40804
391291	8.4083
393550	8.40855
395822	8.4088
398107	8.40905
400405	8.4093
402717	8.40955
405042	8.40979
407380	8.41003
409732	8.41027
412098	8.41051
414477	8.41074
416869	8.41097
419276	8.4112
421697	8.41143
424131	8.41166
426580	8.41188
429042	8.41211
431519	8.41233
434010	8.41255
436516	8.41276
439036	8.41298
441570	8.41319
444120	8.4134
446684	8.41361
449262	8.41382
451856	8.41402
454465	8.41422
457088	8.41442
459727	8.41462
462381	8.41482
465050	8.41501
467735	8.4152
470435	8.4154
473151	8.41558
475883	8.41577
478630	8.41596
481393	8.41614
484172	8.41632
486968	8.4165
489779	8.41668
492606	8.41685
495450	8.41702
498310	8.41719
501187	8.41736
504081	8.41753
506991	8.4177
509918	8.41786
512861	8.41802
515822	8.41818
518800	8.41834
521795	8.4185
524807	8.41865
527837	8.4188
530884	8.41895
533949	8.4191
537032	8.41925
540132	8.41939
543250	8.41954
546387	8.41968
549541	8.41982
552713	8.41995
555904	8.42009
559114	8.42022
562341	8.42036
565588	8.42049
568853	8.42062
572137	8.42074
575440	8.42087
578762	8.42099
582103	8.42111
585464	8.42123
588844	8.42135
592243	8.42147
595662	8.42158
599101	8.4217
602560	8.42181
606038	8.42192
609537	8.42203
613056	8.42213
616595	8.42224
620155	8.42234
623735	8.42244
627336	8.42254
630957	8.42264
634600	8.42274
638263	8.42283
641948	8.42293
645654	8.42302
649382	8.42311
653131	8.4232
656901	8.42329
660693	8.42337
664508	8.42346
668344	8.42354
672202	8.42362
676083	8.4237
679986	8.42378
683912	8.42386
687860	8.42393
691831	8.424
695825	8.42408
699842	8.42415
703882	8.42422
707946	8.42429
712033	8.42435
716143	8.42442
720278	8.42448
724436	8.42454
728618	8.42461
732825	8.42467
737055	8.42472
741310	8.42478
745590	8.42484
749894	8.42489
754223	8.42494
758578	8.425
762957	8.42505
767361	8.4251
771792	8.42514
776247	8.42519
780728	8.42524
785236	8.42528
789769	8.42533
794328	8.42537
798914	8.42541
803526	8.42545
808165	8.42549
812831	8.42552
817523	8.42556
822243	8.4256
826990	8.42563
831764	8.42566
836566	8.42569
841395	8.42572
846253	8.42575
851138	8.42578
856052	8.42581
860994	8.42584
865964	8.42586
870964	8.42589
875992	8.42591
881049	8.42593
886135	8.42595
891251	8.42597
896396	8.42599
901571	8.42601
906776	8.42603
912011	8.42605
917276	8.42606
922571	8.42608
927897	8.42609
933254	8.42611
938642	8.42612
944061	8.42613
949511	8.42614
954993	8.42615
960506	8.42616
966051	8.42617
971628	8.42618
977237	8.42618
982879	8.42619
988553	8.42619
994260	8.4262
1e+06	8.4262
1.00577e+06	8.42621
1.01158e+06	8.42621
1.01742e+06	8.42621
1.02329e+06	8.42621
1.0292e+06	8.42621
1.03514e+06	8.42621
1.04112e+06	8.42621
1.04713e+06	8.42621
1.05317e+06	8.42621
1.05925e+06	8.42621
1.06537e+06	8.4262
1.07152e+06	8.4262
1.07771e+06	8.4262
1.08393e+06	8.42619
1.09018e+06	8.42619
1.09648e+06	8.42618
1.10281e+06	8.42618
1.10917e+06	8.42617
1.11558e+06	8.42616
1.12202e+06	8.42616
1.1285e+06	8.42615
1.13501e+06	8.42614
1.14156e+06	8.42613
1.14815e+06	8.42612
1.15478e+06	8.42611
1.16145e+06	8.4261
1.16815e+06	8.42609
1.1749e+06	8.42608
1.18168e+06	8.42607
1.1885e+06	8.42606
1.19536e+06	8.42605
1.20226e+06	8.42604
1.20921e+06	8.42603
1.21619e+06	8.42601
1.22321e+06	8.426
1.23027e+06	8.42599
1.23737e+06	8.42598
1.24451e+06	8.42596
1.2517e+06	8.42595
1.25893e+06	8.42594
1.26619e+06	8.42592
1.2735e+06	8.42591
1.28086e+06	8.4259
1.28825e+06	8.42588
1.29569e+06	8.42587
1.30317e+06	8.42585
1.31069e+06	8.42584
1.31826e+06	8.42583
1.32587e+06	8.42581
1.33352e+06	8.4258
1.34122e+06	8.42578
1.34896e+06	8.42577
1.35675e+06	8.42576
1.36458e+06	8.42574
1.37246e+06	8.42573
1.38038e+06	8.42571
1.38835e+06	8.4257
1.39637e+06	8.42569
1.40443e+06	8.42567
1.41254e+06	8.42566
1.42069e+06	8.42565
1.42889e+06	8.42563
1.43714e+06	8.42562
1.44544e+06	8.42561
1.45378e+06	8.42559
1.46218e+06	8.42558
1.47062e+06	8.42557
1.47911e+06	8.42556
1.48765e+06	8.42554
1.49624e+06	8.42553
1.50487e+06	8.42552
1.51356e+06	8.42551
1.5223e+06	8.4255
1.53109e+06	8.42548
1.53993e+06	8.42547
1.54882e+06	8.42546
1.55776e+06	8.42545
1.56675e+06	8.42544
1.5758e+06	8.42543
1.58489e+06	8.42541
1.59404e+06	8.4254
1.60325e+06	8.42539
1.6125e+06	8.42538
1.62181e+06	8.42537
1.63117e+06	8.42536
1.64059e+06	8.42535
1.65006e+06	8.42534
1.65959e+06	8.42533
1.66917e+06	8.42532
1.6788e+06	8.42531
1.6885e+06	8.4253
1.69824e+06	8.42529
1.70805e+06	8.42528
1.71791e+06	8.42527
1.72783e+06	8.42526
1.7378e+06	8.42525
1.74783e+06	8.42524
1.75792e+06	8.42523
1.76807e+06	8.42522
1.77828e+06	8.42521
1.78855e+06	8.4252
1.79887e+06	8.42519
1.80926e+06	8.42518
1.8197e+06	8.42517
1.83021e+06	8.42516
1.84077e+06	8.42516
1.8514e+06	8.42515
1.86209e+06	8.42514
1.87284e+06	8.42513
1.88365e+06	8.42512
1.89452e+06	8.42511
1.90546e+06	8.4251
1.91646e+06	8.4251
1.92752e+06	8.42509
1.93865e+06	8.42508
1.94984e+06	8.42507
1.9611e+06	8.42506
1.97242e+06	8.42506
1.98381e+06	8.42505
1.99526e+06	8.42504
2.00678e+06	8.42503
2.01837e+06	8.42502
2.03002e+06	8.42502
2.04174e+06	8.42501
2.05353e+06	8.425
2.06538e+06	8.42499
2.0773e+06	8.42499
2.0893e+06	8.42498
2.10136e+06	8.42497
2.11349e+06	8.42496
2.12569e+06	8.42496
2.13796e+06	8.42495
2.1503e+06	8.42494
2.16272e+06	8.42494
2.1752e+06	8.42493
2.18776e+06	8.42492
2.20039e+06	8.42492
2.21309e+06	8.42491
2.22587e+06	8.4249
2.23872e+06	8.4249
2.25165e+06	8.42489
2.26464e+06	8.42488
2.27772e+06	8.42488
2.29087e+06	8.42487
2.30409e+06	8.42486
2.31739e+06	8.42486
2.33077e+06	8.42485
2.34423e+06	8.42485
2.35776e+06	8.42484
2.37137e+06	8.42483
2.38506e+06	8.42483
2.39883e+06	8.42482
2.41268e+06	8.42482
2.42661e+06	8.42481
2.44062e+06	8.4248
2.45471e+06	8.4248
2.46888e+06	8.42479
2.48313e+06	8.42479
2.49747e+06	8.42478
2.51189e+06	8.42478
2.52639e+06	8.42477
2.54097e+06	8.42476
2.55564e+06	8.42476
2.5704e+06	8.42475
2.58523e+06	8.42475
2.60016e+06	8.42474
2.61517e+06	8.42474
2.63027e+06	8.42473
2.64545e+06	8.42473
2.66073e+06	8.42472
2.67609e+06	8.42472
2.69153e+06	8.42471
2.70707e+06	8.42471
2.7227e+06	8.4247
2.73842e+06	8.4247
2.75423e+06	8.42469
2.77013e+06	8.42469
2.78612e+06	8.42468
2.80221e+06	8.42468
2.81838e+06	8.42467
2.83465e+06	8.42467
2.85102e+06	8.42466
2.86748e+06	8.42466
2.88403e+06	8.42466
2.90068e+06	8.42465
2.91743e+06	8.42465
2.93427e+06	8.42464
2.95121e+06	8.42464
2.96825e+06	8.42463
2.98538e+06	8.42463
3.00262e+06	8.42462
3.01995e+06	8.42462
3.03739e+06	8.42462
3.05492e+06	8.42461
3.07256e+06	8.42461
3.0903e+06	8.4246
3.10814e+06	8.4246
3.12608e+06	8.4246
3.14413e+06	8.42459
3.16228e+06	8.42459
3.18053e+06	8.42458
3.1989e+06	8.42458
3.21736e+06	8.42458
3.23594e+06	8.42457
3.25462e+06	8.42457
3.27341e+06	8.42456
3.2923e+06	8.42456
3.31131e+06	8.42456
3.33043e+06	8.42455
3.34965e+06	8.42455
3.36899e+06	8.42455
3.38844e+06	8.42454
3.408e+06	8.42454
3.42768e+06	8.42454
3.44747e+06	8.42453
3.46737e+06	8.42453
3.48739e+06	8.42452
3.50752e+06	8.42452
3.52777e+06	8.42452
3.54813e+06	8.42451
3.56862e+06	8.42451
3.58922e+06	8.42451
3.60994e+06	8.4245
3.63078e+06	8.4245
3.65174e+06	8.4245
3.67282e+06	8.42449
3.69403e+06	8.42449
3.71535e+06	8.42449
3.7368e+06	8.42449
3.75837e+06	8.42448
3.78007e+06	8.42448
3.80189e+06	8.42448
3.82384e+06	8.42447
3.84592e+06	8.42447
3.86812e+06	8.42447
3.89045e+06	8.42446
3.91291e+06	8.42446
3.9355e+06	8.42446
3.95822e+06	8.42445
3.98107e+06	8.42445
4.00405e+06	8.42445
4.02717e+06	8.42445
4.05042e+06	8.42444
4.0738e+06	8.42444
4.09732e+06	8.42444
4.12098e+06	8.42444
4.14477e+06	8.42443
4.16869e+06	8.42443
4.19276e+06	8.42443
4.21697e+06	8.42442
4.24131e+06	8.42442
4.2658e+06	8.42442
4.29042e+06	8.42442
4.31519e+06	8.42441
4.3401e+06	8.42441
4.36516e+06	8.42441
4.39036e+06	8.42441
4.4157e+06	8.4244
4.4412e+06	8.4244
4.46684e+06	8.4244
4.49262e+06	8.4244
4.51856e+06	8.42439
4.54465e+06	8.42439
4.57088e+06	8.42439
4.59727e+06	8.42439
4.62381e+06	8.42438
4.6505e+06	8.42438
4.67735e+06	8.42438
4.70435e+06	8.42438
4.73151e+06	8.42438
4.75883e+06	8.42437
4.7863e+06	8.42437
4.81393e+06	8.42437
4.84172e+06	8.42437
4.86968e+06	8.42436
4.89779e+06	8.42436
4.92606e+06	8.42436
4.9545e+06	8.42436
4.9831e+06	8.42436
5.01187e+06	8.42435
5.04081e+06	8.42435
5.06991e+06	8.42435
5.09918e+06	8.42435
5.12861e+06	8.42434
5.15822e+06	8.42434
5.188e+06	8.42434
5.21795e+06	8.42434
5.24807e+06	8.42434
5.27837e+06	8.42433
5.30884e+06	8.42433
5.33949e+06	8.42433
5.37032e+06	8.42433
5.40132e+06	8.42433
5.4325e+06	8.42433
5.46387e+06	8.42432
5.49541e+06	8.42432
5.52713e+06	8.42432
5.55904e+06	8.42432
5.59114e+06	8.42432
5.62341e+06	8.42431
5.65588e+06	8.42431
5.68853e+06	8.42431
5.72137e+06	8.42431
5.7544e+06	8.42431
5.78762e+06	8.42431
5.82103e+06	8.4243
5.85464e+06	8.4243
5.88844e+06	8.4243
5.92243e+06	8.4243
5.95662e+06	8.4243
5.99101e+06	8.42429
6.0256e+06	8.42429
6.06038e+06	8.42429
6.09537e+06	8.42429
6.13056e+06	8.42429
6.16595e+06	8.42429
6.20155e+06	8.42428
6.23735e+06	8.42428
6.27336e+06	8.42428
6.30957e+06	8.42428
6.346e+06	8.42428
6.38263e+06	8.42428
6.41948e+06	8.42428
6.45654e+06	8.42427
6.49382e+06	8.42427
6.53131e+06	8.42427
6.56901e+06	8.42427
6.60693e+06	8.42427
6.64508e+06	8.42427
6.68344e+06	8.42427
6.72202e+06	8.42426
6.76083e+06	8.42426
6.79986e+06	8.42426
6.83912e+06	8.42426
6.8786e+06	8.42426
6.91831e+06	8.42426
6.95825e+06	8.42426
6.99842e+06	8.42425
7.03882e+06	8.42425
7.07946e+06	8.42425
7.12033e+06	8.42425
7.16143e+06	8.42425
7.20278e+06	8.42425
7.24436e+06	8.42425
7.28618e+06	8.42424
7.32825e+06	8.42424
7.37055e+06	8.42424
7.4131e+06	8.42424
7.4559e+06	8.42424
7.49894e+06	8.42424
7.54223e+06	8.42424
7.58578e+06	8.42424
7.62957e+06	8.42423
7.67361e+06	8.42423
7.71792e+06	8.42423
7.76247e+06	8.42423
7.80728e+06	8.42423
7.85236e+06	8.42423
7.89769e+06	8.42423
7.94328e+06	8.42423
7.98914e+06	8.42422
8.03526e+06	8.42422
8.08165e+06	8.42422
8.12831e+06	8.42422
8.17523e+06	8.42422
8.22243e+06	8.42422
8.2699e+06	8.42422
8.31764e+06	8.42422
8.36566e+06	8.42422
8.41395e+06	8.42421
8.46253e+06	8.42421
8.51138e+06	8.42421
8.56052e+06	8.42421
8.60994e+06	8.42421
8.65964e+06	8.42421
8.70964e+06	8.42421
8.75992e+06	8.42421
8.81049e+06	8.42421
8.86135e+06	8.4242
8.91251e+06	8.4242
8.96396e+06	8.4242
9.01571e+06	8.4242
9.06776e+06	8.4242
9.12011e+06	8.4242
9.17276e+06	8.4242
9.22571e+06	8.4242
9.27897e+06	8.4242
9.33254e+06	8.4242
9.38642e+06	8.42419
9.44061e+06	8.42419
9.49511e+06	8.42419
9.54993e+06	8.42419
9.60506e+06	8.42419
9.66051e+06	8.42419
9.71628e+06	8.42419
9.77237e+06	8.42419
9.82879e+06	8.42419
9.88553e+06	8.42419
9.9426e+06	8.42419
1e+07	8.42418
