Stopping power dEdx from Ionisation for Ne20[0.0] Z = 10 in G4_TISSUE_SOFT_ICRP, process name: ionIoni
E [MeV]	dEdx [MeV/mm]
0.001	51.1662
0.00100577	51.3137
0.00101158	51.4616
0.00101742	51.6099
0.00102329	51.7586
0.0010292	51.9078
0.00103514	52.0575
0.00104112	52.2075
0.00104713	52.358
0.00105317	52.5089
0.00105925	52.6603
0.00106537	52.812
0.00107152	52.9643
0.00107771	53.1169
0.00108393	53.27
0.00109018	53.4236
0.00109648	53.5776
0.00110281	53.732
0.00110917	53.8869
0.00111558	54.0422
0.00112202	54.198
0.0011285	54.3542
0.00113501	54.5108
0.00114156	54.668
0.00114815	54.8255
0.00115478	54.9836
0.00116145	55.1421
0.00116815	55.301
0.0011749	55.4604
0.00118168	55.6203
0.0011885	55.7806
0.00119536	55.9413
0.00120226	56.1026
0.00120921	56.2643
0.00121619	56.4265
0.00122321	56.5891
0.00123027	56.7522
0.00123737	56.9158
0.00124451	57.0799
0.0012517	57.2444
0.00125893	57.4094
0.00126619	57.5749
0.0012735	57.7408
0.00128086	57.9072
0.00128825	58.0742
0.00129569	58.2416
0.00130317	58.4094
0.00131069	58.5778
0.00131826	58.7466
0.00132587	58.916
0.00133352	59.0858
0.00134122	59.2561
0.00134896	59.4269
0.00135675	59.5982
0.00136458	59.77
0.00137246	59.9422
0.00138038	60.115
0.00138835	60.2883
0.00139637	60.4621
0.00140443	60.6363
0.00141254	60.8111
0.00142069	60.9864
0.00142889	61.1622
0.00143714	61.3385
0.00144544	61.5153
0.00145378	61.6926
0.00146218	61.8704
0.00147062	62.0487
0.00147911	62.2276
0.00148765	62.4069
0.00149624	62.5868
0.00150487	62.7672
0.00151356	62.9481
0.0015223	63.1296
0.00153109	63.3115
0.00153993	63.494
0.00154882	63.6771
0.00155776	63.8606
0.00156675	64.0447
0.0015758	64.2293
0.00158489	64.4144
0.00159404	64.6001
0.00160325	64.7863
0.0016125	64.973
0.00162181	65.1603
0.00163117	65.3481
0.00164059	65.5365
0.00165006	65.7254
0.00165959	65.9148
0.00166917	66.1048
0.0016788	66.2953
0.0016885	66.4864
0.00169824	66.6781
0.00170805	66.8702
0.00171791	67.063
0.00172783	67.2563
0.0017378	67.4502
0.00174783	67.6446
0.00175792	67.8395
0.00176807	68.0351
0.00177828	68.2312
0.00178855	68.4279
0.00179887	68.6251
0.00180926	68.8229
0.0018197	69.0213
0.00183021	69.2202
0.00184077	69.4197
0.0018514	69.6198
0.00186209	69.8205
0.00187284	70.0217
0.00188365	70.2236
0.00189452	70.426
0.00190546	70.629
0.00191646	70.8326
0.00192752	71.0367
0.00193865	71.2415
0.00194984	71.4468
0.0019611	71.6528
0.00197242	71.8593
0.00198381	72.0664
0.00199526	72.2741
0.00200678	72.4825
0.00201837	72.6914
0.00203002	72.9009
0.00204174	73.111
0.00205353	73.3218
0.00206538	73.5331
0.0020773	73.7451
0.0020893	73.9576
0.00210136	74.1708
0.00211349	74.3846
0.00212569	74.599
0.00213796	74.814
0.0021503	75.0297
0.00216272	75.2459
0.0021752	75.4628
0.00218776	75.6803
0.00220039	75.8985
0.00221309	76.1172
0.00222587	76.3366
0.00223872	76.5567
0.00225165	76.7773
0.00226464	76.9986
0.00227772	77.2206
0.00229087	77.4431
0.00230409	77.6664
0.00231739	77.8902
0.00233077	78.1147
0.00234423	78.3399
0.00235776	78.5657
0.00237137	78.7921
0.00238506	79.0193
0.00239883	79.247
0.00241268	79.4754
0.00242661	79.7045
0.00244062	79.9343
0.00245471	80.1647
0.00246888	80.3957
0.00248313	80.6275
0.00249747	80.8599
0.00251189	81.0929
0.00252639	81.3267
0.00254097	81.5611
0.00255564	81.7962
0.0025704	82.0319
0.00258523	82.2684
0.00260016	82.5055
0.00261517	82.7433
0.00263027	82.9818
0.00264545	83.221
0.00266073	83.4609
0.00267609	83.7014
0.00269153	83.9427
0.00270707	84.1847
0.0027227	84.4273
0.00273842	84.6707
0.00275423	84.9147
0.00277013	85.1595
0.00278612	85.4049
0.00280221	85.6511
0.00281838	85.898
0.00283465	86.1456
0.00285102	86.3939
0.00286748	86.6429
0.00288403	86.8926
0.00290068	87.1431
0.00291743	87.3943
0.00293427	87.6462
0.00295121	87.8988
0.00296825	88.1522
0.00298538	88.4062
0.00300262	88.6611
0.00301995	88.9166
0.00303739	89.1729
0.00305492	89.4299
0.00307256	89.6877
0.0030903	89.9462
0.00310814	90.2055
0.00312608	90.4655
0.00314413	90.7262
0.00316228	90.9878
0.00318053	91.25
0.0031989	91.513
0.00321736	91.7768
0.00323594	92.0413
0.00325462	92.3066
0.00327341	92.5727
0.0032923	92.8395
0.00331131	93.1071
0.00333043	93.3755
0.00334965	93.6446
0.00336899	93.9146
0.00338844	94.1853
0.003408	94.4567
0.00342768	94.729
0.00344747	95.002
0.00346737	95.2759
0.00348739	95.5505
0.00350752	95.8259
0.00352777	96.1021
0.00354813	96.3791
0.00356862	96.6569
0.00358922	96.9355
0.00360994	97.2149
0.00363078	97.4951
0.00365174	97.7762
0.00367282	98.058
0.00369403	98.3406
0.00371535	98.6241
0.0037368	98.9083
0.00375837	99.1934
0.00378007	99.4794
0.00380189	99.7661
0.00382384	100.054
0.00384592	100.342
0.00386812	100.631
0.00389045	100.921
0.00391291	101.212
0.0039355	101.504
0.00395822	101.797
0.00398107	102.09
0.00400405	102.384
0.00402717	102.679
0.00405042	102.975
0.0040738	103.272
0.00409732	103.57
0.00412098	103.868
0.00414477	104.168
0.00416869	104.468
0.00419276	104.769
0.00421697	105.071
0.00424131	105.374
0.0042658	105.678
0.00429042	105.982
0.00431519	106.288
0.0043401	106.594
0.00436516	106.901
0.00439036	107.209
0.0044157	107.518
0.0044412	107.828
0.00446684	108.139
0.00449262	108.451
0.00451856	108.763
0.00454465	109.077
0.00457088	109.391
0.00459727	109.707
0.00462381	110.023
0.0046505	110.34
0.00467735	110.658
0.00470435	110.977
0.00473151	111.297
0.00475883	111.618
0.0047863	111.939
0.00481393	112.262
0.00484172	112.586
0.00486968	112.91
0.00489779	113.236
0.00492606	113.562
0.0049545	113.889
0.0049831	114.218
0.00501187	114.542
0.00504081	114.864
0.00506991	115.187
0.00509918	115.511
0.00512861	115.836
0.00515822	116.162
0.005188	116.489
0.00521795	116.817
0.00524807	117.146
0.00527837	117.475
0.00530884	117.806
0.00533949	118.137
0.00537032	118.47
0.00540132	118.803
0.0054325	119.138
0.00546387	119.473
0.00549541	119.81
0.00552713	120.147
0.00555904	120.485
0.00559114	120.825
0.00562341	121.165
0.00565588	121.506
0.00568853	121.848
0.00572137	122.192
0.0057544	122.536
0.00578762	122.881
0.00582103	123.227
0.00585464	123.574
0.00588844	123.923
0.00592243	124.272
0.00595662	124.622
0.00599101	124.973
0.0060256	125.325
0.00606038	125.679
0.00609537	126.033
0.00613056	126.388
0.00616595	126.744
0.00620155	127.102
0.00623735	127.46
0.00627336	127.82
0.00630957	128.18
0.006346	128.541
0.00638263	128.904
0.00641948	129.268
0.00645654	129.632
0.00649382	129.998
0.00653131	130.365
0.00656901	130.732
0.00660693	131.101
0.00664508	131.471
0.00668344	131.842
0.00672202	132.214
0.00676083	132.587
0.00679986	132.961
0.00683912	133.337
0.0068786	133.713
0.00691831	134.09
0.00695825	134.469
0.00699842	134.849
0.00703882	135.229
0.00707946	135.611
0.00712033	135.994
0.00716143	136.378
0.00720278	136.763
0.00724436	137.15
0.00728618	137.537
0.00732825	137.925
0.00737055	138.315
0.0074131	138.706
0.0074559	139.098
0.00749894	139.491
0.00754223	139.885
0.00758578	140.28
0.00762957	140.677
0.00767361	141.074
0.00771792	141.473
0.00776247	141.873
0.00780728	142.274
0.00785236	142.676
0.00789769	143.079
0.00794328	143.484
0.00798914	143.89
0.00803526	144.297
0.00808165	144.705
0.00812831	145.114
0.00817523	145.524
0.00822243	145.936
0.0082699	146.349
0.00831764	146.763
0.00836566	147.178
0.00841395	147.594
0.00846253	148.012
0.00851138	148.431
0.00856052	148.851
0.00860994	149.272
0.00865964	149.694
0.00870964	150.118
0.00875992	150.543
0.00881049	150.969
0.00886135	151.397
0.00891251	151.825
0.00896396	152.255
0.00901571	152.686
0.00906776	153.119
0.00912011	153.552
0.00917276	153.987
0.00922571	154.423
0.00927897	154.861
0.00933254	155.299
0.00938642	155.739
0.00944061	156.18
0.00949511	156.623
0.00954993	157.067
0.00960506	157.512
0.00966051	157.958
0.00971628	158.406
0.00977237	158.855
0.00982879	159.305
0.00988553	159.757
0.0099426	160.209
0.01	160.664
0.0100577	161.119
0.0101158	161.576
0.0101742	162.034
0.0102329	162.494
0.010292	162.954
0.0103514	163.417
0.0104112	163.88
0.0104713	164.345
0.0105317	164.811
0.0105925	165.279
0.0106537	165.747
0.0107152	166.218
0.0107771	166.689
0.0108393	167.162
0.0109018	167.637
0.0109648	168.113
0.0110281	168.59
0.0110917	169.068
0.0111558	169.548
0.0112202	170.029
0.011285	170.512
0.0113501	170.996
0.0114156	171.482
0.0114815	171.969
0.0115478	172.457
0.0116145	172.947
0.0116815	173.438
0.011749	173.931
0.0118168	174.425
0.011885	174.92
0.0119536	175.417
0.0120226	175.916
0.0120921	176.415
0.0121619	176.917
0.0122321	177.419
0.0123027	177.924
0.0123737	178.429
0.0124451	178.936
0.012517	179.445
0.0125893	179.955
0.0126619	180.467
0.012735	180.98
0.0128086	181.494
0.0128825	182.011
0.0129569	182.528
0.0130317	183.047
0.0131069	183.568
0.0131826	184.09
0.0132587	184.614
0.0133352	185.139
0.0134122	185.665
0.0134896	186.194
0.0135675	186.723
0.0136458	187.255
0.0137246	187.788
0.0138038	188.322
0.0138835	188.858
0.0139637	189.396
0.0140443	189.935
0.0141254	190.475
0.0142069	191.018
0.0142889	191.561
0.0143714	192.107
0.0144544	192.654
0.0145378	193.202
0.0146218	193.753
0.0147062	194.304
0.0147911	194.858
0.0148765	195.413
0.0149624	195.97
0.0150487	196.528
0.0151356	197.088
0.015223	197.649
0.0153109	198.212
0.0153993	198.777
0.0154882	199.344
0.0155776	199.912
0.0156675	200.482
0.015758	201.053
0.0158489	201.626
0.0159404	202.201
0.0160325	202.777
0.016125	203.356
0.0162181	203.935
0.0163117	204.517
0.0164059	205.1
0.0165006	205.685
0.0165959	206.272
0.0166917	206.86
0.016788	207.45
0.016885	208.042
0.0169824	208.636
0.0170805	209.231
0.0171791	209.828
0.0172783	210.427
0.017378	211.027
0.0174783	211.629
0.0175792	212.233
0.0176807	212.839
0.0177828	213.447
0.0178855	214.056
0.0179887	214.667
0.0180926	215.28
0.018197	215.895
0.0183021	216.511
0.0184077	217.129
0.018514	217.75
0.0186209	218.372
0.0187284	218.995
0.0188365	219.621
0.0189452	220.248
0.0190546	220.877
0.0191646	221.509
0.0192752	222.141
0.0193865	222.776
0.0194984	223.413
0.019611	224.051
0.0197242	224.692
0.0198381	225.334
0.0199526	225.978
0.0200678	226.276
0.0201837	226.426
0.0203002	226.579
0.0204174	226.733
0.0205353	226.888
0.0206538	227.045
0.020773	227.204
0.020893	227.364
0.0210136	227.526
0.0211349	227.689
0.0212569	227.854
0.0213796	228.02
0.021503	228.187
0.0216272	228.356
0.021752	228.526
0.0218776	228.698
0.0220039	228.871
0.0221309	229.045
0.0222587	229.221
0.0223872	229.397
0.0225165	229.575
0.0226464	229.755
0.0227772	229.935
0.0229087	230.117
0.0230409	230.3
0.0231739	230.485
0.0233077	230.67
0.0234423	230.857
0.0235776	231.044
0.0237137	231.233
0.0238506	231.423
0.0239883	231.615
0.0241268	231.807
0.0242661	232
0.0244062	232.195
0.0245471	232.39
0.0246888	232.587
0.0248313	232.784
0.0249747	232.983
0.0251189	233.183
0.0252639	233.383
0.0254097	233.585
0.0255564	233.788
0.025704	233.992
0.0258523	234.196
0.0260016	234.402
0.0261517	234.609
0.0263027	234.816
0.0264545	235.025
0.0266073	235.234
0.0267609	235.444
0.0269153	235.656
0.0270707	235.868
0.027227	236.081
0.0273842	236.295
0.0275423	236.51
0.0277013	236.726
0.0278612	236.942
0.0280221	237.16
0.0281838	237.378
0.0283465	237.598
0.0285102	237.818
0.0286748	238.039
0.0288403	238.26
0.0290068	238.483
0.0291743	238.707
0.0293427	238.931
0.0295121	239.156
0.0296825	239.382
0.0298538	239.609
0.0300262	239.836
0.0301995	240.065
0.0303739	240.294
0.0305492	240.524
0.0307256	240.755
0.030903	240.986
0.0310814	241.219
0.0312608	241.452
0.0314413	241.686
0.0316228	241.921
0.0318053	242.156
0.031989	242.393
0.0321736	242.63
0.0323594	242.868
0.0325462	243.106
0.0327341	243.346
0.032923	243.586
0.0331131	243.827
0.0333043	244.069
0.0334965	244.311
0.0336899	244.554
0.0338844	244.798
0.03408	245.043
0.0342768	245.289
0.0344747	245.535
0.0346737	245.782
0.0348739	246.03
0.0350752	246.279
0.0352777	246.528
0.0354813	246.778
0.0356862	247.029
0.0358922	247.281
0.0360994	247.534
0.0363078	247.787
0.0365174	248.041
0.0367282	248.296
0.0369403	248.551
0.0371535	248.808
0.037368	249.065
0.0375837	249.323
0.0378007	249.581
0.0380189	249.841
0.0382384	250.101
0.0384592	250.362
0.0386812	250.624
0.0389045	250.887
0.0391291	251.15
0.039355	251.414
0.0395822	251.679
0.0398107	251.945
0.0400405	252.212
0.0402717	252.479
0.0405042	252.747
0.040738	253.016
0.0409732	253.286
0.0412098	253.557
0.0414477	253.828
0.0416869	254.1
0.0419276	254.373
0.0421697	254.647
0.0424131	254.922
0.042658	255.198
0.0429042	255.474
0.0431519	255.751
0.043401	256.029
0.0436516	256.308
0.0439036	256.588
0.044157	256.869
0.044412	257.15
0.0446684	257.433
0.0449262	257.716
0.0451856	258
0.0454465	258.285
0.0457088	258.571
0.0459727	258.858
0.0462381	259.145
0.046505	259.434
0.0467735	259.723
0.0470435	260.014
0.0473151	260.305
0.0475883	260.597
0.047863	260.89
0.0481393	261.184
0.0484172	261.479
0.0486968	261.775
0.0489779	262.072
0.0492606	262.369
0.049545	262.668
0.049831	262.968
0.0501187	263.268
0.0504081	263.57
0.0506991	263.872
0.0509918	264.176
0.0512861	264.48
0.0515822	264.786
0.05188	265.092
0.0521795	265.4
0.0524807	265.708
0.0527837	266.018
0.0530884	266.328
0.0533949	266.64
0.0537032	266.952
0.0540132	267.266
0.054325	267.58
0.0546387	267.896
0.0549541	268.213
0.0552713	268.531
0.0555904	268.849
0.0559114	269.169
0.0562341	269.49
0.0565588	269.812
0.0568853	270.135
0.0572137	270.459
0.057544	270.785
0.0578762	271.111
0.0582103	271.439
0.0585464	271.767
0.0588844	272.097
0.0592243	272.428
0.0595662	272.76
0.0599101	273.093
0.060256	273.427
0.0606038	273.763
0.0609537	274.099
0.0613056	274.437
0.0616595	274.776
0.0620155	275.116
0.0623735	275.457
0.0627336	275.8
0.0630957	276.144
0.06346	276.488
0.0638263	276.835
0.0641948	277.182
0.0645654	277.531
0.0649382	277.88
0.0653131	278.231
0.0656901	278.584
0.0660693	278.937
0.0664508	279.292
0.0668344	279.648
0.0672202	280.005
0.0676083	280.364
0.0679986	280.724
0.0683912	281.085
0.068786	281.448
0.0691831	281.811
0.0695825	282.176
0.0699842	282.543
0.0703882	282.911
0.0707946	283.28
0.0712033	283.65
0.0716143	284.022
0.0720278	284.395
0.0724436	284.77
0.0728618	285.146
0.0732825	285.523
0.0737055	285.901
0.074131	286.281
0.074559	286.663
0.0749894	287.046
0.0754223	287.43
0.0758578	287.816
0.0762957	288.203
0.0767361	288.591
0.0771792	288.981
0.0776247	289.373
0.0780728	289.766
0.0785236	290.16
0.0789769	290.556
0.0794328	290.953
0.0798914	291.352
0.0803526	291.752
0.0808165	292.154
0.0812831	292.557
0.0817523	292.962
0.0822243	293.368
0.082699	293.776
0.0831764	294.185
0.0836566	294.596
0.0841395	295.009
0.0846253	295.423
0.0851138	295.838
0.0856052	296.255
0.0860994	296.674
0.0865964	297.094
0.0870964	297.516
0.0875992	297.94
0.0881049	298.365
0.0886135	298.792
0.0891251	299.22
0.0896396	299.65
0.0901571	300.081
0.0906776	300.515
0.0912011	300.95
0.0917276	301.386
0.0922571	301.824
0.0927897	302.264
0.0933254	302.706
0.0938642	303.149
0.0944061	303.594
0.0949511	304.041
0.0954993	304.489
0.0960506	304.939
0.0966051	305.391
0.0971628	305.844
0.0977237	306.299
0.0982879	306.756
0.0988553	307.215
0.099426	307.676
0.1	308.138
0.100577	308.602
0.101158	309.068
0.101742	309.535
0.102329	310.005
0.10292	310.476
0.103514	310.949
0.104112	311.424
0.104713	311.9
0.105317	312.379
0.105925	312.859
0.106537	313.341
0.107152	313.825
0.107771	314.311
0.108393	314.798
0.109018	315.288
0.109648	315.779
0.110281	316.273
0.110917	316.768
0.111558	317.265
0.112202	317.764
0.11285	318.265
0.113501	318.768
0.114156	319.273
0.114815	319.779
0.115478	320.288
0.116145	320.799
0.116815	321.311
0.11749	321.826
0.118168	322.342
0.11885	322.861
0.119536	323.381
0.120226	323.903
0.120921	324.428
0.121619	324.954
0.122321	325.483
0.123027	326.013
0.123737	326.546
0.124451	327.08
0.12517	327.617
0.125893	328.155
0.126619	328.696
0.12735	329.239
0.128086	329.783
0.128825	330.33
0.129569	330.879
0.130317	331.43
0.131069	331.983
0.131826	332.538
0.132587	333.096
0.133352	333.655
0.134122	334.217
0.134896	334.78
0.135675	335.346
0.136458	335.914
0.137246	336.484
0.138038	337.056
0.138835	337.63
0.139637	338.207
0.140443	338.786
0.141254	339.366
0.142069	339.949
0.142889	340.535
0.143714	341.122
0.144544	341.712
0.145378	342.304
0.146218	342.898
0.147062	343.494
0.147911	344.092
0.148765	344.693
0.149624	345.296
0.150487	345.901
0.151356	346.509
0.15223	347.119
0.153109	347.731
0.153993	348.345
0.154882	348.961
0.155776	349.58
0.156675	350.201
0.15758	350.825
0.158489	351.45
0.159404	352.078
0.160325	352.709
0.16125	353.341
0.162181	353.976
0.163117	354.614
0.164059	355.253
0.165006	355.895
0.165959	356.539
0.166917	357.186
0.16788	357.835
0.16885	358.486
0.169824	359.14
0.170805	359.796
0.171791	360.455
0.172783	361.116
0.17378	361.779
0.174783	362.445
0.175792	363.113
0.176807	363.783
0.177828	364.456
0.178855	365.132
0.179887	365.809
0.180926	366.489
0.18197	367.172
0.183021	367.857
0.184077	368.545
0.18514	369.234
0.186209	369.927
0.187284	370.622
0.188365	371.319
0.189452	372.019
0.190546	372.721
0.191646	373.426
0.192752	374.133
0.193865	374.843
0.194984	375.555
0.19611	376.269
0.197242	376.987
0.198381	377.706
0.199526	378.429
0.200678	379.153
0.201837	379.88
0.203002	380.61
0.204174	381.342
0.205353	382.077
0.206538	382.815
0.20773	383.554
0.20893	384.297
0.210136	385.042
0.211349	385.789
0.212569	386.539
0.213796	387.292
0.21503	388.047
0.216272	388.805
0.21752	389.565
0.218776	390.328
0.220039	391.094
0.221309	391.862
0.222587	392.632
0.223872	393.405
0.225165	394.181
0.226464	394.96
0.227772	395.74
0.229087	396.524
0.230409	397.31
0.231739	398.099
0.233077	398.89
0.234423	399.684
0.235776	400.481
0.237137	401.28
0.238506	402.082
0.239883	402.886
0.241268	403.693
0.242661	404.503
0.244062	405.315
0.245471	406.13
0.246888	406.948
0.248313	407.768
0.249747	408.59
0.251189	409.416
0.252639	410.244
0.254097	411.074
0.255564	411.908
0.25704	412.744
0.258523	413.582
0.260016	414.423
0.261517	415.267
0.263027	416.114
0.264545	416.963
0.266073	417.815
0.267609	418.669
0.269153	419.526
0.270707	420.386
0.27227	421.248
0.273842	422.113
0.275423	422.981
0.277013	423.851
0.278612	424.724
0.280221	425.599
0.281838	426.477
0.283465	427.358
0.285102	428.241
0.286748	429.127
0.288403	430.016
0.290068	430.907
0.291743	431.801
0.293427	432.698
0.295121	433.597
0.296825	434.499
0.298538	435.403
0.300262	436.31
0.301995	437.22
0.303739	438.132
0.305492	439.047
0.307256	439.965
0.30903	440.885
0.310814	441.808
0.312608	442.733
0.314413	443.661
0.316228	444.591
0.318053	445.524
0.31989	446.46
0.321736	447.398
0.323594	448.339
0.325462	449.283
0.327341	450.229
0.32923	451.177
0.331131	452.646
0.333043	454.345
0.334965	456.055
0.336899	457.775
0.338844	459.508
0.3408	461.251
0.342768	463.006
0.344747	464.772
0.346737	466.55
0.348739	468.34
0.350752	470.142
0.352777	471.955
0.354813	473.78
0.356862	475.618
0.358922	477.467
0.360994	479.329
0.363078	481.203
0.365174	483.09
0.367282	484.989
0.369403	486.9
0.371535	488.825
0.37368	490.762
0.375837	492.712
0.378007	494.676
0.380189	496.652
0.382384	498.642
0.384592	500.645
0.386812	502.661
0.389045	504.691
0.391291	506.735
0.39355	508.793
0.395822	510.864
0.398107	512.949
0.400405	515.049
0.402717	517.163
0.405042	519.291
0.40738	521.433
0.409732	523.59
0.412098	525.762
0.414477	527.949
0.416869	530.15
0.419276	532.367
0.421697	534.598
0.424131	536.845
0.42658	539.107
0.429042	541.385
0.431519	543.679
0.43401	545.988
0.436516	548.313
0.439036	550.655
0.44157	553.012
0.44412	555.386
0.446684	557.776
0.449262	560.182
0.451856	562.606
0.454465	565.046
0.457088	567.503
0.459727	569.977
0.462381	572.469
0.46505	574.977
0.467735	577.504
0.470435	580.048
0.473151	582.61
0.475883	585.189
0.47863	587.787
0.481393	590.403
0.484172	593.038
0.486968	595.691
0.489779	598.363
0.492606	601.053
0.49545	603.763
0.49831	606.492
0.501187	609.24
0.504081	611.738
0.506991	614.105
0.509918	616.484
0.512861	618.875
0.515822	621.278
0.5188	623.693
0.521795	626.12
0.524807	628.558
0.527837	631.009
0.530884	633.472
0.533949	635.947
0.537032	638.434
0.540132	640.933
0.54325	643.444
0.546387	645.967
0.549541	648.503
0.552713	651.051
0.555904	653.611
0.559114	656.183
0.562341	658.768
0.565588	661.365
0.568853	663.975
0.572137	666.597
0.57544	669.232
0.578762	671.878
0.582103	674.538
0.585464	677.21
0.588844	679.894
0.592243	682.591
0.595662	685.301
0.599101	688.023
0.60256	690.758
0.606038	693.506
0.609537	696.266
0.613056	699.039
0.616595	701.825
0.620155	704.623
0.623735	707.434
0.627336	710.258
0.630957	713.095
0.6346	715.945
0.638263	718.807
0.641948	721.683
0.645654	724.571
0.649382	727.472
0.653131	730.386
0.656901	733.313
0.660693	736.253
0.664508	739.205
0.668344	742.171
0.672202	745.15
0.676083	748.141
0.679986	751.146
0.683912	754.163
0.68786	757.194
0.691831	760.238
0.695825	763.294
0.699842	766.364
0.703882	769.446
0.707946	772.542
0.712033	775.651
0.716143	778.772
0.720278	781.907
0.724436	785.055
0.728618	788.216
0.732825	791.389
0.737055	794.576
0.74131	797.776
0.74559	800.989
0.749894	804.215
0.754223	807.453
0.758578	810.705
0.762957	813.97
0.767361	817.248
0.771792	820.538
0.776247	823.842
0.780728	827.159
0.785236	830.488
0.789769	833.831
0.794328	837.186
0.798914	840.554
0.803526	843.935
0.808165	847.329
0.812831	850.736
0.817523	854.155
0.822243	857.588
0.82699	861.033
0.831764	864.491
0.836566	867.961
0.841395	871.444
0.846253	874.94
0.851138	878.448
0.856052	881.969
0.860994	885.503
0.865964	889.049
0.870964	892.607
0.875992	896.178
0.881049	899.761
0.886135	903.357
0.891251	906.965
0.896396	910.585
0.901571	914.218
0.906776	917.862
0.912011	921.519
0.917276	925.188
0.922571	928.2
0.927897	931.885
0.933254	935.582
0.938642	939.29
0.944061	943.011
0.949511	946.743
0.954993	950.486
0.960506	954.241
0.966051	958.008
0.971628	961.786
0.977237	965.576
0.982879	969.377
0.988553	973.189
0.99426	977.012
1	980.846
1.00577	984.692
1.01158	988.548
1.01742	992.415
1.02329	996.293
1.0292	1000.18
1.03514	1004.08
1.04112	1007.99
1.04713	1011.91
1.05317	1015.84
1.05925	1019.78
1.06537	1023.73
1.07152	1027.7
1.07771	1031.67
1.08393	1035.65
1.09018	1039.64
1.09648	1043.64
1.10281	1047.65
1.10917	1051.67
1.11558	1055.7
1.12202	1059.74
1.1285	1063.79
1.13501	1067.84
1.14156	1071.91
1.14815	1075.98
1.15478	1080.07
1.16145	1084.16
1.16815	1088.26
1.1749	1092.37
1.18168	1096.49
1.1885	1100.61
1.19536	1104.75
1.20226	1108.89
1.20921	1113.04
1.21619	1117.19
1.22321	1121.36
1.23027	1125.53
1.23737	1129.71
1.24451	1133.89
1.2517	1138.09
1.25893	1142.29
1.26619	1146.49
1.2735	1150.71
1.28086	1154.93
1.28825	1159.15
1.29569	1163.38
1.30317	1167.62
1.31069	1171.86
1.31826	1176.11
1.32587	1180.37
1.33352	1184.62
1.34122	1188.89
1.34896	1193.16
1.35675	1197.43
1.36458	1201.71
1.37246	1205.99
1.38038	1210.28
1.38835	1214.57
1.39637	1218.87
1.40443	1223.17
1.41254	1227.47
1.42069	1231.77
1.42889	1236.08
1.43714	1240.39
1.44544	1244.71
1.45378	1249.03
1.46218	1253.35
1.47062	1257.67
1.47911	1261.99
1.48765	1266.32
1.49624	1270.64
1.50487	1274.97
1.51356	1279.3
1.5223	1283.63
1.53109	1287.96
1.53993	1292.29
1.54882	1296.63
1.55776	1300.96
1.56675	1305.29
1.5758	1309.62
1.58489	1313.96
1.59404	1318.29
1.60325	1322.62
1.6125	1326.94
1.62181	1331.27
1.63117	1335.6
1.64059	1339.92
1.65006	1344.24
1.65959	1348.56
1.66917	1352.88
1.6788	1357.19
1.6885	1361.5
1.69824	1365.81
1.70805	1370.11
1.71791	1374.42
1.72783	1378.71
1.7378	1383
1.74783	1387.29
1.75792	1391.58
1.76807	1395.85
1.77828	1400.13
1.78855	1404.39
1.79887	1408.66
1.80926	1412.91
1.8197	1417.16
1.83021	1421.41
1.84077	1425.64
1.8514	1429.87
1.86209	1434.09
1.87284	1438.31
1.88365	1442.52
1.89452	1446.72
1.90546	1450.91
1.91646	1455.09
1.92752	1459.27
1.93865	1463.43
1.94984	1467.59
1.9611	1471.73
1.97242	1475.87
1.98381	1480
1.99526	1484.11
2.00678	1488.22
2.01837	1492.31
2.03002	1496.4
2.04174	1500.47
2.05353	1504.53
2.06538	1508.58
2.0773	1512.62
2.0893	1516.64
2.10136	1520.65
2.11349	1524.65
2.12569	1528.64
2.13796	1532.61
2.1503	1536.57
2.16272	1540.51
2.1752	1544.44
2.18776	1548.36
2.20039	1552.26
2.21309	1556.14
2.22587	1560.01
2.23872	1563.87
2.25165	1567.7
2.26464	1571.53
2.27772	1575.33
2.29087	1579.12
2.30409	1582.9
2.31739	1586.65
2.33077	1590.39
2.34423	1594.11
2.35776	1597.81
2.37137	1601.5
2.38506	1605.16
2.39883	1608.81
2.41268	1612.44
2.42661	1616.05
2.44062	1619.64
2.45471	1623.21
2.46888	1626.76
2.48313	1630.28
2.49747	1633.79
2.51189	1637.28
2.52639	1640.75
2.54097	1644.2
2.55564	1647.62
2.5704	1651.02
2.58523	1654.4
2.60016	1657.76
2.61517	1661.1
2.63027	1664.41
2.64545	1667.7
2.66073	1670.97
2.67609	1674.22
2.69153	1677.44
2.70707	1680.63
2.7227	1683.81
2.73842	1686.96
2.75423	1690.08
2.77013	1693.18
2.78612	1696.26
2.80221	1699.31
2.81838	1702.33
2.83465	1705.33
2.85102	1708.3
2.86748	1711.25
2.88403	1714.17
2.90068	1717.07
2.91743	1719.94
2.93427	1722.78
2.95121	1725.59
2.96825	1728.38
2.98538	1731.14
3.00262	1733.88
3.01995	1736.58
3.03739	1739.26
3.05492	1741.91
3.07256	1744.53
3.0903	1747.13
3.10814	1749.69
3.12608	1752.23
3.14413	1754.74
3.16228	1757.22
3.18053	1759.67
3.1989	1762.09
3.21736	1764.48
3.23594	1766.85
3.25462	1769.18
3.27341	1771.48
3.2923	1773.75
3.31131	1776
3.33043	1778.21
3.34965	1780.39
3.36899	1782.55
3.38844	1784.67
3.408	1786.76
3.42768	1788.82
3.44747	1790.85
3.46737	1792.85
3.48739	1794.82
3.50752	1796.75
3.52777	1798.66
3.54813	1800.54
3.56862	1802.38
3.58922	1804.19
3.60994	1805.97
3.63078	1807.72
3.65174	1809.44
3.67282	1811.12
3.69403	1812.78
3.71535	1814.4
3.7368	1815.99
3.75837	1817.55
3.78007	1819.07
3.80189	1820.57
3.82384	1822.03
3.84592	1823.46
3.86812	1824.86
3.89045	1826.23
3.91291	1827.56
3.9355	1828.86
3.95822	1830.13
3.98107	1831.37
4.00405	1832.58
4.02717	1833.75
4.05042	1834.89
4.0738	1836
4.09732	1837.08
4.12098	1838.12
4.14477	1839.13
4.16869	1840.11
4.19276	1841.06
4.21697	1841.98
4.24131	1842.86
4.2658	1843.71
4.29042	1844.53
4.31519	1845.32
4.3401	1846.08
4.36516	1846.8
4.39036	1847.5
4.4157	1848.16
4.4412	1848.79
4.46684	1849.38
4.49262	1849.95
4.51856	1850.48
4.54465	1850.99
4.57088	1851.46
4.59727	1851.9
4.62381	1852.31
4.6505	1852.69
4.67735	1853.04
4.70435	1853.35
4.73151	1853.64
4.75883	1853.89
4.7863	1854.12
4.81393	1854.31
4.84172	1854.47
4.86968	1854.61
4.89779	1854.71
4.92606	1854.78
4.9545	1854.83
4.9831	1854.84
5.01187	1854.82
5.04081	1854.78
5.06991	1854.7
5.09918	1854.59
5.12861	1854.46
5.15822	1854.3
5.188	1854.1
5.21795	1853.88
5.24807	1853.63
5.27837	1853.36
5.30884	1853.05
5.33949	1852.71
5.37032	1852.35
5.40132	1851.96
5.4325	1851.54
5.46387	1851.1
5.49541	1850.62
5.52713	1850.12
5.55904	1849.6
5.59114	1849.04
5.62341	1848.46
5.65588	1847.85
5.68853	1847.22
5.72137	1846.56
5.7544	1845.87
5.78762	1845.16
5.82103	1844.42
5.85464	1843.66
5.88844	1842.87
5.92243	1842.06
5.95662	1841.22
5.99101	1840.36
6.0256	1839.47
6.06038	1838.56
6.09537	1837.62
6.13056	1836.66
6.16595	1835.68
6.20155	1834.67
6.23735	1833.64
6.27336	1832.59
6.30957	1831.51
6.346	1830.41
6.38263	1829.29
6.41948	1828.15
6.45654	1826.98
6.49382	1825.8
6.53131	1824.59
6.56901	1823.36
6.60693	1818.4
6.64508	1817.18
6.68344	1815.94
6.72202	1814.67
6.76083	1813.39
6.79986	1812.08
6.83912	1810.75
6.8786	1809.41
6.91831	1808.04
6.95825	1806.65
6.99842	1805.25
7.03882	1803.82
7.07946	1802.38
7.12033	1800.91
7.16143	1799.43
7.20278	1797.93
7.24436	1796.41
7.28618	1794.87
7.32825	1793.32
7.37055	1791.74
7.4131	1790.15
7.4559	1788.55
7.49894	1786.92
7.54223	1785.28
7.58578	1783.62
7.62957	1781.95
7.67361	1780.26
7.71792	1778.56
7.76247	1776.83
7.80728	1775.1
7.85236	1773.35
7.89769	1771.58
7.94328	1769.8
7.98914	1768
8.03526	1766.19
8.08165	1764.37
8.12831	1762.53
8.17523	1760.68
8.22243	1758.81
8.2699	1756.94
8.31764	1755.04
8.36566	1753.14
8.41395	1751.22
8.46253	1749.29
8.51138	1747.35
8.56052	1745.4
8.60994	1743.44
8.65964	1741.46
8.70964	1739.47
8.75992	1737.47
8.81049	1735.46
8.86135	1733.44
8.91251	1731.41
8.96396	1729.37
9.01571	1727.32
9.06776	1725.25
9.12011	1723.18
9.17276	1721.1
9.22571	1719.01
9.27897	1716.91
9.33254	1714.8
9.38642	1712.68
9.44061	1710.56
9.49511	1708.42
9.54993	1706.28
9.60506	1704.13
9.66051	1701.97
9.71628	1699.8
9.77237	1697.63
9.82879	1695.44
9.88553	1693.25
9.9426	1691.06
10	1688.85
10.0577	1686.64
10.1158	1684.43
10.1742	1682.21
10.2329	1679.98
10.292	1677.74
10.3514	1675.5
10.4112	1673.25
10.4713	1671
10.5317	1668.74
10.5925	1666.48
10.6537	1664.21
10.7152	1661.94
10.7771	1659.66
10.8393	1657.37
10.9018	1655.08
10.9648	1652.79
11.0281	1650.5
11.0917	1648.19
11.1558	1645.89
11.2202	1643.58
11.285	1641.27
11.3501	1638.95
11.4156	1636.63
11.4815	1634.31
11.5478	1631.98
11.6145	1629.65
11.6815	1627.32
11.749	1624.98
11.8168	1622.64
11.885	1620.3
11.9536	1617.95
12.0226	1615.61
12.0921	1613.26
12.1619	1610.91
12.2321	1608.55
12.3027	1606.19
12.3737	1603.84
12.4451	1601.48
12.517	1599.11
12.5893	1596.75
12.6619	1594.38
12.735	1592.02
12.8086	1589.65
12.8825	1587.28
12.9569	1584.91
13.0317	1582.53
13.1069	1580.16
13.1826	1577.79
13.2587	1575.41
13.3352	1573.03
13.4122	1570.65
13.4896	1568.28
13.5675	1565.9
13.6458	1563.52
13.7246	1561.14
13.8038	1558.75
13.8835	1556.37
13.9637	1553.99
14.0443	1551.61
14.1254	1549.22
14.2069	1546.84
14.2889	1544.46
14.3714	1542.07
14.4544	1539.69
14.5378	1537.31
14.6218	1534.92
14.7062	1532.54
14.7911	1530.15
14.8765	1527.77
14.9624	1525.39
15.0487	1523
15.1356	1520.62
15.223	1518.24
15.3109	1515.85
15.3993	1513.47
15.4882	1511.09
15.5776	1508.71
15.6675	1506.33
15.758	1503.95
15.8489	1501.57
15.9404	1499.19
16.0325	1496.81
16.125	1494.43
16.2181	1492.05
16.3117	1489.67
16.4059	1487.29
16.5006	1484.92
16.5959	1482.54
16.6917	1480.16
16.788	1477.79
16.885	1475.42
16.9824	1473.04
17.0805	1470.67
17.1791	1468.3
17.2783	1465.93
17.378	1463.55
17.4783	1461.18
17.5792	1458.81
17.6807	1456.45
17.7828	1454.08
17.8855	1451.71
17.9887	1449.34
18.0926	1446.98
18.197	1444.61
18.3021	1442.25
18.4077	1439.88
18.514	1437.52
18.6209	1435.16
18.7284	1432.8
18.8365	1430.44
18.9452	1428.08
19.0546	1425.72
19.1646	1423.36
19.2752	1421
19.3865	1418.64
19.4984	1416.29
19.611	1413.93
19.7242	1411.57
19.8381	1409.22
19.9526	1406.87
20.0678	1404.51
20.1837	1402.16
20.3002	1399.81
20.4174	1397.46
20.5353	1395.11
20.6538	1392.75
20.773	1390.4
20.893	1388.06
21.0136	1385.71
21.1349	1383.36
21.2569	1381.01
21.3796	1378.66
21.503	1376.32
21.6272	1373.97
21.752	1371.62
21.8776	1369.28
22.0039	1366.93
22.1309	1364.59
22.2587	1362.25
22.3872	1359.9
22.5165	1357.56
22.6464	1355.22
22.7772	1352.87
22.9087	1350.53
23.0409	1348.19
23.1739	1345.85
23.3077	1343.5
23.4423	1341.16
23.5776	1338.82
23.7137	1336.48
23.8506	1334.14
23.9883	1331.8
24.1268	1329.46
24.2661	1327.12
24.4062	1324.78
24.5471	1322.44
24.6888	1320.1
24.8313	1317.76
24.9747	1315.42
25.1189	1313.08
25.2639	1310.74
25.4097	1308.4
25.5564	1306.06
25.704	1303.72
25.8523	1301.38
26.0016	1299.04
26.1517	1296.7
26.3027	1294.36
26.4545	1292.02
26.6073	1289.68
26.7609	1287.34
26.9153	1285
27.0707	1282.66
27.227	1280.32
27.3842	1277.97
27.5423	1275.63
27.7013	1273.29
27.8612	1270.95
28.0221	1268.6
28.1838	1266.26
28.3465	1263.92
28.5102	1261.57
28.6748	1259.23
28.8403	1256.89
29.0068	1254.54
29.1743	1252.2
29.3427	1249.85
29.5121	1247.5
29.6825	1245.16
29.8538	1242.81
30.0262	1240.46
30.1995	1238.12
30.3739	1235.77
30.5492	1233.42
30.7256	1231.07
30.903	1228.72
31.0814	1226.37
31.2608	1224.02
31.4413	1221.67
31.6228	1219.31
31.8053	1216.96
31.989	1214.61
32.1736	1212.25
32.3594	1209.9
32.5462	1207.54
32.7341	1205.19
32.923	1202.83
33.1131	1200.48
33.3043	1198.12
33.4965	1195.76
33.6899	1193.4
33.8844	1191.04
34.08	1188.68
34.2768	1186.32
34.4747	1183.95
34.6737	1181.59
34.8739	1179.23
35.0752	1176.86
35.2777	1174.5
35.4813	1172.13
35.6862	1169.77
35.8922	1167.4
36.0994	1165.03
36.3078	1162.66
36.5174	1160.29
36.7282	1157.92
36.9403	1155.55
37.1535	1153.18
37.368	1150.8
37.5837	1148.43
37.8007	1146.05
38.0189	1143.68
38.2384	1141.3
38.4592	1138.92
38.6812	1136.55
38.9045	1134.17
39.1291	1131.79
39.355	1129.41
39.5822	1127.02
39.8107	1124.5
40.0405	1121.83
40.2717	1119.16
40.5042	1116.5
40.738	1113.83
40.9732	1111.17
41.2098	1108.5
41.4477	1105.9
41.6869	1103.24
41.9276	1100.57
42.1697	1097.91
42.4131	1095.25
42.658	1092.58
42.9042	1089.92
43.1519	1087.25
43.401	1084.59
43.6516	1081.93
43.9036	1079.26
44.157	1076.6
44.412	1074.08
44.6684	1071.46
44.9262	1068.79
45.1856	1066.13
45.4465	1063.46
45.7088	1060.8
45.9727	1058.14
46.2381	1055.47
46.505	1052.81
46.7735	1050.15
47.0435	1047.49
47.3151	1044.83
47.5883	1042.16
47.863	1039.5
48.1393	1036.84
48.4172	1034.18
48.6968	1032.12
48.9779	1029.46
49.2606	1026.79
49.545	1024.12
49.831	1019.42
50.1187	1016.72
50.4081	1014.21
50.6991	1011.51
50.9918	1008.81
51.2861	1006.12
51.5822	1003.43
51.88	1000.74
52.1795	998.05
52.4807	995.361
52.7837	992.673
53.0884	989.986
53.3949	987.299
53.7032	984.613
54.0132	981.927
54.325	979.242
54.6387	976.557
54.9541	973.873
55.2713	971.189
55.5904	968.505
55.9114	965.822
56.2341	963.142
56.5588	960.46
56.8853	957.779
57.2137	955.098
57.544	952.418
57.8762	949.739
58.2103	947.06
58.5464	944.382
58.8844	941.705
59.2243	939.62
59.5662	936.942
59.9101	934.265
60.256	931.589
60.6038	928.913
60.9537	926.238
61.3056	923.564
61.6595	920.891
62.0155	918.215
62.3735	916.128
62.7336	913.453
63.0957	910.78
63.46	908.107
63.8263	905.436
64.1948	902.767
64.5654	900.098
64.9382	897.431
65.3131	894.766
65.6901	892.102
66.0693	889.441
66.4508	886.78
66.8344	884.121
67.2202	881.501
67.6083	878.846
67.9986	876.192
68.3912	873.539
68.786	870.889
69.1831	868.241
69.5825	865.594
69.9842	863.008
70.3882	860.457
70.7946	857.905
71.2033	855.354
71.6143	852.803
72.0278	850.254
72.4436	847.706
72.8618	845.16
73.2825	842.614
73.7055	840.07
74.131	837.527
74.559	834.986
74.9894	832.447
75.4223	829.909
75.8578	827.372
76.2957	824.837
76.7361	822.304
77.1792	819.773
77.6247	817.244
78.0728	814.716
78.5236	812.191
78.9769	809.667
79.4328	807.146
79.8914	804.626
80.3526	802.109
80.8165	799.594
81.2831	797.301
81.7523	794.786
82.2243	792.274
82.699	789.766
83.1764	787.259
83.6566	784.754
84.1395	782.253
84.6253	779.754
85.1138	777.257
85.6052	774.764
86.0994	772.273
86.5964	769.785
87.0964	767.3
87.5992	764.818
88.1049	762.34
88.6135	759.864
89.1251	757.904
89.6396	755.429
90.1571	752.958
90.6776	750.489
91.2011	748.024
91.7276	745.563
92.2571	743.105
92.7897	740.65
93.3254	738.199
93.8642	735.751
94.4061	733.307
94.9511	730.867
95.4993	728.43
96.0506	725.996
96.6051	723.567
97.1628	721.141
97.7237	718.719
98.2879	716.301
98.8553	713.887
99.426	711.476
100	709.07
100.577	706.667
101.158	704.268
101.742	701.873
102.329	699.482
102.92	697.095
103.514	694.712
104.112	692.333
104.713	689.958
105.317	687.587
105.925	685.22
106.537	682.858
107.152	680.499
107.771	678.145
108.393	675.795
109.018	673.449
109.648	671.108
110.281	668.77
110.917	666.438
111.558	664.109
112.202	661.784
112.85	659.477
113.501	657.161
114.156	654.988
114.815	652.679
115.478	650.374
116.145	648.074
116.815	645.777
117.49	643.484
118.168	641.197
118.85	638.914
119.536	636.636
120.226	634.362
120.921	632.093
121.619	629.828
122.321	627.567
123.027	625.311
123.737	623.06
124.451	620.813
125.17	618.571
125.893	616.333
126.619	614.1
127.35	611.872
128.086	609.648
128.825	607.429
129.569	605.215
130.317	603.005
131.069	600.8
131.826	598.6
132.587	596.405
133.352	594.214
134.122	592.028
134.896	589.847
135.675	587.67
136.458	585.499
137.246	583.332
138.038	581.17
138.835	579.012
139.637	576.86
140.443	574.712
141.254	572.57
142.069	570.432
142.889	568.299
143.714	566.171
144.544	564.048
145.378	561.93
146.218	559.817
147.062	557.709
147.911	555.605
148.765	553.685
149.624	551.588
150.487	549.497
151.356	547.41
152.23	545.329
153.109	543.252
153.993	541.18
154.882	539.113
155.776	537.052
156.675	534.995
157.58	532.944
158.489	530.905
159.404	528.864
160.325	526.827
161.25	524.796
162.181	522.769
163.117	520.748
164.059	518.732
165.006	516.722
165.959	514.716
166.917	512.716
167.88	510.721
168.85	508.731
169.824	506.745
170.805	504.766
171.791	502.791
172.783	500.821
173.78	498.857
174.783	496.897
175.792	494.943
176.807	492.994
177.828	491.05
178.855	489.111
179.887	487.178
180.926	485.249
181.97	483.326
183.021	481.408
184.077	479.495
185.14	477.587
186.209	475.685
187.284	473.787
188.365	471.895
189.452	470.009
190.546	468.127
191.646	466.251
192.752	464.38
193.865	462.514
194.984	460.653
196.11	458.798
197.242	456.948
198.381	455.103
199.526	453.264
200.678	451.43
201.837	449.601
203.002	447.777
204.174	445.959
205.353	444.146
206.538	442.338
207.73	440.536
208.93	438.739
210.136	437.055
211.349	435.267
212.569	433.485
213.796	431.707
215.03	429.935
216.272	428.169
217.52	426.407
218.776	424.651
220.039	422.901
221.309	421.156
222.587	419.416
223.872	417.681
225.165	415.952
226.464	414.228
227.772	412.51
229.087	410.797
230.409	409.089
231.739	407.387
233.077	405.69
234.423	403.999
235.776	402.313
237.137	400.632
238.506	398.957
239.883	397.287
241.268	395.622
242.661	393.963
244.062	392.309
245.471	390.661
246.888	389.018
248.313	387.381
249.747	385.749
251.189	384.122
252.639	382.501
254.097	380.885
255.564	379.274
257.04	377.669
258.523	376.069
260.016	374.475
261.517	372.885
263.027	371.302
264.545	369.723
266.073	368.15
267.609	366.582
269.153	365.02
270.707	363.463
272.27	361.912
273.842	360.365
275.423	358.824
277.013	357.289
278.612	355.758
280.221	354.234
281.838	352.714
283.465	351.2
285.102	349.691
286.748	348.187
288.403	346.689
290.068	345.196
291.743	343.708
293.427	342.226
295.121	340.749
296.825	339.277
298.538	337.81
300.262	336.348
301.995	334.893
303.739	333.442
305.492	331.997
307.256	330.557
309.03	329.123
310.814	327.693
312.608	326.269
314.413	324.85
316.228	323.436
318.053	322.028
319.89	320.624
321.736	319.226
323.594	317.833
325.462	316.445
327.341	315.062
329.23	313.685
331.131	312.312
333.043	310.945
334.965	309.583
336.899	308.226
338.844	306.874
340.8	305.527
342.768	304.186
344.747	302.849
346.737	301.518
348.739	300.191
350.752	298.87
352.777	297.553
354.813	296.242
356.862	294.935
358.922	293.634
360.994	292.338
363.078	291.046
365.174	289.76
367.282	288.479
369.403	287.202
371.535	285.931
373.68	284.664
375.837	283.403
378.007	282.146
380.189	280.894
382.384	279.648
384.592	278.406
386.812	277.169
389.045	275.936
391.291	274.709
393.55	273.487
395.822	272.269
398.107	271.056
400.405	269.848
402.717	268.645
405.042	267.447
407.38	266.253
409.732	265.064
412.098	263.881
414.477	262.701
416.869	261.527
419.276	260.357
421.697	259.192
424.131	258.032
426.58	256.876
429.042	255.725
431.519	254.579
434.01	253.438
436.516	252.301
439.036	251.169
441.57	250.041
444.12	248.918
446.684	247.8
449.262	246.686
451.856	245.577
454.465	244.472
457.088	243.372
459.727	242.277
462.381	241.186
465.05	240.099
467.735	239.017
470.435	237.94
473.151	236.867
475.883	235.799
478.63	234.735
481.393	233.675
484.172	232.62
486.968	231.57
489.779	230.524
492.606	229.482
495.45	228.445
498.31	227.412
501.187	226.383
504.081	225.359
506.991	224.339
509.918	223.323
512.861	222.312
515.822	221.305
518.8	220.303
521.795	219.304
524.807	218.311
527.837	217.321
530.884	216.335
533.949	215.354
537.032	214.377
540.132	213.404
543.25	212.436
546.387	211.472
549.541	210.511
552.713	209.555
555.904	208.603
559.114	207.656
562.341	206.712
565.588	205.773
568.853	204.837
572.137	203.906
575.44	202.978
578.762	202.055
582.103	201.136
585.464	200.221
588.844	199.31
592.243	198.403
595.662	197.5
599.101	196.601
602.56	195.705
606.038	194.814
609.537	193.927
613.056	193.043
616.595	192.164
620.155	191.289
623.735	190.417
627.336	189.549
630.957	188.685
634.6	187.825
638.263	186.969
641.948	186.117
645.654	185.269
649.382	184.424
653.131	183.583
656.901	182.746
660.693	181.912
664.508	181.083
668.344	180.257
672.202	179.434
676.083	178.616
679.986	177.801
683.912	176.99
687.86	176.183
691.831	175.379
695.825	174.579
699.842	173.782
703.882	172.989
707.946	172.2
712.033	171.414
716.143	170.632
720.278	169.853
724.436	169.078
728.618	168.307
732.825	167.539
737.055	166.774
741.31	166.013
745.59	165.256
749.894	164.502
754.223	163.751
758.578	163.004
762.957	162.26
767.361	161.52
771.792	160.783
776.247	160.05
780.728	159.32
785.236	158.593
789.769	157.87
794.328	157.15
798.914	156.433
803.526	155.72
808.165	155.009
812.831	154.303
817.523	153.599
822.243	152.899
826.99	152.202
831.764	151.508
836.566	150.818
841.395	150.13
846.253	149.446
851.138	148.765
856.052	148.088
860.994	147.413
865.964	146.742
870.964	146.073
875.992	145.408
881.049	144.746
886.135	144.087
891.251	143.432
896.396	142.779
901.571	142.129
906.776	141.483
912.011	140.839
917.276	140.198
922.571	139.561
927.897	138.926
933.254	138.295
938.642	137.666
944.061	137.041
949.511	136.418
954.993	135.799
960.506	135.182
966.051	134.568
971.628	133.957
977.237	133.349
982.879	132.744
988.553	132.142
994.26	131.542
1000	130.946
1005.77	130.352
1011.58	129.761
1017.42	129.173
1023.29	128.588
1029.2	128.005
1035.14	127.426
1041.12	126.849
1047.13	126.275
1053.17	125.703
1059.25	125.135
1065.37	124.569
1071.52	124.005
1077.71	123.445
1083.93	122.887
1090.18	122.332
1096.48	121.779
1102.81	121.229
1109.17	120.682
1115.58	120.138
1122.02	119.596
1128.5	119.056
1135.01	118.52
1141.56	117.985
1148.15	117.454
1154.78	116.925
1161.45	116.398
1168.15	115.874
1174.9	115.353
1181.68	114.834
1188.5	114.318
1195.36	113.804
1202.26	113.293
1209.21	112.784
1216.19	112.277
1223.21	111.773
1230.27	111.272
1237.37	110.773
1244.51	110.276
1251.7	109.782
1258.93	109.29
1266.19	108.801
1273.5	108.314
1280.86	107.829
1288.25	107.347
1295.69	106.867
1303.17	106.389
1310.69	105.914
1318.26	105.441
1325.87	104.97
1333.52	104.502
1341.22	104.036
1348.96	103.572
1356.75	103.11
1364.58	102.651
1372.46	102.194
1380.38	101.739
1388.35	101.287
1396.37	100.836
1404.43	100.388
1412.54	99.9425
1420.69	99.4988
1428.89	99.0572
1437.14	98.6179
1445.44	98.1807
1453.78	97.7457
1462.18	97.3128
1470.62	96.882
1479.11	96.4534
1487.65	96.0269
1496.24	95.6025
1504.87	95.1801
1513.56	94.7599
1522.3	94.3418
1531.09	93.9257
1539.93	93.5117
1548.82	93.0997
1557.76	92.6897
1566.75	92.2818
1575.8	91.876
1584.89	91.4721
1594.04	91.0702
1603.25	90.6704
1612.5	90.2725
1621.81	89.8766
1631.17	89.4826
1640.59	89.0906
1650.06	88.7006
1659.59	88.3125
1669.17	87.9263
1678.8	87.5421
1688.5	87.1598
1698.24	86.7793
1708.05	86.4008
1717.91	86.0242
1727.83	85.6494
1737.8	85.2765
1747.83	84.9055
1757.92	84.5364
1768.07	84.169
1778.28	83.8036
1788.55	83.4399
1798.87	83.0781
1809.26	82.718
1819.7	82.3598
1830.21	82.0034
1840.77	81.6488
1851.4	81.2959
1862.09	80.9448
1872.84	80.5955
1883.65	80.2479
1894.52	79.9021
1905.46	79.558
1916.46	79.2157
1927.52	78.8751
1938.65	78.5362
1949.84	78.1989
1961.1	77.8634
1972.42	77.5296
1983.81	77.1975
1995.26	76.867
2006.78	76.5383
2018.37	76.2111
2030.02	75.8857
2041.74	75.5618
2053.53	75.2396
2065.38	74.9191
2077.3	74.6001
2089.3	74.2828
2101.36	73.9671
2113.49	73.653
2125.69	73.3405
2137.96	73.0295
2150.3	72.7202
2162.72	72.4124
2175.2	72.1061
2187.76	71.8015
2200.39	71.4983
2213.09	71.1968
2225.87	70.8967
2238.72	70.5982
2251.65	70.3012
2264.64	70.0057
2277.72	69.7117
2290.87	69.4192
2304.09	69.1283
2317.39	68.8388
2330.77	68.5507
2344.23	68.2642
2357.76	67.9791
2371.37	67.6954
2385.06	67.4133
2398.83	67.1325
2412.68	66.8532
2426.61	66.5754
2440.62	66.2989
2454.71	66.0239
2468.88	65.7503
2483.13	65.478
2497.47	65.2072
2511.89	64.9378
2526.39	64.6698
2540.97	64.4031
2555.64	64.1378
2570.4	63.8739
2585.23	63.6113
2600.16	63.3501
2615.17	63.0902
2630.27	62.8317
2645.45	62.5745
2660.73	62.3186
2676.09	62.0641
2691.53	61.8108
2707.07	61.5589
2722.7	61.3083
2738.42	61.059
2754.23	60.8109
2770.13	60.5642
2786.12	60.3187
2802.21	60.0745
2818.38	59.8316
2834.65	59.5899
2851.02	59.3495
2867.48	59.1103
2884.03	58.8724
2900.68	58.6357
2917.43	58.4002
2934.27	58.166
2951.21	57.9329
2968.25	57.7011
2985.38	57.4705
3002.62	57.2411
3019.95	57.013
3037.39	56.7859
3054.92	56.5601
3072.56	56.3355
3090.3	56.112
3108.14	55.8897
3126.08	55.6686
3144.13	55.4486
3162.28	55.2298
3180.53	55.0121
3198.9	54.7956
3217.36	54.5802
3235.94	54.3659
3254.62	54.1527
3273.41	53.9407
3292.3	53.7298
3311.31	53.52
3330.43	53.3113
3349.65	53.1037
3368.99	52.8972
3388.44	52.6918
3408	52.4875
3427.68	52.2842
3447.47	52.082
3467.37	51.8809
3487.39	51.6809
3507.52	51.4819
3527.77	51.284
3548.13	51.0871
3568.62	50.8912
3589.22	50.6964
3609.94	50.5027
3630.78	50.3099
3651.74	50.1182
3672.82	49.9275
3694.03	49.7378
3715.35	49.5492
3736.8	49.3615
3758.37	49.1748
3780.07	48.9891
3801.89	48.8045
3823.84	48.6208
3845.92	48.438
3868.12	48.2563
3890.45	48.0755
3912.91	47.8957
3935.5	47.7169
3958.22	47.539
3981.07	47.3621
4004.05	47.1861
4027.17	47.0111
4050.42	46.837
4073.8	46.6639
4097.32	46.4917
4120.98	46.3204
4144.77	46.15
4168.69	45.9806
4192.76	45.812
4216.97	45.6444
4241.31	45.4777
4265.8	45.3119
4290.42	45.1469
4315.19	44.9829
4340.1	44.8198
4365.16	44.6575
4390.36	44.4961
4415.7	44.3356
4441.2	44.176
4466.84	44.0173
4492.62	43.8594
4518.56	43.7023
4544.65	43.5462
4570.88	43.3908
4597.27	43.2363
4623.81	43.0827
4650.5	42.9299
4677.35	42.778
4704.35	42.6268
4731.51	42.4765
4758.83	42.3271
4786.3	42.1784
4813.93	42.0306
4841.72	41.8836
4869.68	41.7373
4897.79	41.5919
4926.06	41.4473
4954.5	41.3035
4983.1	41.1605
5011.87	41.0183
5040.81	40.8768
5069.91	40.7362
5099.18	40.5963
5128.61	40.4572
5158.22	40.3189
5188	40.1813
5217.95	40.0445
5248.07	39.9085
5278.37	39.7732
5308.84	39.6387
5339.49	39.5049
5370.32	39.3719
5401.32	39.2396
5432.5	39.108
5463.87	38.9772
5495.41	38.8472
5527.13	38.7178
5559.04	38.5892
5591.14	38.4613
5623.41	38.3341
5655.88	38.2077
5688.53	38.0819
5721.37	37.9569
5754.4	37.8325
5787.62	37.7089
5821.03	37.586
5854.64	37.4637
5888.44	37.3422
5922.43	37.2214
5956.62	37.1012
5991.01	36.9817
6025.6	36.8629
6060.38	36.7448
6095.37	36.6273
6130.56	36.5105
6165.95	36.3944
6201.55	36.279
6237.35	36.1642
6273.36	36.0501
6309.57	35.9366
6346	35.8238
6382.63	35.7116
6419.48	35.6001
6456.54	35.4892
6493.82	35.3789
6531.31	35.2693
6569.01	35.1603
6606.93	35.052
6645.08	34.9443
6683.44	34.8372
6722.02	34.7307
6760.83	34.6249
6799.86	34.5196
6839.12	34.415
6878.6	34.311
6918.31	34.2076
6958.25	34.1048
6998.42	34.0026
7038.82	33.901
7079.46	33.8001
7120.33	33.6996
7161.43	33.5998
7202.78	33.5006
7244.36	33.402
7286.18	33.3039
7328.25	33.2065
7370.55	33.1096
7413.1	33.0132
7455.9	32.9175
7498.94	32.8223
7542.23	32.7277
7585.78	32.6337
7629.57	32.5402
7673.61	32.4473
7717.92	32.3549
7762.47	32.2631
7807.28	32.1718
7852.36	32.0811
7897.69	31.9909
7943.28	31.9013
7989.14	31.8122
8035.26	31.7237
8081.65	31.6357
8128.31	31.5482
8175.23	31.4613
8222.43	31.3749
8269.9	31.289
8317.64	31.2036
8365.66	31.1188
8413.95	31.0345
8462.53	30.9507
8511.38	30.8674
8560.52	30.7846
8609.94	30.7023
8659.64	30.6206
8709.64	30.5393
8759.92	30.4586
8810.49	30.3783
8861.35	30.2986
8912.51	30.2193
8963.96	30.1406
9015.71	30.0623
9067.76	29.9845
9120.11	29.9072
9172.76	29.8304
9225.71	29.7541
9278.97	29.6782
9332.54	29.6029
9386.42	29.528
9440.61	29.4536
9495.11	29.3796
9549.93	29.3062
9605.06	29.2331
9660.51	29.1606
9716.28	29.0885
9772.37	29.0169
9828.79	28.9457
9885.53	28.875
9942.6	28.8048
10000	28.735
10057.7	28.6656
10115.8	28.5967
10174.2	28.5283
10232.9	28.4603
10292	28.3927
10351.4	28.3256
10411.2	28.2589
10471.3	28.1927
10531.7	28.1268
10592.5	28.0615
10653.7	27.9965
10715.2	27.932
10777.1	27.8679
10839.3	27.8042
10901.8	27.741
10964.8	27.6781
11028.1	27.6157
11091.7	27.5537
11155.8	27.4921
11220.2	27.431
11285	27.3702
11350.1	27.3099
11415.6	27.2499
11481.5	27.1904
11547.8	27.1313
11614.5	27.0725
11681.5	27.0142
11749	26.9563
11816.8	26.8988
11885	26.8416
11953.6	26.7849
12022.6	26.7285
12092.1	26.6725
12161.9	26.617
12232.1	26.5618
12302.7	26.507
12373.7	26.4525
12445.1	26.3985
12517	26.3448
12589.3	26.2915
12661.9	26.2386
12735	26.1861
12808.6	26.1339
12882.5	26.0821
12956.9	26.0307
13031.7	25.9796
13106.9	25.9289
13182.6	25.8786
13258.7	25.8286
13335.2	25.779
13412.2	25.7298
13489.6	25.6809
13567.5	25.6324
13645.8	25.5842
13724.6	25.5363
13803.8	25.4889
13883.5	25.4417
13963.7	25.3949
14044.3	25.3485
14125.4	25.3024
14206.9	25.2567
14288.9	25.2113
14371.4	25.1662
14454.4	25.1215
14537.8	25.0771
14621.8	25.033
14706.2	24.9893
14791.1	24.9459
14876.5	24.9028
14962.4	24.8601
15048.7	24.8177
15135.6	24.7756
15223	24.7339
15310.9	24.6924
15399.3	24.6513
15488.2	24.6105
15577.6	24.5701
15667.5	24.5299
15758	24.4901
15848.9	24.4506
15940.4	24.4113
16032.5	24.3725
16125	24.3339
16218.1	24.2956
16311.7	24.2576
16405.9	24.22
16500.6	24.1826
16595.9	24.1456
16691.7	24.1088
16788	24.0723
16885	24.0362
16982.4	24.0003
17080.5	23.9648
17179.1	23.9295
17278.3	23.8946
17378	23.8599
17478.3	23.8255
17579.2	23.7914
17680.7	23.7576
17782.8	23.7241
17885.5	23.6909
17988.7	23.6579
18092.6	23.6252
18197	23.5929
18302.1	23.5608
18407.7	23.5289
18514	23.4974
18620.9	23.4661
18728.4	23.4351
18836.5	23.4044
18945.2	23.374
19054.6	23.3438
19164.6	23.3139
19275.2	23.2843
19386.5	23.2529
19498.4	23.2213
19611	23.19
19724.2	23.159
19838.1	23.1282
19952.6	23.0976
20067.8	23.0674
20183.7	23.0373
20300.2	23.0076
20417.4	22.978
20535.3	22.9488
20653.8	22.9198
20773	22.891
20893	22.8625
21013.6	22.8342
21134.9	22.8062
21256.9	22.7784
21379.6	22.7509
21503	22.7236
21627.2	22.6966
21752	22.6697
21877.6	22.6432
22003.9	22.6169
22130.9	22.5908
22258.7	22.5649
22387.2	22.5393
22516.5	22.5139
22646.4	22.4887
22777.2	22.4638
22908.7	22.4391
23040.9	22.4146
23173.9	22.3904
23307.7	22.3664
23442.3	22.3426
23577.6	22.319
23713.7	22.2957
23850.6	22.2726
23988.3	22.2497
24126.8	22.227
24266.1	22.2046
24406.2	22.1823
24547.1	22.1603
24688.8	22.1385
24831.3	22.1169
24974.7	22.0955
25118.9	22.0744
25263.9	22.0534
25409.7	22.0327
25556.4	22.0121
25704	21.9918
25852.3	21.9717
26001.6	21.9518
26151.7	21.932
26302.7	21.9125
26454.5	21.8932
26607.3	21.8741
26760.9	21.8552
26915.3	21.8365
27070.7	21.818
27227	21.7997
27384.2	21.7816
27542.3	21.7637
27701.3	21.746
27861.2	21.7285
28022.1	21.7112
28183.8	21.694
28346.5	21.6771
28510.2	21.6603
28674.8	21.6437
28840.3	21.6274
29006.8	21.6112
29174.3	21.5952
29342.7	21.5793
29512.1	21.5637
29682.5	21.5483
29853.8	21.533
30026.2	21.5179
30199.5	21.503
30373.9	21.4882
30549.2	21.4737
30725.6	21.4593
30903	21.4451
31081.4	21.4311
31260.8	21.4172
31441.3	21.4036
31622.8	21.3901
31805.3	21.3767
31989	21.3636
32173.6	21.3506
32359.4	21.3378
32546.2	21.3251
32734.1	21.3126
32923	21.3003
33113.1	21.2882
33304.3	21.2762
33496.5	21.2643
33689.9	21.2527
33884.4	21.2412
34080	21.2298
34276.8	21.2187
34474.7	21.2076
34673.7	21.1968
34873.9	21.1861
35075.2	21.1755
35277.7	21.1651
35481.3	21.1549
35686.2	21.1448
35892.2	21.1349
36099.4	21.1251
36307.8	21.1155
36517.4	21.106
36728.2	21.0967
36940.3	21.0875
37153.5	21.0785
37368	21.0696
37583.7	21.0609
37800.7	21.0523
38018.9	21.0438
38238.4	21.0355
38459.2	21.0274
38681.2	21.0194
38904.5	21.0115
39129.1	21.0038
39355	20.9962
39582.2	20.9887
39810.7	20.9814
40040.5	20.9742
40271.7	20.9672
40504.2	20.9603
40738	20.9535
40973.2	20.9469
41209.8	20.9404
41447.7	20.9341
41686.9	20.9278
41927.6	20.9217
42169.7	20.9158
42413.1	20.9099
42658	20.9042
42904.2	20.8986
43151.9	20.8932
43401	20.8878
43651.6	20.8826
43903.6	20.8776
44157	20.8726
44412	20.8678
44668.4	20.8631
44926.2	20.8585
45185.6	20.854
45446.5	20.8497
45708.8	20.8455
45972.7	20.8414
46238.1	20.8374
46505	20.8335
46773.5	20.8298
47043.5	20.8262
47315.1	20.8227
47588.3	20.8193
47863	20.816
48139.3	20.8128
48417.2	20.8098
48696.8	20.8068
48977.9	20.804
49260.6	20.8013
49545	20.7987
49831	20.7962
50118.7	20.7938
50408.1	20.7915
50699.1	20.7893
50991.8	20.7873
51286.1	20.7853
51582.2	20.7834
51880	20.7817
52179.5	20.7801
52480.7	20.7785
52783.7	20.7771
53088.4	20.7757
53394.9	20.7745
53703.2	20.7734
54013.2	20.7723
54325	20.7714
54638.7	20.7706
54954.1	20.7698
55271.3	20.7692
55590.4	20.7687
55911.4	20.7682
56234.1	20.7679
56558.8	20.7676
56885.3	20.7675
57213.7	20.7674
57544	20.7674
57876.2	20.7676
58210.3	20.7678
58546.4	20.7681
58884.4	20.7685
59224.3	20.769
59566.2	20.7696
59910.1	20.7702
60256	20.771
60603.8	20.7718
60953.7	20.7728
61305.6	20.7738
61659.5	20.7749
62015.5	20.7761
62373.5	20.7774
62733.6	20.7787
63095.7	20.7802
63460	20.7817
63826.3	20.7833
64194.8	20.785
64565.4	20.7868
64938.2	20.7887
65313.1	20.7906
65690.1	20.7926
66069.3	20.7947
66450.8	20.7969
66834.4	20.7991
67220.2	20.8015
67608.3	20.8039
67998.6	20.8064
68391.2	20.8089
68786	20.8116
69183.1	20.8143
69582.5	20.8171
69984.2	20.8199
70388.2	20.8229
70794.6	20.8259
71203.3	20.829
71614.3	20.8321
72027.8	20.8354
72443.6	20.8387
72861.8	20.842
73282.5	20.8455
73705.5	20.849
74131	20.8526
74559	20.8562
74989.4	20.8599
75422.3	20.8637
75857.8	20.8675
76295.7	20.8715
76736.1	20.8754
77179.2	20.8795
77624.7	20.8836
78072.8	20.8878
78523.6	20.892
78976.9	20.8963
79432.8	20.9007
79891.4	20.9051
80352.6	20.9096
80816.5	20.9141
81283.1	20.9188
81752.3	20.9234
82224.3	20.9282
82699	20.933
83176.4	20.9378
83656.6	20.9427
84139.5	20.9477
84625.3	20.9527
85113.8	20.9578
85605.2	20.963
86099.4	20.9682
86596.4	20.9734
87096.4	20.9787
87599.2	20.9841
88104.9	20.9895
88613.5	20.995
89125.1	21.0005
89639.6	21.0061
90157.1	21.0118
90677.6	21.0174
91201.1	21.0232
91727.6	21.029
92257.1	21.0348
92789.7	21.0407
93325.4	21.0467
93864.2	21.0527
94406.1	21.0587
94951.1	21.0648
95499.3	21.071
96050.6	21.0772
96605.1	21.0834
97162.8	21.0897
97723.7	21.096
98287.9	21.1024
98855.3	21.1089
99426	21.1154
100000	21.1219
100577	21.1285
101158	21.1351
101742	21.1417
102329	21.1484
102920	21.1552
103514	21.162
104112	21.1688
104713	21.1757
105317	21.1826
105925	21.1896
106537	21.1966
107152	21.2037
107771	21.2107
108393	21.2179
109018	21.2251
109648	21.2323
110281	21.2395
110917	21.2468
111558	21.2541
112202	21.2615
112850	21.2689
113501	21.2764
114156	21.2838
114815	21.2914
115478	21.2989
116145	21.3065
116815	21.3142
117490	21.3218
118168	21.3295
118850	21.3373
119536	21.345
120226	21.3529
120921	21.3607
121619	21.3686
122321	21.3765
123027	21.3844
123737	21.3924
124451	21.4004
125170	21.4085
125893	21.4165
126619	21.4247
127350	21.4328
128086	21.441
128825	21.4492
129569	21.4574
130317	21.4657
131069	21.474
131826	21.4823
132587	21.4906
133352	21.499
134122	21.5074
134896	21.5159
135675	21.5244
136458	21.5329
137246	21.5414
138038	21.5499
138835	21.5585
139637	21.5671
140443	21.5758
141254	21.5844
142069	21.5931
142889	21.6018
143714	21.6106
144544	21.6193
145378	21.6281
146218	21.637
147062	21.6458
147911	21.6547
148765	21.6636
149624	21.6725
150487	21.6814
151356	21.6904
152230	21.6994
153109	21.7084
153993	21.7174
154882	21.7265
155776	21.7356
156675	21.7447
157580	21.7538
158489	21.7629
159404	21.7721
160325	21.7813
161250	21.7905
162181	21.7997
163117	21.809
164059	21.8183
165006	21.8275
165959	21.8369
166917	21.8462
167880	21.8555
168850	21.8649
169824	21.8743
170805	21.8837
171791	21.8931
172783	21.9026
173780	21.9121
174783	21.9215
175792	21.931
176807	21.9406
177828	21.9501
178855	21.9597
179887	21.9692
180926	21.9788
181970	21.9884
183021	21.998
184077	22.0077
185140	22.0173
186209	22.027
187284	22.0367
188365	22.0464
189452	22.0561
190546	22.0658
191646	22.0756
192752	22.0853
193865	22.0951
194984	22.1049
196110	22.1147
197242	22.1245
198381	22.1344
199526	22.1442
200678	22.1541
201837	22.164
203002	22.1738
204174	22.1837
205353	22.1937
206538	22.2036
207730	22.2135
208930	22.2235
210136	22.2334
211349	22.2434
212569	22.2534
213796	22.2634
215030	22.2734
216272	22.2835
217520	22.2935
218776	22.3035
220039	22.3136
221309	22.3237
222587	22.3337
223872	22.3438
225165	22.3539
226464	22.364
227772	22.3742
229087	22.3843
230409	22.3944
231739	22.4046
233077	22.4148
234423	22.4249
235776	22.4351
237137	22.4453
238506	22.4555
239883	22.4657
241268	22.4759
242661	22.4862
244062	22.4964
245471	22.5066
246888	22.5169
248313	22.5271
249747	22.5374
251189	22.5477
252639	22.558
254097	22.5683
255564	22.5786
257040	22.5889
258523	22.5992
260016	22.6095
261517	22.6198
263027	22.6302
264545	22.6405
266073	22.6509
267609	22.6612
269153	22.6716
270707	22.682
272270	22.6923
273842	22.7027
275423	22.7131
277013	22.7235
278612	22.7339
280221	22.7443
281838	22.7547
283465	22.7651
285102	22.7756
286748	22.786
288403	22.7964
290068	22.8069
291743	22.8173
293427	22.8277
295121	22.8382
296825	22.8487
298538	22.8591
300262	22.8696
301995	22.8801
303739	22.8905
305492	22.901
307256	22.9115
309030	22.922
310814	22.9325
312608	22.943
314413	22.9535
316228	22.964
318053	22.9745
319890	22.985
321736	22.9955
323594	23.0061
325462	23.0166
327341	23.0271
329230	23.0376
331131	23.0482
333043	23.0587
334965	23.0693
336899	23.0798
338844	23.0903
340800	23.1009
342768	23.1114
344747	23.122
346737	23.1326
348739	23.1431
350752	23.1537
352777	23.1642
354813	23.1748
356862	23.1854
358922	23.1959
360994	23.2065
363078	23.2171
365174	23.2277
367282	23.2382
369403	23.2488
371535	23.2594
373680	23.27
375837	23.2806
378007	23.2911
380189	23.3017
382384	23.3123
384592	23.3229
386812	23.3335
389045	23.3441
391291	23.3547
393550	23.3653
395822	23.3759
398107	23.3865
400405	23.3971
402717	23.4077
405042	23.4183
407380	23.4289
409732	23.4395
412098	23.4501
414477	23.4607
416869	23.4713
419276	23.4819
421697	23.4925
424131	23.5031
426580	23.5137
429042	23.5243
431519	23.5349
434010	23.5455
436516	23.5561
439036	23.5667
441570	23.5773
444120	23.5879
446684	23.5985
449262	23.6091
451856	23.6197
454465	23.6303
457088	23.6409
459727	23.6515
462381	23.6621
465050	23.6727
467735	23.6833
470435	23.6939
473151	23.7045
475883	23.7151
478630	23.7257
481393	23.7363
484172	23.7469
486968	23.7575
489779	23.7681
492606	23.7787
495450	23.7893
498310	23.7999
501187	23.8104
504081	23.821
506991	23.8316
509918	23.8422
512861	23.8528
515822	23.8634
518800	23.874
521795	23.8845
524807	23.8951
527837	23.9057
530884	23.9163
533949	23.9268
537032	23.9374
540132	23.948
543250	23.9586
546387	23.9691
549541	23.9797
552713	23.9903
555904	24.0008
559114	24.0114
562341	24.0219
565588	24.0325
568853	24.0431
572137	24.0536
575440	24.0642
578762	24.0747
582103	24.0853
585464	24.0958
588844	24.1064
592243	24.1169
595662	24.1274
599101	24.138
602560	24.1485
606038	24.1591
609537	24.1696
613056	24.1801
616595	24.1906
620155	24.2012
623735	24.2117
627336	24.2222
630957	24.2327
634600	24.2432
638263	24.2538
641948	24.2643
645654	24.2748
649382	24.2853
653131	24.2958
656901	24.3063
660693	24.3168
664508	24.3273
668344	24.3378
672202	24.3483
676083	24.3588
679986	24.3692
683912	24.3797
687860	24.3902
691831	24.4007
695825	24.4112
699842	24.4216
703882	24.4321
707946	24.4426
712033	24.453
716143	24.4635
720278	24.4739
724436	24.4844
728618	24.4949
732825	24.5053
737055	24.5157
741310	24.5262
745590	24.5366
749894	24.5471
754223	24.5575
758578	24.5679
762957	24.5784
767361	24.5888
771792	24.5992
776247	24.6096
780728	24.62
785236	24.6304
789769	24.6409
794328	24.6513
798914	24.6617
803526	24.6721
808165	24.6825
812831	24.6928
817523	24.7032
822243	24.7136
826990	24.724
831764	24.7344
836566	24.7448
841395	24.7551
846253	24.7655
851138	24.7759
856052	24.7862
860994	24.7966
865964	24.8069
870964	24.8173
875992	24.8276
881049	24.838
886135	24.8483
891251	24.8587
896396	24.869
901571	24.8793
906776	24.8897
912011	24.9
917276	24.9103
922571	24.9206
927897	24.9309
933254	24.9412
938642	24.9515
944061	24.9618
949511	24.9721
954993	24.9824
960506	24.9927
966051	25.003
971628	25.0133
977237	25.0236
982879	25.0339
988553	25.0441
994260	25.0544
1e+06	25.0647
1.00577e+06	25.0749
1.01158e+06	25.0852
1.01742e+06	25.0954
1.02329e+06	25.1057
1.0292e+06	25.1159
1.03514e+06	25.1262
1.04112e+06	25.1364
1.04713e+06	25.1467
1.05317e+06	25.1569
1.05925e+06	25.1671
1.06537e+06	25.1773
1.07152e+06	25.1876
1.07771e+06	25.1978
1.08393e+06	25.208
1.09018e+06	25.2182
1.09648e+06	25.2284
1.10281e+06	25.2386
1.10917e+06	25.2488
1.11558e+06	25.259
1.12202e+06	25.2692
1.1285e+06	25.2794
1.13501e+06	25.2895
1.14156e+06	25.2997
1.14815e+06	25.3099
1.15478e+06	25.3201
1.16145e+06	25.3302
1.16815e+06	25.3404
1.1749e+06	25.3505
1.18168e+06	25.3607
1.1885e+06	25.3708
1.19536e+06	25.381
1.20226e+06	25.3911
1.20921e+06	25.4013
1.21619e+06	25.4114
1.22321e+06	25.4215
1.23027e+06	25.4317
1.23737e+06	25.4418
1.24451e+06	25.4519
1.2517e+06	25.462
1.25893e+06	25.4721
1.26619e+06	25.4822
1.2735e+06	25.4923
1.28086e+06	25.5024
1.28825e+06	25.5125
1.29569e+06	25.5226
1.30317e+06	25.5327
1.31069e+06	25.5428
1.31826e+06	25.5528
1.32587e+06	25.5629
1.33352e+06	25.573
1.34122e+06	25.583
1.34896e+06	25.5931
1.35675e+06	25.6032
1.36458e+06	25.6132
1.37246e+06	25.6233
1.38038e+06	25.6333
1.38835e+06	25.6433
1.39637e+06	25.6534
1.40443e+06	25.6634
1.41254e+06	25.6734
1.42069e+06	25.6834
1.42889e+06	25.6935
1.43714e+06	25.7035
1.44544e+06	25.7135
1.45378e+06	25.7235
1.46218e+06	25.7335
1.47062e+06	25.7435
1.47911e+06	25.7535
1.48765e+06	25.7635
1.49624e+06	25.7735
1.50487e+06	25.7834
1.51356e+06	25.7934
1.5223e+06	25.8034
1.53109e+06	25.8134
1.53993e+06	25.8233
1.54882e+06	25.8333
1.55776e+06	25.8432
1.56675e+06	25.8532
1.5758e+06	25.8631
1.58489e+06	25.8731
1.59404e+06	25.883
1.60325e+06	25.8929
1.6125e+06	25.9029
1.62181e+06	25.9128
1.63117e+06	25.9227
1.64059e+06	25.9326
1.65006e+06	25.9425
1.65959e+06	25.9524
1.66917e+06	25.9624
1.6788e+06	25.9723
1.6885e+06	25.9821
1.69824e+06	25.992
1.70805e+06	26.0019
1.71791e+06	26.0118
1.72783e+06	26.0217
1.7378e+06	26.0316
1.74783e+06	26.0414
1.75792e+06	26.0513
1.76807e+06	26.0611
1.77828e+06	26.071
1.78855e+06	26.0809
1.79887e+06	26.0907
1.80926e+06	26.1005
1.8197e+06	26.1104
1.83021e+06	26.1202
1.84077e+06	26.13
1.8514e+06	26.1399
1.86209e+06	26.1497
1.87284e+06	26.1595
1.88365e+06	26.1693
1.89452e+06	26.1791
1.90546e+06	26.1889
1.91646e+06	26.1987
1.92752e+06	26.2085
1.93865e+06	26.2183
1.94984e+06	26.2281
1.9611e+06	26.2379
1.97242e+06	26.2477
1.98381e+06	26.2574
1.99526e+06	26.2672
2.00678e+06	26.277
2.01837e+06	26.2867
2.03002e+06	26.2965
2.04174e+06	26.3062
2.05353e+06	26.316
2.06538e+06	26.3257
2.0773e+06	26.3354
2.0893e+06	26.3452
2.10136e+06	26.3549
2.11349e+06	26.3646
2.12569e+06	26.3743
2.13796e+06	26.3841
2.1503e+06	26.3938
2.16272e+06	26.4035
2.1752e+06	26.4132
2.18776e+06	26.4229
2.20039e+06	26.4326
2.21309e+06	26.4423
2.22587e+06	26.4519
2.23872e+06	26.4616
2.25165e+06	26.4713
2.26464e+06	26.481
2.27772e+06	26.4906
2.29087e+06	26.5003
2.30409e+06	26.5099
2.31739e+06	26.5196
2.33077e+06	26.5292
2.34423e+06	26.5389
2.35776e+06	26.5485
2.37137e+06	26.5582
2.38506e+06	26.5678
2.39883e+06	26.5774
2.41268e+06	26.587
2.42661e+06	26.5966
2.44062e+06	26.6063
2.45471e+06	26.6159
2.46888e+06	26.6255
2.48313e+06	26.6351
2.49747e+06	26.6447
2.51189e+06	26.6542
2.52639e+06	26.6638
2.54097e+06	26.6734
2.55564e+06	26.683
2.5704e+06	26.6926
2.58523e+06	26.7021
2.60016e+06	26.7117
2.61517e+06	26.7212
2.63027e+06	26.7308
2.64545e+06	26.7403
2.66073e+06	26.7499
2.67609e+06	26.7594
2.69153e+06	26.7689
2.70707e+06	26.7785
2.7227e+06	26.788
2.73842e+06	26.7975
2.75423e+06	26.807
2.77013e+06	26.8165
2.78612e+06	26.826
2.80221e+06	26.8356
2.81838e+06	26.845
2.83465e+06	26.8545
2.85102e+06	26.864
2.86748e+06	26.8735
2.88403e+06	26.883
2.90068e+06	26.8925
2.91743e+06	26.9019
2.93427e+06	26.9114
2.95121e+06	26.9209
2.96825e+06	26.9303
2.98538e+06	26.9398
3.00262e+06	26.9492
3.01995e+06	26.9586
3.03739e+06	26.9681
3.05492e+06	26.9775
3.07256e+06	26.9869
3.0903e+06	26.9964
3.10814e+06	27.0058
3.12608e+06	27.0152
3.14413e+06	27.0246
3.16228e+06	27.034
3.18053e+06	27.0434
3.1989e+06	27.0528
3.21736e+06	27.0622
3.23594e+06	27.0716
3.25462e+06	27.081
3.27341e+06	27.0903
3.2923e+06	27.0997
3.31131e+06	27.1091
3.33043e+06	27.1184
3.34965e+06	27.1278
3.36899e+06	27.1371
3.38844e+06	27.1465
3.408e+06	27.1558
3.42768e+06	27.1652
3.44747e+06	27.1745
3.46737e+06	27.1838
3.48739e+06	27.1931
3.50752e+06	27.2025
3.52777e+06	27.2118
3.54813e+06	27.2211
3.56862e+06	27.2304
3.58922e+06	27.2397
3.60994e+06	27.249
3.63078e+06	27.2583
3.65174e+06	27.2676
3.67282e+06	27.2768
3.69403e+06	27.2861
3.71535e+06	27.2954
3.7368e+06	27.3047
3.75837e+06	27.3139
3.78007e+06	27.3232
3.80189e+06	27.3324
3.82384e+06	27.3417
3.84592e+06	27.3509
3.86812e+06	27.3602
3.89045e+06	27.3694
3.91291e+06	27.3786
3.9355e+06	27.3878
3.95822e+06	27.3971
3.98107e+06	27.4063
4.00405e+06	27.4155
4.02717e+06	27.4247
4.05042e+06	27.4339
4.0738e+06	27.4431
4.09732e+06	27.4523
4.12098e+06	27.4614
4.14477e+06	27.4706
4.16869e+06	27.4798
4.19276e+06	27.489
4.21697e+06	27.4981
4.24131e+06	27.5073
4.2658e+06	27.5165
4.29042e+06	27.5256
4.31519e+06	27.5347
4.3401e+06	27.5439
4.36516e+06	27.553
4.39036e+06	27.5622
4.4157e+06	27.5713
4.4412e+06	27.5804
4.46684e+06	27.5895
4.49262e+06	27.5986
4.51856e+06	27.6077
4.54465e+06	27.6168
4.57088e+06	27.6259
4.59727e+06	27.635
4.62381e+06	27.6441
4.6505e+06	27.6532
4.67735e+06	27.6623
4.70435e+06	27.6713
4.73151e+06	27.6804
4.75883e+06	27.6895
4.7863e+06	27.6985
4.81393e+06	27.7076
4.84172e+06	27.7166
4.86968e+06	27.7257
4.89779e+06	27.7347
4.92606e+06	27.7437
4.9545e+06	27.7528
4.9831e+06	27.7618
5.01187e+06	27.7708
5.04081e+06	27.7798
5.06991e+06	27.7888
5.09918e+06	27.7978
5.12861e+06	27.8068
5.15822e+06	27.8158
5.188e+06	27.8248
5.21795e+06	27.8338
5.24807e+06	27.8428
5.27837e+06	27.8517
5.30884e+06	27.8607
5.33949e+06	27.8697
5.37032e+06	27.8786
5.40132e+06	27.8876
5.4325e+06	27.8965
5.46387e+06	27.9055
5.49541e+06	27.9144
5.52713e+06	27.9233
5.55904e+06	27.9323
5.59114e+06	27.9412
5.62341e+06	27.9501
5.65588e+06	27.959
5.68853e+06	27.9679
5.72137e+06	27.9768
5.7544e+06	27.9857
5.78762e+06	27.9946
5.82103e+06	28.0035
5.85464e+06	28.0124
5.88844e+06	28.0212
5.92243e+06	28.0301
5.95662e+06	28.039
5.99101e+06	28.0478
6.0256e+06	28.0567
6.06038e+06	28.0656
6.09537e+06	28.0744
6.13056e+06	28.0832
6.16595e+06	28.0921
6.20155e+06	28.1009
6.23735e+06	28.1097
6.27336e+06	28.1185
6.30957e+06	28.1274
6.346e+06	28.1362
6.38263e+06	28.145
6.41948e+06	28.1538
6.45654e+06	28.1626
6.49382e+06	28.1714
6.53131e+06	28.1801
6.56901e+06	28.1889
6.60693e+06	28.1977
6.64508e+06	28.2065
6.68344e+06	28.2152
6.72202e+06	28.224
6.76083e+06	28.2327
6.79986e+06	28.2415
6.83912e+06	28.2502
6.8786e+06	28.259
6.91831e+06	28.2677
6.95825e+06	28.2764
6.99842e+06	28.2851
7.03882e+06	28.2938
7.07946e+06	28.3026
7.12033e+06	28.3113
7.16143e+06	28.32
7.20278e+06	28.3287
7.24436e+06	28.3373
7.28618e+06	28.346
7.32825e+06	28.3547
7.37055e+06	28.3634
7.4131e+06	28.372
7.4559e+06	28.3807
7.49894e+06	28.3894
7.54223e+06	28.398
7.58578e+06	28.4067
7.62957e+06	28.4153
7.67361e+06	28.4239
7.71792e+06	28.4326
7.76247e+06	28.4412
7.80728e+06	28.4498
7.85236e+06	28.4584
7.89769e+06	28.467
7.94328e+06	28.4757
7.98914e+06	28.4842
8.03526e+06	28.4928
8.08165e+06	28.5014
8.12831e+06	28.51
8.17523e+06	28.5186
8.22243e+06	28.5272
8.2699e+06	28.5357
8.31764e+06	28.5443
8.36566e+06	28.5528
8.41395e+06	28.5614
8.46253e+06	28.5699
8.51138e+06	28.5785
8.56052e+06	28.587
8.60994e+06	28.5955
8.65964e+06	28.6041
8.70964e+06	28.6126
8.75992e+06	28.6211
8.81049e+06	28.6296
8.86135e+06	28.6381
8.91251e+06	28.6466
8.96396e+06	28.6551
9.01571e+06	28.6636
9.06776e+06	28.6721
9.12011e+06	28.6805
9.17276e+06	28.689
9.22571e+06	28.6975
9.27897e+06	28.7059
9.33254e+06	28.7144
9.38642e+06	28.7228
9.44061e+06	28.7313
9.49511e+06	28.7397
9.54993e+06	28.7481
9.60506e+06	28.7566
9.66051e+06	28.765
9.71628e+06	28.7734
9.77237e+06	28.7818
9.82879e+06	28.7902
9.88553e+06	28.7986
9.9426e+06	28.807
1e+07	28.8154
