Stopping power dEdx from Ionisation for Ne20[0.0] Z = 10 in G4_Si, process name: ionIoni
E [MeV]	dEdx [MeV/mm]
0.001	32.8817
0.00100577	32.9773
0.00101158	33.0731
0.00101742	33.1692
0.00102329	33.2656
0.0010292	33.3623
0.00103514	33.4593
0.00104112	33.5565
0.00104713	33.654
0.00105317	33.7518
0.00105925	33.8499
0.00106537	33.9483
0.00107152	34.0469
0.00107771	34.1458
0.00108393	34.245
0.00109018	34.3445
0.00109648	34.4443
0.00110281	34.5444
0.00110917	34.6448
0.00111558	34.7454
0.00112202	34.8464
0.0011285	34.9476
0.00113501	35.0491
0.00114156	35.1509
0.00114815	35.253
0.00115478	35.3554
0.00116145	35.4581
0.00116815	35.5611
0.0011749	35.6644
0.00118168	35.768
0.0011885	35.8719
0.00119536	35.9761
0.00120226	36.0806
0.00120921	36.1854
0.00121619	36.2905
0.00122321	36.3959
0.00123027	36.5016
0.00123737	36.6076
0.00124451	36.7139
0.0012517	36.8205
0.00125893	36.9274
0.00126619	37.0347
0.0012735	37.1422
0.00128086	37.25
0.00128825	37.3582
0.00129569	37.4667
0.00130317	37.5755
0.00131069	37.6846
0.00131826	37.794
0.00132587	37.9037
0.00133352	38.0137
0.00134122	38.1241
0.00134896	38.2348
0.00135675	38.3458
0.00136458	38.4571
0.00137246	38.5687
0.00138038	38.6807
0.00138835	38.793
0.00139637	38.9056
0.00140443	39.0185
0.00141254	39.1318
0.00142069	39.2454
0.00142889	39.3593
0.00143714	39.4735
0.00144544	39.5881
0.00145378	39.703
0.00146218	39.8182
0.00147062	39.9338
0.00147911	40.0497
0.00148765	40.1659
0.00149624	40.2825
0.00150487	40.3994
0.00151356	40.5166
0.0015223	40.6342
0.00153109	40.7521
0.00153993	40.8704
0.00154882	40.989
0.00155776	41.1079
0.00156675	41.2272
0.0015758	41.3468
0.00158489	41.4668
0.00159404	41.5871
0.00160325	41.7078
0.0016125	41.8288
0.00162181	41.9501
0.00163117	42.0718
0.00164059	42.1939
0.00165006	42.3163
0.00165959	42.4391
0.00166917	42.5622
0.0016788	42.6857
0.0016885	42.8095
0.00169824	42.9337
0.00170805	43.0582
0.00171791	43.1831
0.00172783	43.3084
0.0017378	43.434
0.00174783	43.56
0.00175792	43.6863
0.00176807	43.8131
0.00177828	43.9401
0.00178855	44.0676
0.00179887	44.1954
0.00180926	44.3236
0.0018197	44.4521
0.00183021	44.581
0.00184077	44.7103
0.0018514	44.84
0.00186209	44.97
0.00187284	45.1004
0.00188365	45.2312
0.00189452	45.3624
0.00190546	45.4939
0.00191646	45.6259
0.00192752	45.7582
0.00193865	45.8908
0.00194984	46.0239
0.0019611	46.1574
0.00197242	46.2912
0.00198381	46.4254
0.00199526	46.56
0.00200678	46.695
0.00201837	46.8304
0.00203002	46.9662
0.00204174	47.1024
0.00205353	47.2389
0.00206538	47.3759
0.0020773	47.5132
0.0020893	47.651
0.00210136	47.7891
0.00211349	47.9276
0.00212569	48.0666
0.00213796	48.2059
0.0021503	48.3456
0.00216272	48.4858
0.0021752	48.6263
0.00218776	48.7673
0.00220039	48.9086
0.00221309	49.0504
0.00222587	49.1926
0.00223872	49.3352
0.00225165	49.4782
0.00226464	49.6216
0.00227772	49.7654
0.00229087	49.9096
0.00230409	50.0543
0.00231739	50.1993
0.00233077	50.3448
0.00234423	50.4907
0.00235776	50.6371
0.00237137	50.7838
0.00238506	50.931
0.00239883	51.0786
0.00241268	51.2266
0.00242661	51.375
0.00244062	51.5239
0.00245471	51.6732
0.00246888	51.823
0.00248313	51.9731
0.00249747	52.1237
0.00251189	52.2747
0.00252639	52.4262
0.00254097	52.5781
0.00255564	52.7305
0.0025704	52.8832
0.00258523	53.0365
0.00260016	53.1901
0.00261517	53.3442
0.00263027	53.4988
0.00264545	53.6538
0.00266073	53.8092
0.00267609	53.9651
0.00269153	54.1215
0.00270707	54.2782
0.0027227	54.4355
0.00273842	54.5932
0.00275423	54.7513
0.00277013	54.9099
0.00278612	55.069
0.00280221	55.2285
0.00281838	55.3885
0.00283465	55.549
0.00285102	55.7099
0.00286748	55.8712
0.00288403	56.0331
0.00290068	56.1954
0.00291743	56.3581
0.00293427	56.5214
0.00295121	56.6851
0.00296825	56.8493
0.00298538	57.0139
0.00300262	57.179
0.00301995	57.3446
0.00303739	57.5107
0.00305492	57.6773
0.00307256	57.8443
0.0030903	58.0118
0.00310814	58.1798
0.00312608	58.3483
0.00314413	58.5173
0.00316228	58.6868
0.00318053	58.8567
0.0031989	59.0272
0.00321736	59.1981
0.00323594	59.3695
0.00325462	59.5414
0.00327341	59.7138
0.0032923	59.8868
0.00331131	60.0602
0.00333043	60.2341
0.00334965	60.4085
0.00336899	60.5834
0.00338844	60.7588
0.003408	60.9347
0.00342768	61.1112
0.00344747	61.2881
0.00346737	61.4655
0.00348739	61.6435
0.00350752	61.822
0.00352777	62.001
0.00354813	62.1805
0.00356862	62.3605
0.00358922	62.541
0.00360994	62.7221
0.00363078	62.9037
0.00365174	63.0858
0.00367282	63.2684
0.00369403	63.4516
0.00371535	63.6352
0.0037368	63.8194
0.00375837	64.0042
0.00378007	64.1895
0.00380189	64.3753
0.00382384	64.5616
0.00384592	64.7485
0.00386812	64.9359
0.00389045	65.1239
0.00391291	65.3124
0.0039355	65.5014
0.00395822	65.691
0.00398107	65.8812
0.00400405	66.0719
0.00402717	66.2631
0.00405042	66.4549
0.0040738	66.6472
0.00409732	66.8401
0.00412098	67.0336
0.00414477	67.2276
0.00416869	67.4221
0.00419276	67.6173
0.00421697	67.813
0.00424131	68.0092
0.0042658	68.206
0.00429042	68.4034
0.00431519	68.6014
0.0043401	68.7999
0.00436516	68.999
0.00439036	69.1987
0.0044157	69.3989
0.0044412	69.5998
0.00446684	69.8012
0.00449262	70.0031
0.00451856	70.2057
0.00454465	70.4089
0.00457088	70.6126
0.00459727	70.8169
0.00462381	71.0218
0.0046505	71.2273
0.00467735	71.4334
0.00470435	71.6401
0.00473151	71.8474
0.00475883	72.0553
0.0047863	72.2638
0.00481393	72.4729
0.00484172	72.6826
0.00486968	72.8928
0.00489779	73.1037
0.00492606	73.3152
0.0049545	73.5274
0.0049831	73.7401
0.00501187	73.9534
0.00504081	74.1674
0.00506991	74.382
0.00509918	74.5971
0.00512861	74.813
0.00515822	75.0294
0.005188	75.2464
0.00521795	75.4641
0.00524807	75.6824
0.00527837	75.9014
0.00530884	76.1209
0.00533949	76.3411
0.00537032	76.562
0.00540132	76.7834
0.0054325	77.0056
0.00546387	77.2283
0.00549541	77.4517
0.00552713	77.6757
0.00555904	77.9004
0.00559114	78.1257
0.00562341	78.3517
0.00565588	78.5784
0.00568853	78.8056
0.00572137	79.0336
0.0057544	79.2622
0.00578762	79.4914
0.00582103	79.7214
0.00585464	79.9519
0.00588844	80.1832
0.00592243	80.4151
0.00595662	80.6477
0.00599101	80.8809
0.0060256	81.1148
0.00606038	81.3494
0.00609537	81.5847
0.00613056	81.8207
0.00616595	82.0573
0.00620155	82.2946
0.00623735	82.5326
0.00627336	82.7713
0.00630957	83.0106
0.006346	83.2507
0.00638263	83.4915
0.00641948	83.7329
0.00645654	83.975
0.00649382	84.2179
0.00653131	84.4614
0.00656901	84.7057
0.00660693	84.9506
0.00664508	85.1963
0.00668344	85.4426
0.00672202	85.6897
0.00676083	85.9375
0.00679986	86.186
0.00683912	86.4352
0.0068786	86.6851
0.00691831	86.9358
0.00695825	87.1871
0.00699842	87.4392
0.00703882	87.6921
0.00707946	87.9456
0.00712033	88.1999
0.00716143	88.4549
0.00720278	88.7107
0.00724436	88.9672
0.00728618	89.2244
0.00732825	89.4824
0.00737055	89.7411
0.0074131	90.0005
0.0074559	90.2607
0.00749894	90.5217
0.00754223	90.7834
0.00758578	91.0459
0.00762957	91.3091
0.00767361	91.5731
0.00771792	91.8378
0.00776247	92.1033
0.00780728	92.3696
0.00785236	92.6366
0.00789769	92.9044
0.00794328	93.173
0.00798914	93.4424
0.00803526	93.7125
0.00808165	93.9834
0.00812831	94.2551
0.00817523	94.5276
0.00822243	94.8008
0.0082699	95.0749
0.00831764	95.3497
0.00836566	95.6253
0.00841395	95.9017
0.00846253	96.179
0.00851138	96.457
0.00856052	96.7358
0.00860994	97.0154
0.00865964	97.2958
0.00870964	97.5771
0.00875992	97.8591
0.00881049	98.142
0.00886135	98.4257
0.00891251	98.7101
0.00896396	98.9955
0.00901571	99.2816
0.00906776	99.5686
0.00912011	99.8563
0.00917276	100.145
0.00922571	100.434
0.00927897	100.725
0.00933254	101.016
0.00938642	101.308
0.00944061	101.601
0.00949511	101.894
0.00954993	102.189
0.00960506	102.484
0.00966051	102.78
0.00971628	103.077
0.00977237	103.375
0.00982879	103.674
0.00988553	103.974
0.0099426	104.274
0.01	104.575
0.0100577	104.878
0.0101158	105.181
0.0101742	105.485
0.0102329	105.789
0.010292	106.095
0.0103514	106.402
0.0104112	106.709
0.0104713	107.018
0.0105317	107.327
0.0105925	107.637
0.0106537	107.948
0.0107152	108.26
0.0107771	108.573
0.0108393	108.887
0.0109018	109.201
0.0109648	109.517
0.0110281	110.108
0.0110917	110.425
0.0111558	110.744
0.0112202	111.063
0.011285	111.383
0.0113501	111.704
0.0114156	112.026
0.0114815	112.349
0.0115478	112.673
0.0116145	112.998
0.0116815	113.323
0.011749	113.65
0.0118168	113.978
0.011885	114.306
0.0119536	114.636
0.0120226	114.966
0.0120921	115.297
0.0121619	115.63
0.0122321	115.963
0.0123027	116.297
0.0123737	116.632
0.0124451	116.969
0.012517	117.306
0.0125893	117.644
0.0126619	117.983
0.012735	118.323
0.0128086	118.664
0.0128825	119.006
0.0129569	119.349
0.0130317	119.693
0.0131069	120.038
0.0131826	120.384
0.0132587	120.731
0.0133352	121.079
0.0134122	121.428
0.0134896	121.778
0.0135675	122.129
0.0136458	122.481
0.0137246	122.834
0.0138038	123.188
0.0138835	123.543
0.0139637	123.899
0.0140443	124.257
0.0141254	124.615
0.0142069	124.974
0.0142889	125.334
0.0143714	125.695
0.0144544	126.058
0.0145378	126.421
0.0146218	126.785
0.0147062	127.151
0.0147911	127.517
0.0148765	127.885
0.0149624	128.254
0.0150487	128.623
0.0151356	128.994
0.015223	129.366
0.0153109	129.739
0.0153993	130.113
0.0154882	130.488
0.0155776	130.864
0.0156675	131.241
0.015758	131.619
0.0158489	131.999
0.0159404	132.379
0.0160325	132.761
0.016125	133.143
0.0162181	133.527
0.0163117	133.912
0.0164059	134.298
0.0165006	134.685
0.0165959	135.073
0.0166917	135.463
0.016788	135.853
0.016885	136.245
0.0169824	136.637
0.0170805	137.031
0.0171791	137.426
0.0172783	137.822
0.017378	138.22
0.0174783	138.618
0.0175792	139.017
0.0176807	139.418
0.0177828	139.82
0.0178855	140.223
0.0179887	140.627
0.0180926	141.033
0.018197	141.439
0.0183021	141.847
0.0184077	142.256
0.018514	142.666
0.0186209	143.077
0.0187284	143.489
0.0188365	143.903
0.0189452	144.318
0.0190546	144.734
0.0191646	145.151
0.0192752	145.569
0.0193865	145.989
0.0194984	146.41
0.019611	146.832
0.0197242	147.255
0.0198381	147.679
0.0199526	148.105
0.0200678	148.532
0.0201837	148.96
0.0203002	149.389
0.0204174	149.82
0.0205353	150.252
0.0206538	150.685
0.020773	151.119
0.020893	151.555
0.0210136	151.992
0.0211349	152.43
0.0212569	152.869
0.0213796	153.31
0.021503	153.751
0.0216272	154.195
0.021752	154.639
0.0218776	155.085
0.0220039	155.532
0.0221309	155.98
0.0222587	156.43
0.0223872	156.881
0.0225165	157.333
0.0226464	157.786
0.0227772	158.241
0.0229087	158.697
0.0230409	159.155
0.0231739	159.613
0.0233077	160.073
0.0234423	160.535
0.0235776	160.998
0.0237137	161.462
0.0238506	161.927
0.0239883	162.394
0.0241268	162.862
0.0242661	163.331
0.0244062	163.802
0.0245471	164.274
0.0246888	164.748
0.0248313	165.223
0.0249747	165.699
0.0251189	166.176
0.0252639	166.655
0.0254097	167.136
0.0255564	167.617
0.025704	168.101
0.0258523	168.585
0.0260016	169.071
0.0261517	169.558
0.0263027	170.047
0.0264545	170.537
0.0266073	171.029
0.0267609	171.522
0.0269153	172.016
0.0270707	172.512
0.027227	173.009
0.0273842	173.508
0.0275423	174.008
0.0277013	174.51
0.0278612	175.013
0.0280221	175.517
0.0281838	176.023
0.0283465	176.53
0.0285102	177.039
0.0286748	177.549
0.0288403	178.061
0.0290068	178.574
0.0291743	179.089
0.0293427	179.605
0.0295121	180.123
0.0296825	180.642
0.0298538	181.163
0.0300262	181.685
0.0301995	182.209
0.0303739	182.734
0.0305492	183.261
0.0307256	183.789
0.030903	184.319
0.0310814	184.85
0.0312608	185.383
0.0314413	185.917
0.0316228	186.453
0.0318053	186.99
0.031989	187.529
0.0321736	188.07
0.0323594	188.612
0.0325462	189.156
0.0327341	189.701
0.032923	190.248
0.0331131	190.796
0.0333043	191.346
0.0334965	191.898
0.0336899	192.451
0.0338844	193.005
0.03408	193.562
0.0342768	194.12
0.0344747	194.679
0.0346737	195.24
0.0348739	195.803
0.0350752	196.367
0.0352777	196.933
0.0354813	197.501
0.0356862	198.07
0.0358922	198.641
0.0360994	199.214
0.0363078	199.788
0.0365174	200.364
0.0367282	200.941
0.0369403	201.521
0.0371535	202.101
0.037368	202.684
0.0375837	203.268
0.0378007	203.854
0.0380189	204.442
0.0382384	205.031
0.0384592	205.622
0.0386812	206.215
0.0389045	206.809
0.0391291	207.405
0.039355	208.003
0.0395822	208.602
0.0398107	209.204
0.0400405	209.807
0.0402717	210.411
0.0405042	211.018
0.040738	211.626
0.0409732	212.236
0.0412098	212.848
0.0414477	213.461
0.0416869	214.077
0.0419276	214.694
0.0421697	215.313
0.0424131	215.933
0.042658	216.556
0.0429042	217.18
0.0431519	217.806
0.043401	218.434
0.0436516	219.063
0.0439036	219.695
0.044157	220.328
0.044412	220.963
0.0446684	221.6
0.0449262	222.239
0.0451856	222.879
0.0454465	223.522
0.0457088	224.166
0.0459727	224.812
0.0462381	225.46
0.046505	226.11
0.0467735	226.761
0.0470435	227.415
0.0473151	228.071
0.0475883	228.728
0.047863	229.387
0.0481393	230.048
0.0484172	230.712
0.0486968	231.377
0.0489779	232.043
0.0492606	232.712
0.049545	233.383
0.049831	234.056
0.0501187	234.73
0.0504081	235.407
0.0506991	236.086
0.0509918	236.766
0.0512861	237.448
0.0515822	238.133
0.05188	238.819
0.0521795	239.508
0.0524807	240.198
0.0527837	240.89
0.0530884	241.585
0.0533949	242.281
0.0537032	242.979
0.0540132	243.68
0.054325	244.382
0.0546387	245.086
0.0549541	245.793
0.0552713	246.501
0.0555904	247.212
0.0559114	247.924
0.0562341	248.639
0.0565588	249.356
0.0568853	250.074
0.0572137	250.795
0.057544	251.518
0.0578762	252.243
0.0582103	252.97
0.0585464	253.699
0.0588844	254.431
0.0592243	255.164
0.0595662	255.899
0.0599101	256.637
0.060256	257.377
0.0606038	258.119
0.0609537	258.863
0.0613056	259.609
0.0616595	260.357
0.0620155	261.107
0.0623735	261.86
0.0627336	262.615
0.0630957	263.372
0.06346	264.131
0.0638263	264.892
0.0641948	265.656
0.0645654	266.422
0.0649382	267.189
0.0653131	267.96
0.0656901	268.732
0.0660693	269.507
0.0664508	270.283
0.0668344	271.062
0.0672202	271.844
0.0676083	272.627
0.0679986	273.413
0.0683912	274.201
0.068786	274.992
0.0691831	275.784
0.0695825	276.579
0.0699842	277.376
0.0703882	278.176
0.0707946	278.978
0.0712033	279.782
0.0716143	280.588
0.0720278	281.397
0.0724436	282.208
0.0728618	283.021
0.0732825	283.837
0.0737055	284.655
0.074131	285.476
0.074559	286.299
0.0749894	287.124
0.0754223	287.951
0.0758578	288.781
0.0762957	289.614
0.0767361	290.449
0.0771792	291.286
0.0776247	292.125
0.0780728	292.967
0.0785236	293.812
0.0789769	294.659
0.0794328	295.508
0.0798914	296.36
0.0803526	297.214
0.0808165	298.071
0.0812831	298.93
0.0817523	299.792
0.0822243	300.656
0.082699	301.522
0.0831764	302.391
0.0836566	303.263
0.0841395	304.137
0.0846253	305.014
0.0851138	305.893
0.0856052	306.775
0.0860994	307.659
0.0865964	308.546
0.0870964	309.435
0.0875992	310.327
0.0881049	311.221
0.0886135	312.118
0.0891251	313.018
0.0896396	313.92
0.0901571	314.825
0.0906776	315.733
0.0912011	316.643
0.0917276	317.555
0.0922571	318.471
0.0927897	319.389
0.0933254	320.309
0.0938642	321.232
0.0944061	322.158
0.0949511	323.087
0.0954993	324.018
0.0960506	324.952
0.0966051	325.889
0.0971628	326.828
0.0977237	327.77
0.0982879	328.715
0.0988553	329.662
0.099426	330.613
0.1	331.565
0.100577	332.521
0.101158	333.48
0.101742	334.441
0.102329	335.405
0.10292	336.372
0.103514	337.341
0.104112	338.313
0.104713	339.289
0.105317	340.267
0.105925	341.247
0.106537	342.231
0.107152	343.217
0.107771	344.207
0.108393	345.199
0.109018	346.194
0.109648	347.192
0.110281	348.192
0.110917	349.196
0.111558	350.203
0.112202	351.212
0.11285	352.224
0.113501	353.24
0.114156	354.258
0.114815	355.279
0.115478	356.303
0.116145	357.33
0.116815	358.36
0.11749	359.393
0.118168	360.429
0.11885	361.468
0.119536	362.509
0.120226	363.554
0.120921	364.602
0.121619	365.653
0.122321	366.707
0.123027	367.764
0.123737	368.824
0.124451	369.887
0.12517	370.953
0.125893	372.023
0.126619	373.095
0.12735	374.17
0.128086	375.249
0.128825	376.33
0.129569	377.415
0.130317	378.503
0.131069	379.594
0.131826	380.688
0.132587	381.785
0.133352	382.886
0.134122	383.989
0.134896	385.096
0.135675	386.206
0.136458	387.319
0.137246	388.436
0.138038	389.555
0.138835	390.678
0.139637	391.804
0.140443	392.934
0.141254	394.066
0.142069	395.202
0.142889	396.341
0.143714	397.484
0.144544	398.629
0.145378	399.778
0.146218	400.931
0.147062	402.086
0.147911	403.245
0.148765	404.408
0.149624	405.573
0.150487	406.742
0.151356	407.915
0.15223	409.09
0.153109	410.27
0.153993	411.452
0.154882	412.638
0.155776	413.827
0.156675	415.02
0.15758	416.217
0.158489	417.416
0.159404	418.619
0.160325	419.826
0.16125	421.036
0.162181	422.25
0.163117	423.467
0.164059	424.687
0.165006	425.911
0.165959	427.139
0.166917	428.37
0.16788	429.605
0.16885	430.843
0.169824	432.085
0.170805	433.331
0.171791	434.58
0.172783	435.832
0.17378	437.088
0.174783	438.348
0.175792	439.612
0.176807	440.879
0.177828	442.15
0.178855	443.424
0.179887	444.702
0.180926	445.984
0.18197	447.27
0.183021	448.559
0.184077	449.852
0.18514	451.148
0.186209	452.449
0.187284	453.753
0.188365	455.061
0.189452	456.372
0.190546	457.688
0.191646	459.007
0.192752	460.33
0.193865	461.657
0.194984	462.988
0.19611	464.322
0.197242	465.66
0.198381	467.003
0.199526	468.349
0.200678	469.699
0.201837	471.053
0.203002	472.41
0.204174	473.772
0.205353	475.138
0.206538	476.507
0.20773	477.881
0.20893	479.258
0.210136	480.639
0.211349	482.025
0.212569	483.414
0.213796	484.807
0.21503	486.205
0.216272	487.606
0.21752	489.012
0.218776	490.421
0.220039	491.835
0.221309	493.253
0.222587	494.674
0.223872	496.1
0.225165	497.53
0.226464	498.964
0.227772	500.402
0.229087	501.845
0.230409	503.291
0.231739	504.742
0.233077	506.197
0.234423	507.656
0.235776	509.119
0.237137	510.586
0.238506	512.058
0.239883	513.534
0.241268	515.014
0.242661	516.499
0.244062	517.988
0.245471	519.481
0.246888	520.978
0.248313	522.48
0.249747	523.986
0.251189	525.496
0.252639	527.011
0.254097	528.53
0.255564	530.053
0.25704	531.581
0.258523	533.113
0.260016	534.65
0.261517	536.191
0.263027	537.736
0.264545	539.286
0.266073	540.841
0.267609	542.4
0.269153	543.963
0.270707	545.531
0.27227	547.103
0.273842	548.68
0.275423	550.262
0.277013	551.848
0.278612	553.438
0.280221	555.034
0.281838	556.633
0.283465	558.238
0.285102	559.847
0.286748	561.461
0.288403	563.079
0.290068	564.702
0.291743	566.33
0.293427	567.962
0.295121	569.599
0.296825	571.241
0.298538	572.887
0.300262	574.539
0.301995	576.195
0.303739	577.856
0.305492	579.521
0.307256	581.192
0.30903	582.867
0.310814	584.547
0.312608	586.232
0.314413	587.921
0.316228	589.616
0.318053	591.316
0.31989	593.02
0.321736	594.729
0.323594	596.444
0.325462	598.163
0.327341	599.887
0.32923	601.616
0.331131	603.35
0.333043	605.089
0.334965	606.833
0.336899	608.582
0.338844	610.336
0.3408	612.096
0.342768	613.86
0.344747	615.629
0.346737	617.404
0.348739	619.183
0.350752	620.968
0.352777	622.758
0.354813	624.553
0.356862	626.353
0.358922	628.159
0.360994	629.969
0.363078	631.785
0.365174	633.606
0.367282	635.432
0.369403	637.264
0.371535	639.101
0.37368	640.943
0.375837	642.79
0.378007	644.643
0.380189	646.501
0.382384	648.365
0.384592	650.233
0.386812	652.108
0.389045	653.987
0.391291	655.872
0.39355	657.763
0.395822	659.659
0.398107	661.56
0.400405	663.467
0.402717	665.379
0.405042	667.297
0.40738	669.221
0.409732	671.15
0.412098	673.084
0.414477	675.024
0.416869	676.97
0.419276	678.921
0.421697	680.878
0.424131	682.841
0.42658	684.809
0.429042	686.783
0.431519	688.762
0.43401	690.747
0.436516	692.738
0.439036	694.735
0.44157	696.738
0.44412	698.746
0.446684	700.76
0.449262	702.78
0.451856	704.806
0.454465	706.837
0.457088	708.874
0.459727	710.918
0.462381	712.967
0.46505	715.022
0.467735	717.083
0.470435	719.15
0.473151	721.223
0.475883	723.301
0.47863	725.386
0.481393	727.477
0.484172	729.574
0.486968	731.677
0.489779	733.786
0.492606	735.901
0.49545	738.022
0.49831	740.149
0.501187	742.401
0.504081	744.831
0.506991	747.275
0.509918	749.73
0.512861	752.199
0.515822	754.68
0.5188	757.174
0.521795	759.68
0.524807	762.2
0.527837	764.732
0.530884	767.277
0.533949	769.836
0.537032	772.407
0.540132	774.992
0.54325	777.59
0.546387	780.201
0.549541	782.825
0.552713	785.463
0.555904	788.114
0.559114	790.778
0.562341	793.457
0.565588	796.148
0.568853	798.854
0.572137	801.573
0.57544	804.306
0.578762	807.052
0.582103	809.813
0.585464	812.587
0.588844	815.376
0.592243	818.179
0.595662	820.995
0.599101	823.826
0.60256	826.603
0.606038	829.37
0.609537	832.151
0.613056	834.946
0.616595	837.755
0.620155	840.578
0.623735	843.415
0.627336	846.266
0.630957	849.131
0.6346	852.01
0.638263	854.903
0.641948	857.811
0.645654	860.733
0.649382	863.67
0.653131	866.621
0.656901	869.587
0.660693	872.567
0.664508	875.562
0.668344	878.571
0.672202	881.596
0.676083	884.635
0.679986	887.689
0.683912	890.758
0.68786	893.842
0.691831	896.941
0.695825	900.055
0.699842	903.184
0.703882	906.329
0.707946	909.488
0.712033	912.663
0.716143	915.854
0.720278	919.059
0.724436	922.281
0.728618	925.518
0.732825	928.77
0.737055	932.038
0.74131	935.322
0.74559	938.621
0.749894	941.937
0.754223	945.268
0.758578	948.615
0.762957	951.978
0.767361	955.358
0.771792	958.753
0.776247	962.164
0.780728	965.592
0.785236	969.036
0.789769	972.496
0.794328	975.973
0.798914	979.466
0.803526	982.956
0.808165	986.458
0.812831	989.975
0.817523	993.509
0.822243	997.059
0.82699	1000.63
0.831764	1004.21
0.836566	1007.81
0.841395	1011.42
0.846253	1015.05
0.851138	1018.7
0.856052	1022.36
0.860994	1026.04
0.865964	1029.74
0.870964	1033.45
0.875992	1037.18
0.881049	1040.92
0.886135	1044.68
0.891251	1048.45
0.896396	1052.24
0.901571	1056.05
0.906776	1059.87
0.912011	1063.7
0.917276	1067.56
0.922571	1071.42
0.927897	1075.3
0.933254	1079.2
0.938642	1083.11
0.944061	1087.04
0.949511	1090.98
0.954993	1094.94
0.960506	1098.91
0.966051	1102.89
0.971628	1106.89
0.977237	1110.9
0.982879	1114.93
0.988553	1118.97
0.99426	1123.03
1	1127.09
1.00577	1131.17
1.01158	1135.27
1.01742	1139.37
1.02329	1143.49
1.0292	1147.62
1.03514	1151.77
1.04112	1155.92
1.04713	1160.09
1.05317	1164.27
1.05925	1168.46
1.06537	1172.67
1.07152	1176.88
1.07771	1181.1
1.08393	1185.34
1.09018	1189.58
1.09648	1193.83
1.10281	1198.1
1.10917	1202.37
1.11558	1206.65
1.12202	1210.94
1.1285	1215.24
1.13501	1219.55
1.14156	1223.86
1.14815	1228.18
1.15478	1232.51
1.16145	1236.84
1.16815	1241.18
1.1749	1245.53
1.18168	1249.88
1.1885	1254.24
1.19536	1258.6
1.20226	1262.96
1.20921	1267.33
1.21619	1271.7
1.22321	1276.07
1.23027	1280.44
1.23737	1284.82
1.24451	1289.2
1.2517	1293.59
1.25893	1297.97
1.26619	1302.36
1.2735	1306.74
1.28086	1311.13
1.28825	1315.52
1.29569	1319.91
1.30317	1324.3
1.31069	1328.69
1.31826	1333.08
1.32587	1337.47
1.33352	1341.86
1.34122	1346.24
1.34896	1350.63
1.35675	1355.01
1.36458	1359.39
1.37246	1363.77
1.38038	1368.15
1.38835	1372.52
1.39637	1376.89
1.40443	1381.25
1.41254	1385.61
1.42069	1389.97
1.42889	1394.32
1.43714	1398.67
1.44544	1403.02
1.45378	1407.36
1.46218	1411.69
1.47062	1416.02
1.47911	1420.34
1.48765	1424.66
1.49624	1428.97
1.50487	1433.27
1.51356	1437.57
1.5223	1441.86
1.53109	1446.15
1.53993	1450.43
1.54882	1454.7
1.55776	1458.97
1.56675	1463.23
1.5758	1467.48
1.58489	1471.72
1.59404	1475.96
1.60325	1480.19
1.6125	1484.41
1.62181	1488.62
1.63117	1492.82
1.64059	1497.02
1.65006	1501.21
1.65959	1505.39
1.66917	1509.56
1.6788	1513.72
1.6885	1517.87
1.69824	1522.01
1.70805	1526.15
1.71791	1530.27
1.72783	1534.39
1.7378	1538.49
1.74783	1542.59
1.75792	1546.68
1.76807	1550.75
1.77828	1554.82
1.78855	1558.88
1.79887	1562.93
1.80926	1566.96
1.8197	1570.99
1.83021	1575.01
1.84077	1579.02
1.8514	1583.02
1.86209	1587.01
1.87284	1590.98
1.88365	1594.95
1.89452	1598.91
1.90546	1602.86
1.91646	1606.8
1.92752	1610.73
1.93865	1614.65
1.94984	1618.55
1.9611	1622.45
1.97242	1626.34
1.98381	1630.23
1.99526	1634.1
2.00678	1637.96
2.01837	1641.82
2.03002	1645.67
2.04174	1649.51
2.05353	1653.34
2.06538	1657.16
2.0773	1660.98
2.0893	1664.78
2.10136	1668.57
2.11349	1672.35
2.12569	1676.12
2.13796	1679.87
2.1503	1683.62
2.16272	1687.36
2.1752	1691.08
2.18776	1694.8
2.20039	1698.5
2.21309	1702.19
2.22587	1705.87
2.23872	1709.53
2.25165	1713.19
2.26464	1716.83
2.27772	1720.46
2.29087	1724.07
2.30409	1727.68
2.31739	1731.27
2.33077	1734.85
2.34423	1738.42
2.35776	1741.97
2.37137	1745.51
2.38506	1749.04
2.39883	1752.55
2.41268	1756.05
2.42661	1759.54
2.44062	1763.01
2.45471	1766.48
2.46888	1769.92
2.48313	1773.36
2.49747	1776.78
2.51189	1780.19
2.52639	1783.58
2.54097	1786.96
2.55564	1790.33
2.5704	1793.69
2.58523	1797.03
2.60016	1800.36
2.61517	1803.67
2.63027	1806.97
2.64545	1810.26
2.66073	1813.54
2.67609	1816.8
2.69153	1820.05
2.70707	1823.29
2.7227	1826.52
2.73842	1829.73
2.75423	1832.94
2.77013	1836.13
2.78612	1839.31
2.80221	1842.47
2.81838	1845.63
2.83465	1848.78
2.85102	1851.91
2.86748	1855.04
2.88403	1858.15
2.90068	1861.26
2.91743	1864.35
2.93427	1867.44
2.95121	1870.52
2.96825	1873.59
2.98538	1876.65
3.00262	1879.7
3.01995	1882.67
3.03739	1885.64
3.05492	1888.6
3.07256	1891.55
3.0903	1894.49
3.10814	1897.43
3.12608	1900.35
3.14413	1903.27
3.16228	1906.18
3.18053	1909.08
3.1989	1911.98
3.21736	1914.86
3.23594	1917.73
3.25462	1920.6
3.27341	1923.45
3.2923	1926.3
3.31131	1929.14
3.33043	1931.96
3.34965	1934.78
3.36899	1937.59
3.38844	1940.38
3.408	1943.17
3.42768	1945.94
3.44747	1948.7
3.46737	1951.46
3.48739	1954.2
3.50752	1956.93
3.52777	1959.65
3.54813	1962.36
3.56862	1965.05
3.58922	1967.74
3.60994	1970.41
3.63078	1973.08
3.65174	1975.73
3.67282	1978.36
3.69403	1980.99
3.71535	1983.61
3.7368	1986.21
3.75837	1988.8
3.78007	1991.37
3.80189	1993.94
3.82384	1996.49
3.84592	1999.03
3.86812	2001.56
3.89045	2004.08
3.91291	2006.58
3.9355	2009.07
3.95822	2011.55
3.98107	2014.01
4.00405	2016.47
4.02717	2018.92
4.05042	2021.36
4.0738	2023.79
4.09732	2026.21
4.12098	2028.61
4.14477	2031
4.16869	2033.38
4.19276	2035.74
4.21697	2038.09
4.24131	2040.43
4.2658	2042.76
4.29042	2045.07
4.31519	2047.37
4.3401	2049.65
4.36516	2051.92
4.39036	2054.18
4.4157	2056.43
4.4412	2058.66
4.46684	2060.88
4.49262	2063.09
4.51856	2065.28
4.54465	2067.46
4.57088	2069.63
4.59727	2071.78
4.62381	2073.92
4.6505	2076.05
4.67735	2078.17
4.70435	2080.27
4.73151	2082.36
4.75883	2084.44
4.7863	2086.51
4.81393	2088.57
4.84172	2090.61
4.86968	2092.64
4.89779	2094.66
4.92606	2096.67
4.9545	2098.67
4.9831	2100.66
5.01187	2102.63
5.04081	2104.6
5.06991	2106.56
5.09918	2108.51
5.12861	2110.44
5.15822	2112.37
5.188	2114.28
5.21795	2116.18
5.24807	2118.08
5.27837	2119.96
5.30884	2121.83
5.33949	2123.69
5.37032	2125.53
5.40132	2127.37
5.4325	2129.19
5.46387	2131
5.49541	2132.8
5.52713	2134.59
5.55904	2136.36
5.59114	2138.13
5.62341	2139.88
5.65588	2141.62
5.68853	2143.35
5.72137	2145.06
5.7544	2146.76
5.78762	2148.45
5.82103	2150.13
5.85464	2151.8
5.88844	2153.45
5.92243	2155.09
5.95662	2156.72
5.99101	2158.33
6.0256	2159.94
6.06038	2161.53
6.09537	2163.11
6.13056	2164.68
6.16595	2166.24
6.20155	2167.78
6.23735	2169.31
6.27336	2170.82
6.30957	2172.32
6.346	2173.81
6.38263	2175.29
6.41948	2176.75
6.45654	2178.19
6.49382	2179.63
6.53131	2181.04
6.56901	2182.45
6.60693	2183.84
6.64508	2185.21
6.68344	2186.57
6.72202	2187.92
6.76083	2189.25
6.79986	2190.56
6.83912	2191.86
6.8786	2193.15
6.91831	2194.42
6.95825	2195.68
6.99842	2196.92
7.03882	2198.14
7.07946	2199.35
7.12033	2200.54
7.16143	2201.72
7.20278	2202.89
7.24436	2204.03
7.28618	2205.17
7.32825	2206.28
7.37055	2207.38
7.4131	2208.47
7.4559	2209.54
7.49894	2210.59
7.54223	2211.63
7.58578	2212.65
7.62957	2213.66
7.67361	2214.65
7.71792	2215.63
7.76247	2216.59
7.80728	2217.54
7.85236	2218.47
7.89769	2219.38
7.94328	2220.28
7.98914	2221.17
8.03526	2222.03
8.08165	2222.87
8.12831	2223.69
8.17523	2224.51
8.22243	2225.3
8.2699	2226.08
8.31764	2226.84
8.36566	2227.59
8.41395	2228.32
8.46253	2229.03
8.51138	2229.73
8.56052	2230.41
8.60994	2231.08
8.65964	2231.73
8.70964	2232.36
8.75992	2232.97
8.81049	2233.57
8.86135	2234.15
8.91251	2234.71
8.96396	2235.25
9.01571	2235.78
9.06776	2236.29
9.12011	2236.78
9.17276	2237.25
9.22571	2237.7
9.27897	2238.13
9.33254	2238.55
9.38642	2238.95
9.44061	2239.32
9.49511	2239.68
9.54993	2240.02
9.60506	2240.34
9.66051	2240.64
9.71628	2240.93
9.77237	2241.19
9.82879	2241.43
9.88553	2241.65
9.9426	2241.86
10	2242.04
10.0577	2242.21
10.1158	2242.35
10.1742	2242.48
10.2329	2242.59
10.292	2242.68
10.3514	2242.74
10.4112	2242.79
10.4713	2242.81
10.5317	2242.82
10.5925	2242.8
10.6537	2242.77
10.7152	2242.71
10.7771	2242.63
10.8393	2242.53
10.9018	2242.41
10.9648	2242.27
11.0281	2242.11
11.0917	2241.92
11.1558	2241.72
11.2202	2241.49
11.285	2241.25
11.3501	2240.98
11.4156	2240.69
11.4815	2240.38
11.5478	2240.05
11.6145	2239.69
11.6815	2239.32
11.749	2238.92
11.8168	2238.51
11.885	2238.07
11.9536	2237.61
12.0226	2237.14
12.0921	2236.64
12.1619	2236.12
12.2321	2235.58
12.3027	2235.02
12.3737	2234.43
12.4451	2233.83
12.517	2233.21
12.5893	2232.56
12.6619	2231.89
12.735	2231.21
12.8086	2230.5
12.8825	2229.77
12.9569	2229.01
13.0317	2228.24
13.1069	2227.45
13.1826	2226.63
13.2587	2225.79
13.3352	2224.93
13.4122	2224.05
13.4896	2223.15
13.5675	2222.23
13.6458	2221.29
13.7246	2220.32
13.8038	2219.34
13.8835	2218.33
13.9637	2217.3
14.0443	2216.26
14.1254	2215.19
14.2069	2214.1
14.2889	2212.99
14.3714	2211.86
14.4544	2210.7
14.5378	2209.53
14.6218	2208.34
14.7062	2207.12
14.7911	2205.89
14.8765	2204.63
14.9624	2203.36
15.0487	2202.06
15.1356	2200.74
15.223	2199.4
15.3109	2198.04
15.3993	2196.66
15.4882	2195.27
15.5776	2193.85
15.6675	2192.41
15.758	2190.95
15.8489	2189.47
15.9404	2187.97
16.0325	2186.45
16.125	2184.91
16.2181	2183.36
16.3117	2181.78
16.4059	2180.18
16.5006	2178.57
16.5959	2176.93
16.6917	2175.28
16.788	2173.6
16.885	2171.91
16.9824	2170.2
17.0805	2168.47
17.1791	2166.72
17.2783	2164.95
17.378	2163.16
17.4783	2161.35
17.5792	2159.52
17.6807	2157.68
17.7828	2155.81
17.8855	2153.93
17.9887	2152.03
18.0926	2150.11
18.197	2148.17
18.3021	2146.21
18.4077	2144.24
18.514	2142.25
18.6209	2140.24
18.7284	2138.21
18.8365	2136.16
18.9452	2134.1
19.0546	2132.02
19.1646	2129.93
19.2752	2127.82
19.3865	2125.69
19.4984	2123.54
19.611	2121.38
19.7242	2119.2
19.8381	2117.01
19.9526	2114.8
20.0678	2112.58
20.1837	2110.35
20.3002	2108.09
20.4174	2105.83
20.5353	2103.55
20.6538	2101.25
20.773	2098.94
20.893	2096.62
21.0136	2094.28
21.1349	2091.92
21.2569	2089.55
21.3796	2087.17
21.503	2084.77
21.6272	2082.35
21.752	2079.92
21.8776	2077.47
22.0039	2075.01
22.1309	2072.54
22.2587	2070.05
22.3872	2067.54
22.5165	2065.02
22.6464	2062.48
22.7772	2059.93
22.9087	2057.37
23.0409	2054.78
23.1739	2052.19
23.3077	2049.58
23.4423	2046.95
23.5776	2044.31
23.7137	2041.66
23.8506	2038.99
23.9883	2036.3
24.1268	2033.6
24.2661	2030.89
24.4062	2028.16
24.5471	2025.41
24.6888	2022.66
24.8313	2019.88
24.9747	2017.1
25.1189	2014.29
25.2639	2011.48
25.4097	2008.65
25.5564	2005.81
25.704	2002.95
25.8523	2000.08
26.0016	1997.2
26.1517	1994.3
26.3027	1991.39
26.4545	1988.46
26.6073	1985.52
26.7609	1982.57
26.9153	1979.61
27.0707	1976.63
27.227	1973.65
27.3842	1970.64
27.5423	1967.63
27.7013	1964.61
27.8612	1961.57
28.0221	1958.52
28.1838	1955.46
28.3465	1952.39
28.5102	1949.31
28.6748	1946.21
28.8403	1943.11
29.0068	1940
29.1743	1936.87
29.3427	1933.74
29.5121	1930.6
29.6825	1927.44
29.8538	1924.28
30.0262	1921.11
30.1995	1917.94
30.3739	1914.75
30.5492	1911.55
30.7256	1908.35
30.903	1905.14
31.0814	1901.92
31.2608	1898.69
31.4413	1895.46
31.6228	1892.21
31.8053	1888.96
31.989	1885.7
32.1736	1882.43
32.3594	1879.16
32.5462	1875.88
32.7341	1872.59
32.923	1869.29
33.1131	1865.98
33.3043	1862.67
33.4965	1859.34
33.6899	1856.02
33.8844	1852.68
34.08	1849.33
34.2768	1845.98
34.4747	1842.62
34.6737	1839.26
34.8739	1835.88
35.0752	1832.5
35.2777	1829.11
35.4813	1825.72
35.6862	1822.32
35.8922	1818.91
36.0994	1815.49
36.3078	1812.07
36.5174	1808.64
36.7282	1805.2
36.9403	1801.76
37.1535	1798.31
37.368	1794.85
37.5837	1791.39
37.8007	1787.92
38.0189	1784.44
38.2384	1780.96
38.4592	1777.47
38.6812	1773.97
38.9045	1770.47
39.1291	1766.96
39.355	1763.45
39.5822	1759.93
39.8107	1756.4
40.0405	1752.87
40.2717	1749.33
40.5042	1745.78
40.738	1742.22
40.9732	1738.66
41.2098	1735.09
41.4477	1731.52
41.6869	1727.94
41.9276	1724.35
42.1697	1720.76
42.4131	1717.17
42.658	1713.57
42.9042	1709.96
43.1519	1706.35
43.401	1702.74
43.6516	1699.12
43.9036	1695.49
44.157	1691.86
44.412	1688.23
44.6684	1684.59
44.9262	1680.94
45.1856	1677.3
45.4465	1673.64
45.7088	1669.98
45.9727	1666.32
46.2381	1662.66
46.505	1658.99
46.7735	1655.31
47.0435	1651.63
47.3151	1647.95
47.5883	1644.27
47.863	1640.58
48.1393	1636.88
48.4172	1633.18
48.6968	1629.48
48.9779	1625.78
49.2606	1622.07
49.545	1618.36
49.831	1614.64
50.1187	1610.93
50.4081	1607.2
50.6991	1603.48
50.9918	1599.75
51.2861	1596.02
51.5822	1592.29
51.88	1588.55
52.1795	1584.81
52.4807	1581.07
52.7837	1577.32
53.0884	1573.58
53.3949	1569.83
53.7032	1566.08
54.0132	1562.32
54.325	1558.57
54.6387	1554.81
54.9541	1551.05
55.2713	1547.28
55.5904	1543.52
55.9114	1539.75
56.2341	1535.98
56.5588	1532.21
56.8853	1528.44
57.2137	1524.67
57.544	1520.89
57.8762	1517.11
58.2103	1513.34
58.5464	1509.56
58.8844	1505.77
59.2243	1501.99
59.5662	1498.21
59.9101	1494.42
60.256	1490.63
60.6038	1486.84
60.9537	1483.05
61.3056	1479.25
61.6595	1475.46
62.0155	1471.66
62.3735	1467.87
62.7336	1464.07
63.0957	1460.27
63.46	1456.47
63.8263	1452.67
64.1948	1448.87
64.5654	1445.07
64.9382	1441.27
65.3131	1437.47
65.6901	1433.67
66.0693	1429.87
66.4508	1426.07
66.8344	1422.27
67.2202	1418.47
67.6083	1414.67
67.9986	1410.87
68.3912	1407.07
68.786	1403.28
69.1831	1399.48
69.5825	1395.68
69.9842	1391.88
70.3882	1388.09
70.7946	1384.29
71.2033	1380.5
71.6143	1376.7
72.0278	1372.91
72.4436	1369.12
72.8618	1365.32
73.2825	1361.53
73.7055	1357.74
74.131	1353.95
74.559	1350.16
74.9894	1346.38
75.4223	1342.59
75.8578	1338.8
76.2957	1335.02
76.7361	1331.23
77.1792	1327.45
77.6247	1323.67
78.0728	1319.89
78.5236	1316.11
78.9769	1312.32
79.4328	1308.54
79.8914	1304.77
80.3526	1301
80.8165	1297.23
81.2831	1293.47
81.7523	1289.71
82.2243	1285.95
82.699	1282.19
83.1764	1278.43
83.6566	1274.68
84.1395	1270.92
84.6253	1267.17
85.1138	1263.41
85.6052	1259.66
86.0994	1255.92
86.5964	1252.17
87.0964	1248.42
87.5992	1244.68
88.1049	1240.94
88.6135	1237.21
89.1251	1233.47
89.6396	1229.74
90.1571	1226.01
90.6776	1222.28
91.2011	1218.56
91.7276	1214.84
92.2571	1211.12
92.7897	1207.41
93.3254	1203.69
93.8642	1199.99
94.4061	1196.28
94.9511	1192.58
95.4993	1188.88
96.0506	1185.19
96.6051	1181.5
97.1628	1177.81
97.7237	1174.13
98.2879	1170.45
98.8553	1166.78
99.426	1163.11
100	1159.44
100.577	1155.77
101.158	1152.11
101.742	1148.45
102.329	1144.79
102.92	1141.14
103.514	1137.5
104.112	1133.85
104.713	1130.22
105.317	1126.58
105.925	1122.96
106.537	1119.33
107.152	1115.71
107.771	1112.1
108.393	1108.49
109.018	1104.89
109.648	1101.29
110.281	1097.69
110.917	1094.1
111.558	1090.52
112.202	1086.94
112.85	1083.37
113.501	1079.8
114.156	1076.23
114.815	1072.67
115.478	1069.12
116.145	1065.57
116.815	1062.02
117.49	1058.49
118.168	1054.95
118.85	1051.42
119.536	1047.89
120.226	1044.37
120.921	1040.86
121.619	1037.34
122.321	1033.84
123.027	1030.33
123.737	1026.84
124.451	1023.34
125.17	1019.86
125.893	1016.38
126.619	1012.9
127.35	1009.43
128.086	1005.96
128.825	1002.5
129.569	999.045
130.317	995.596
131.069	992.152
131.826	988.714
132.587	985.282
133.352	981.856
134.122	978.435
134.896	975.02
135.675	971.612
136.458	968.209
137.246	964.812
138.038	961.421
138.835	958.036
139.637	954.657
140.443	951.284
141.254	947.917
142.069	944.556
142.889	941.201
143.714	937.853
144.544	934.511
145.378	931.175
146.218	927.845
147.062	924.522
147.911	921.205
148.765	917.895
149.624	914.592
150.487	911.295
151.356	908.005
152.23	904.722
153.109	901.445
153.993	898.175
154.882	894.911
155.776	891.655
156.675	888.405
157.58	885.161
158.489	881.925
159.404	878.695
160.325	875.472
161.25	872.255
162.181	869.045
163.117	865.842
164.059	862.645
165.006	859.456
165.959	856.273
166.917	853.098
167.88	849.93
168.85	846.769
169.824	843.615
170.805	840.468
171.791	837.329
172.783	834.197
173.78	831.072
174.783	827.955
175.792	824.846
176.807	821.743
177.828	818.649
178.855	815.561
179.887	812.481
180.926	809.409
181.97	806.344
183.021	803.286
184.077	800.236
185.14	797.193
186.209	794.158
187.284	791.13
188.365	788.11
189.452	785.097
190.546	782.091
191.646	779.092
192.752	776.101
193.865	773.116
194.984	770.139
196.11	767.169
197.242	764.205
198.381	761.249
199.526	758.299
200.678	755.352
201.837	752.41
203.002	749.475
204.174	746.546
205.353	743.624
206.538	740.71
207.73	737.802
208.93	734.902
210.136	732.009
211.349	729.123
212.569	726.245
213.796	723.375
215.03	720.513
216.272	717.658
217.52	714.812
218.776	711.973
220.039	709.143
221.309	706.321
222.587	703.507
223.872	700.702
225.165	697.906
226.464	695.118
227.772	692.339
229.087	689.569
230.409	686.807
231.739	684.054
233.077	681.311
234.423	678.576
235.776	675.851
237.137	673.135
238.506	670.428
239.883	667.73
241.268	665.041
242.661	662.362
244.062	659.692
245.471	657.031
246.888	654.38
248.313	651.738
249.747	649.105
251.189	646.482
252.639	643.868
254.097	641.263
255.564	638.667
257.04	636.081
258.523	633.504
260.016	630.936
261.517	628.377
263.027	625.827
264.545	623.286
266.073	620.754
267.609	618.23
269.153	615.715
270.707	613.209
272.27	610.711
273.842	608.221
275.423	605.739
277.013	603.265
278.612	600.799
280.221	598.34
281.838	595.889
283.465	593.445
285.102	591.008
286.748	588.577
288.403	586.153
290.068	583.736
291.743	581.324
293.427	578.917
295.121	576.516
296.825	574.12
298.538	571.729
300.262	569.35
301.995	567.022
303.739	564.699
305.492	562.38
307.256	560.065
309.03	557.756
310.814	555.451
312.608	553.152
314.413	550.857
316.228	548.568
318.053	546.284
319.89	544.005
321.736	541.732
323.594	539.465
325.462	537.203
327.341	534.948
329.23	532.698
331.131	530.454
333.043	528.217
334.965	525.986
336.899	523.761
338.844	521.543
340.8	519.331
342.768	517.126
344.747	514.928
346.737	512.737
348.739	510.553
350.752	508.375
352.777	506.205
354.813	504.042
356.862	501.887
358.922	499.739
360.994	497.598
363.078	495.465
365.174	493.339
367.282	491.221
369.403	489.111
371.535	487.009
373.68	484.914
375.837	482.828
378.007	480.749
380.189	478.678
382.384	476.616
384.592	474.562
386.812	472.516
389.045	470.478
391.291	468.448
393.55	466.426
395.822	464.413
398.107	462.408
400.405	460.41
402.717	458.411
405.042	456.42
407.38	454.438
409.732	452.464
412.098	450.499
414.477	448.542
416.869	446.594
419.276	444.654
421.697	442.722
424.131	440.799
426.58	438.885
429.042	436.979
431.519	435.082
434.01	433.194
436.516	431.314
439.036	429.442
441.57	427.579
444.12	425.724
446.684	423.878
449.262	422.041
451.856	420.211
454.465	418.39
457.088	416.577
459.727	414.772
462.381	412.976
465.05	411.187
467.735	409.406
470.435	407.633
473.151	405.868
475.883	404.11
478.63	402.36
481.393	400.617
484.172	398.881
486.968	397.152
489.779	395.43
492.606	393.715
495.45	392.006
498.31	390.303
501.187	388.606
504.081	386.914
506.991	385.229
509.918	383.549
512.861	381.876
515.822	380.209
518.8	378.548
521.795	376.893
524.807	375.244
527.837	373.602
530.884	371.966
533.949	370.336
537.032	368.713
540.132	367.096
543.25	365.486
546.387	363.882
549.541	362.284
552.713	360.693
555.904	359.108
559.114	357.53
562.341	355.958
565.588	354.393
568.853	352.834
572.137	351.281
575.44	349.735
578.762	348.195
582.103	346.662
585.464	345.135
588.844	343.614
592.243	342.099
595.662	340.59
599.101	339.088
602.56	337.589
606.038	336.096
609.537	334.608
613.056	333.127
616.595	331.652
620.155	330.183
623.735	328.72
627.336	327.264
630.957	325.814
634.6	324.371
638.263	322.933
641.948	321.503
645.654	320.079
649.382	318.661
653.131	317.25
656.901	315.845
660.693	314.447
664.508	313.056
668.344	311.671
672.202	310.292
676.083	308.921
679.986	307.556
683.912	306.197
687.86	304.845
691.831	303.5
695.825	302.161
699.842	300.828
703.882	299.503
707.946	298.183
712.033	296.87
716.143	295.563
720.278	294.263
724.436	292.969
728.618	291.681
732.825	290.399
737.055	289.123
741.31	287.853
745.59	286.589
749.894	285.331
754.223	284.078
758.578	282.831
762.957	281.59
767.361	280.354
771.792	279.123
776.247	277.897
780.728	276.676
785.236	275.459
789.769	274.248
794.328	273.04
798.914	271.837
803.526	270.646
808.165	269.461
812.831	268.281
817.523	267.104
822.243	265.932
826.99	264.764
831.764	263.6
836.566	262.441
841.395	261.286
846.253	260.136
851.138	258.99
856.052	257.849
860.994	256.712
865.964	255.58
870.964	254.452
875.992	253.33
881.049	252.212
886.135	251.098
891.251	249.99
896.396	248.886
901.571	247.788
906.776	246.694
912.011	245.604
917.276	244.52
922.571	243.441
927.897	242.366
933.254	241.297
938.642	240.232
944.061	239.173
949.511	238.118
954.993	237.068
960.506	236.023
966.051	234.983
971.628	233.948
977.237	232.917
982.879	231.892
988.553	230.871
994.26	229.855
1000	228.844
1005.77	227.835
1011.58	226.831
1017.42	225.832
1023.29	224.838
1029.2	223.848
1035.14	222.863
1041.12	221.883
1047.13	220.907
1053.17	219.937
1059.25	218.971
1065.37	218.01
1071.52	217.053
1077.71	216.102
1083.93	215.155
1090.18	214.213
1096.48	213.276
1102.81	212.343
1109.17	211.415
1115.58	210.491
1122.02	209.573
1128.5	208.658
1135.01	207.748
1141.56	206.843
1148.15	205.942
1154.78	205.046
1161.45	204.153
1168.15	203.265
1174.9	202.381
1181.68	201.501
1188.5	200.625
1195.36	199.753
1202.26	198.885
1209.21	198.02
1216.19	197.159
1223.21	196.302
1230.27	195.449
1237.37	194.599
1244.51	193.754
1251.7	192.912
1258.93	192.074
1266.19	191.24
1273.5	190.41
1280.86	189.583
1288.25	188.761
1295.69	187.942
1303.17	187.127
1310.69	186.317
1318.26	185.51
1325.87	184.706
1333.52	183.907
1341.22	183.112
1348.96	182.32
1356.75	181.532
1364.58	180.748
1372.46	179.967
1380.38	179.191
1388.35	178.418
1396.37	177.648
1404.43	176.882
1412.54	176.12
1420.69	175.361
1428.89	174.606
1437.14	173.855
1445.44	173.107
1453.78	172.363
1462.18	171.622
1470.62	170.885
1479.11	170.151
1487.65	169.421
1496.24	168.695
1504.87	167.972
1513.56	167.253
1522.3	166.537
1531.09	165.825
1539.93	165.116
1548.82	164.41
1557.76	163.708
1566.75	163.01
1575.8	162.315
1584.89	161.623
1594.04	160.934
1603.25	160.249
1612.5	159.566
1621.81	158.887
1631.17	158.211
1640.59	157.538
1650.06	156.869
1659.59	156.203
1669.17	155.54
1678.8	154.88
1688.5	154.223
1698.24	153.57
1708.05	152.92
1717.91	152.273
1727.83	151.629
1737.8	150.989
1747.83	150.351
1757.92	149.717
1768.07	149.086
1778.28	148.458
1788.55	147.834
1798.87	147.212
1809.26	146.593
1819.7	145.978
1830.21	145.365
1840.77	144.756
1851.4	144.149
1862.09	143.546
1872.84	142.945
1883.65	142.347
1894.52	141.752
1905.46	141.16
1916.46	140.571
1927.52	139.984
1938.65	139.4
1949.84	138.819
1961.1	138.24
1972.42	137.664
1983.81	137.09
1995.26	136.519
2006.78	135.949
2018.37	135.381
2030.02	134.816
2041.74	134.253
2053.53	133.692
2065.38	133.134
2077.3	132.578
2089.3	132.025
2101.36	131.474
2113.49	130.925
2125.69	130.38
2137.96	129.837
2150.3	129.296
2162.72	128.758
2175.2	128.223
2187.76	127.69
2200.39	127.16
2213.09	126.633
2225.87	126.109
2238.72	125.587
2251.65	125.068
2264.64	124.552
2277.72	124.039
2290.87	123.528
2304.09	123.021
2317.39	122.516
2330.77	122.014
2344.23	121.514
2357.76	121.018
2371.37	120.525
2385.06	120.034
2398.83	119.546
2412.68	119.061
2426.61	118.579
2440.62	118.1
2454.71	117.624
2468.88	117.15
2483.13	116.679
2497.47	116.212
2511.89	115.747
2526.39	115.284
2540.97	114.825
2555.64	114.368
2570.4	113.914
2585.23	113.463
2600.16	113.014
2615.17	112.569
2630.27	112.125
2645.45	111.685
2660.73	111.247
2676.09	110.811
2691.53	110.378
2707.07	109.947
2722.7	109.519
2738.42	109.093
2754.23	108.67
2770.13	108.248
2786.12	107.829
2802.21	107.412
2818.38	106.997
2834.65	106.584
2851.02	106.173
2867.48	105.747
2884.03	105.306
2900.68	104.867
2917.43	104.431
2934.27	103.996
2951.21	103.563
2968.25	103.131
2985.38	102.701
3002.62	102.274
3019.95	101.86
3037.39	101.446
3054.92	101.034
3072.56	100.624
3090.3	100.215
3108.14	99.8069
3126.08	99.4006
3144.13	98.9958
3162.28	98.5925
3180.53	98.1907
3198.9	97.7905
3217.36	97.3917
3235.94	96.9946
3254.62	96.599
3273.41	96.2051
3292.3	95.8127
3311.31	95.422
3330.43	95.033
3349.65	94.6456
3368.99	94.2599
3388.44	93.876
3408	93.4937
3427.68	93.1132
3447.47	92.7345
3467.37	92.3575
3487.39	91.9824
3507.52	91.609
3527.77	91.2375
3548.13	90.8677
3568.62	90.4999
3589.22	90.1339
3609.94	89.7698
3630.78	89.4076
3651.74	89.0472
3672.82	88.6888
3694.03	88.3323
3715.35	87.9778
3736.8	87.6252
3758.37	87.2746
3780.07	86.9259
3801.89	86.5792
3823.84	86.2345
3845.92	85.8917
3868.12	85.551
3890.45	85.2123
3912.91	84.8756
3935.5	84.5409
3958.22	84.2082
3981.07	83.8775
4004.05	83.5485
4027.17	83.22
4050.42	82.8934
4073.8	82.5689
4097.32	82.2464
4120.98	81.9259
4144.77	81.6075
4168.69	81.291
4192.76	80.9766
4216.97	80.6642
4241.31	80.3538
4265.8	80.0454
4290.42	79.7391
4315.19	79.4347
4340.1	79.1323
4365.16	78.8319
4390.36	78.5335
4415.7	78.237
4441.2	77.9425
4466.84	77.6499
4492.62	77.3592
4518.56	77.0704
4544.65	76.7835
4570.88	76.4984
4597.27	76.2152
4623.81	75.9338
4650.5	75.6542
4677.35	75.3763
4704.35	75.1002
4731.51	74.8257
4758.83	74.553
4786.3	74.2819
4813.93	74.0123
4841.72	73.7443
4869.68	73.4779
4897.79	73.2129
4926.06	72.9493
4954.5	72.6871
4983.1	72.4263
5011.87	72.1667
5040.81	71.9082
5069.91	71.6511
5099.18	71.3952
5128.61	71.1405
5158.22	70.8872
5188	70.6351
5217.95	70.3843
5248.07	70.1348
5278.37	69.8866
5308.84	69.6397
5339.49	69.3941
5370.32	69.1498
5401.32	68.9068
5432.5	68.6651
5463.87	68.4247
5495.41	68.1857
5527.13	67.9479
5559.04	67.7115
5591.14	67.4763
5623.41	67.2425
5655.88	67.01
5688.53	66.7788
5721.37	66.5488
5754.4	66.3202
5787.62	66.0928
5821.03	65.8667
5854.64	65.6419
5888.44	65.4183
5922.43	65.196
5956.62	64.9749
5991.01	64.7551
6025.6	64.5361
6060.38	64.3182
6095.37	64.1014
6130.56	63.886
6165.95	63.6717
6201.55	63.4587
6237.35	63.2469
6273.36	63.0364
6309.57	62.8271
6346	62.6191
6382.63	62.4123
6419.48	62.2068
6456.54	62.0026
6493.82	61.7997
6531.31	61.598
6569.01	61.3975
6606.93	61.1984
6645.08	61.0005
6683.44	60.8039
6722.02	60.6085
6760.83	60.4144
6799.86	60.2216
6839.12	60.0301
6878.6	59.8398
6918.31	59.6507
6958.25	59.4629
6998.42	59.2763
7038.82	59.091
7079.46	58.9069
7120.33	58.7239
7161.43	58.5422
7202.78	58.3617
7244.36	58.1824
7286.18	58.0042
7328.25	57.8272
7370.55	57.6513
7413.1	57.4765
7455.9	57.3029
7498.94	57.1303
7542.23	56.9588
7585.78	56.7883
7629.57	56.6188
7673.61	56.4504
7717.92	56.2829
7762.47	56.1163
7807.28	55.9507
7852.36	55.786
7897.69	55.6221
7943.28	55.459
7989.14	55.2967
8035.26	55.1364
8081.65	54.9773
8128.31	54.8189
8175.23	54.6613
8222.43	54.5044
8269.9	54.3484
8317.64	54.1931
8365.66	54.0387
8413.95	53.885
8462.53	53.7322
8511.38	53.5802
8560.52	53.429
8609.94	53.2786
8659.64	53.1291
8709.64	52.9804
8759.92	52.8326
8810.49	52.6856
8861.35	52.5394
8912.51	52.3941
8963.96	52.2497
9015.71	52.1061
9067.76	51.9634
9120.11	51.8215
9172.76	51.6805
9225.71	51.5404
9278.97	51.4012
9332.54	51.2628
9386.42	51.1252
9440.61	50.9886
9495.11	50.8528
9549.93	50.7179
9605.06	50.5838
9660.51	50.4506
9716.28	50.3182
9772.37	50.1868
9828.79	50.0561
9885.53	49.9263
9942.6	49.7974
10000	49.6692
10057.7	49.5416
10115.8	49.4148
10174.2	49.2888
10232.9	49.1637
10292	49.0393
10351.4	48.9158
10411.2	48.7932
10471.3	48.6714
10531.7	48.5504
10592.5	48.4302
10653.7	48.3108
10715.2	48.1923
10777.1	48.0746
10839.3	47.9577
10901.8	47.8416
10964.8	47.7264
11028.1	47.6119
11091.7	47.4982
11155.8	47.3853
11220.2	47.2732
11285	47.1619
11350.1	47.0513
11415.6	46.9415
11481.5	46.8324
11547.8	46.7241
11614.5	46.6165
11681.5	46.5096
11749	46.4035
11816.8	46.298
11885	46.1931
11953.6	46.089
12022.6	45.9854
12092.1	45.8825
12161.9	45.7803
12232.1	45.6786
12302.7	45.5776
12373.7	45.4773
12445.1	45.3775
12517	45.2785
12589.3	45.18
12661.9	45.0822
12735	44.9851
12808.6	44.8886
12882.5	44.7927
12956.9	44.6975
13031.7	44.603
13106.9	44.509
13182.6	44.4157
13258.7	44.3231
13335.2	44.2311
13412.2	44.1397
13489.6	44.0489
13567.5	43.9588
13645.8	43.8693
13724.6	43.7804
13803.8	43.6921
13883.5	43.6044
13963.7	43.5173
14044.3	43.4308
14125.4	43.3449
14206.9	43.2596
14288.9	43.1749
14371.4	43.0907
14454.4	43.0072
14537.8	42.9242
14621.8	42.8419
14706.2	42.7601
14791.1	42.6789
14876.5	42.5983
14962.4	42.5182
15048.7	42.4388
15135.6	42.3599
15223	42.2817
15310.9	42.2039
15399.3	42.1268
15488.2	42.0502
15577.6	41.9742
15667.5	41.8987
15758	41.8238
15848.9	41.7494
15940.4	41.6756
16032.5	41.6022
16125	41.5294
16218.1	41.4572
16311.7	41.3854
16405.9	41.3142
16500.6	41.2435
16595.9	41.1733
16691.7	41.1036
16788	41.0345
16885	40.9658
16982.4	40.8977
17080.5	40.8301
17179.1	40.763
17278.3	40.6964
17378	40.6302
17478.3	40.5646
17579.2	40.4995
17680.7	40.4348
17782.8	40.3706
17885.5	40.3069
17988.7	40.2437
18092.6	40.1809
18197	40.1186
18302.1	40.0567
18407.7	39.9952
18514	39.9341
18620.9	39.8735
18728.4	39.8133
18836.5	39.7535
18945.2	39.694
19054.6	39.6349
19164.6	39.5762
19275.2	39.5178
19386.5	39.4597
19498.4	39.402
19611	39.3446
19724.2	39.2874
19838.1	39.2305
19952.6	39.1738
20067.8	39.1163
20183.7	39.0584
20300.2	39.0009
20417.4	38.9438
20535.3	38.8872
20653.8	38.831
20773	38.7753
20893	38.72
21013.6	38.6651
21134.9	38.6106
21256.9	38.5566
21379.6	38.5029
21503	38.4498
21627.2	38.397
21752	38.3446
21877.6	38.2927
22003.9	38.2411
22130.9	38.19
22258.7	38.1393
22387.2	38.0889
22516.5	38.039
22646.4	37.9895
22777.2	37.9403
22908.7	37.8916
23040.9	37.8433
23173.9	37.7953
23307.7	37.7477
23442.3	37.7006
23577.6	37.6538
23713.7	37.6074
23850.6	37.5613
23988.3	37.5157
24126.8	37.4704
24266.1	37.4255
24406.2	37.3809
24547.1	37.3368
24688.8	37.2929
24831.3	37.2495
24974.7	37.2064
25118.9	37.1637
25263.9	37.1214
25409.7	37.0793
25556.4	37.0377
25704	36.9964
25852.3	36.9555
26001.6	36.9149
26151.7	36.8746
26302.7	36.8347
26454.5	36.7951
26607.3	36.7559
26760.9	36.717
26915.3	36.6785
27070.7	36.6402
27227	36.6024
27384.2	36.5648
27542.3	36.5276
27701.3	36.4907
27861.2	36.4541
28022.1	36.4178
28183.8	36.3819
28346.5	36.3463
28510.2	36.311
28674.8	36.276
28840.3	36.2414
29006.8	36.207
29174.3	36.173
29342.7	36.1392
29512.1	36.1058
29682.5	36.0727
29853.8	36.0398
30026.2	36.0073
30199.5	35.9751
30373.9	35.9432
30549.2	35.9115
30725.6	35.8802
30903	35.8492
31081.4	35.8184
31260.8	35.7879
31441.3	35.7578
31622.8	35.7279
31805.3	35.6983
31989	35.6689
32173.6	35.6399
32359.4	35.6111
32546.2	35.5826
32734.1	35.5544
32923	35.5264
33113.1	35.4988
33304.3	35.4714
33496.5	35.4442
33689.9	35.4174
33884.4	35.3908
34080	35.3644
34276.8	35.3383
34474.7	35.3125
34673.7	35.2869
34873.9	35.2616
35075.2	35.2366
35277.7	35.2118
35481.3	35.1873
35686.2	35.163
35892.2	35.1389
36099.4	35.1151
36307.8	35.0916
36517.4	35.0683
36728.2	35.0452
36940.3	35.0224
37153.5	34.9998
37368	34.9774
37583.7	34.9553
37800.7	34.9335
38018.9	34.9118
38238.4	34.8904
38459.2	34.8692
38681.2	34.8483
38904.5	34.8276
39129.1	34.8071
39355	34.7868
39582.2	34.7668
39810.7	34.7469
40040.5	34.7273
40271.7	34.7079
40504.2	34.6888
40738	34.6698
40973.2	34.6511
41209.8	34.6326
41447.7	34.6143
41686.9	34.5962
41927.6	34.5783
42169.7	34.5606
42413.1	34.5431
42658	34.5258
42904.2	34.5088
43151.9	34.4919
43401	34.4752
43651.6	34.4588
43903.6	34.4425
44157	34.4264
44412	34.4106
44668.4	34.3949
44926.2	34.3794
45185.6	34.3641
45446.5	34.349
45708.8	34.3341
45972.7	34.3193
46238.1	34.3048
46505	34.2904
46773.5	34.2763
47043.5	34.2623
47315.1	34.2485
47588.3	34.2348
47863	34.2214
48139.3	34.2081
48417.2	34.195
48696.8	34.1821
48977.9	34.1694
49260.6	34.1568
49545	34.1444
49831	34.1321
50118.7	34.1201
50408.1	34.1082
50699.1	34.0964
50991.8	34.0849
51286.1	34.0735
51582.2	34.0622
51880	34.0512
52179.5	34.0402
52480.7	34.0295
52783.7	34.0189
53088.4	34.0085
53394.9	33.9982
53703.2	33.988
54013.2	33.9781
54325	33.9682
54638.7	33.9586
54954.1	33.949
55271.3	33.9397
55590.4	33.9304
55911.4	33.9214
56234.1	33.9124
56558.8	33.9036
56885.3	33.895
57213.7	33.8865
57544	33.8781
57876.2	33.8699
58210.3	33.8618
58546.4	33.8539
58884.4	33.8461
59224.3	33.8384
59566.2	33.8309
59910.1	33.8235
60256	33.8162
60603.8	33.8091
60953.7	33.8021
61305.6	33.7952
61659.5	33.7885
62015.5	33.7819
62373.5	33.7754
62733.6	33.769
63095.7	33.7628
63460	33.7567
63826.3	33.7507
64194.8	33.7448
64565.4	33.7391
64938.2	33.7334
65313.1	33.7279
65690.1	33.7225
66069.3	33.7173
66450.8	33.7121
66834.4	33.7071
67220.2	33.7021
67608.3	33.6973
67998.6	33.6926
68391.2	33.688
68786	33.6836
69183.1	33.6792
69582.5	33.6749
69984.2	33.6708
70388.2	33.6667
70794.6	33.6628
71203.3	33.659
71614.3	33.6552
72027.8	33.6516
72443.6	33.6481
72861.8	33.6447
73282.5	33.6413
73705.5	33.6381
74131	33.635
74559	33.632
74989.4	33.629
75422.3	33.6262
75857.8	33.6235
76295.7	33.6208
76736.1	33.6183
77179.2	33.6158
77624.7	33.6135
78072.8	33.6112
78523.6	33.609
78976.9	33.6069
79432.8	33.6049
79891.4	33.603
80352.6	33.6012
80816.5	33.5995
81283.1	33.5978
81752.3	33.5962
82224.3	33.5948
82699	33.5934
83176.4	33.5921
83656.6	33.5908
84139.5	33.5897
84625.3	33.5886
85113.8	33.5876
85605.2	33.5867
86099.4	33.5859
86596.4	33.5851
87096.4	33.5844
87599.2	33.5838
88104.9	33.5833
88613.5	33.5828
89125.1	33.5824
89639.6	33.5821
90157.1	33.5819
90677.6	33.5817
91201.1	33.5816
91727.6	33.5816
92257.1	33.5817
92789.7	33.5818
93325.4	33.582
93864.2	33.5822
94406.1	33.5825
94951.1	33.5829
95499.3	33.5834
96050.6	33.5839
96605.1	33.5845
97162.8	33.5851
97723.7	33.5858
98287.9	33.5866
98855.3	33.5874
99426	33.5883
100000	33.5893
100577	33.5903
101158	33.5914
101742	33.5925
102329	33.5937
102920	33.5949
103514	33.5962
104112	33.5976
104713	33.599
105317	33.6005
105925	33.602
106537	33.6036
107152	33.6052
107771	33.6069
108393	33.6086
109018	33.6104
109648	33.6122
110281	33.6141
110917	33.6161
111558	33.6181
112202	33.6201
112850	33.6222
113501	33.6243
114156	33.6265
114815	33.6287
115478	33.631
116145	33.6333
116815	33.6356
117490	33.6381
118168	33.6405
118850	33.643
119536	33.6455
120226	33.6481
120921	33.6507
121619	33.6534
122321	33.6561
123027	33.6588
123737	33.6616
124451	33.6644
125170	33.6673
125893	33.6702
126619	33.6731
127350	33.6761
128086	33.6791
128825	33.6821
129569	33.6852
130317	33.6883
131069	33.6914
131826	33.6946
132587	33.6978
133352	33.7011
134122	33.7044
134896	33.7077
135675	33.711
136458	33.7144
137246	33.7178
138038	33.7213
138835	33.7248
139637	33.7283
140443	33.7318
141254	33.7353
142069	33.7389
142889	33.7426
143714	33.7462
144544	33.7499
145378	33.7536
146218	33.7573
147062	33.7611
147911	33.7648
148765	33.7686
149624	33.7725
150487	33.7763
151356	33.7802
152230	33.7841
153109	33.788
153993	33.792
154882	33.796
155776	33.8
156675	33.804
157580	33.808
158489	33.8121
159404	33.8162
160325	33.8203
161250	33.8244
162181	33.8285
163117	33.8327
164059	33.8369
165006	33.8411
165959	33.8453
166917	33.8495
167880	33.8538
168850	33.8581
169824	33.8624
170805	33.8667
171791	33.871
172783	33.8753
173780	33.8797
174783	33.8841
175792	33.8885
176807	33.8929
177828	33.8973
178855	33.9017
179887	33.9062
180926	33.9106
181970	33.9151
183021	33.9196
184077	33.9241
185140	33.9286
186209	33.9331
187284	33.9377
188365	33.9422
189452	33.9468
190546	33.9514
191646	33.956
192752	33.9606
193865	33.9652
194984	33.9698
196110	33.9744
197242	33.979
198381	33.9837
199526	33.9883
200678	33.993
201837	33.9977
203002	34.0024
204174	34.007
205353	34.0117
206538	34.0164
207730	34.0212
208930	34.0259
210136	34.0306
211349	34.0353
212569	34.0401
213796	34.0448
215030	34.0496
216272	34.0543
217520	34.0591
218776	34.0639
220039	34.0686
221309	34.0734
222587	34.0782
223872	34.083
225165	34.0878
226464	34.0926
227772	34.0974
229087	34.1022
230409	34.107
231739	34.1118
233077	34.1166
234423	34.1215
235776	34.1263
237137	34.1311
238506	34.1359
239883	34.1407
241268	34.1456
242661	34.1504
244062	34.1552
245471	34.1601
246888	34.1649
248313	34.1697
249747	34.1746
251189	34.1794
252639	34.1843
254097	34.1891
255564	34.1939
257040	34.1988
258523	34.2036
260016	34.2085
261517	34.2133
263027	34.2181
264545	34.223
266073	34.2278
267609	34.2326
269153	34.2375
270707	34.2423
272270	34.2471
273842	34.2519
275423	34.2568
277013	34.2616
278612	34.2664
280221	34.2712
281838	34.2761
283465	34.2809
285102	34.2857
286748	34.2905
288403	34.2953
290068	34.3001
291743	34.3049
293427	34.3097
295121	34.3145
296825	34.3193
298538	34.324
300262	34.3288
301995	34.3336
303739	34.3384
305492	34.3431
307256	34.3479
309030	34.3527
310814	34.3574
312608	34.3622
314413	34.3669
316228	34.3716
318053	34.3764
319890	34.3811
321736	34.3858
323594	34.3905
325462	34.3952
327341	34.3999
329230	34.4046
331131	34.4093
333043	34.414
334965	34.4187
336899	34.4234
338844	34.428
340800	34.4327
342768	34.4374
344747	34.442
346737	34.4466
348739	34.4513
350752	34.4559
352777	34.4605
354813	34.4651
356862	34.4697
358922	34.4743
360994	34.4789
363078	34.4835
365174	34.4881
367282	34.4927
369403	34.4972
371535	34.5018
373680	34.5063
375837	34.5108
378007	34.5154
380189	34.5199
382384	34.5244
384592	34.5289
386812	34.5334
389045	34.5379
391291	34.5424
393550	34.5468
395822	34.5513
398107	34.5557
400405	34.5602
402717	34.5646
405042	34.569
407380	34.5735
409732	34.5779
412098	34.5823
414477	34.5867
416869	34.591
419276	34.5954
421697	34.5998
424131	34.6041
426580	34.6085
429042	34.6128
431519	34.6171
434010	34.6214
436516	34.6257
439036	34.63
441570	34.6343
444120	34.6386
446684	34.6428
449262	34.6471
451856	34.6513
454465	34.6556
457088	34.6598
459727	34.664
462381	34.6682
465050	34.6724
467735	34.6766
470435	34.6808
473151	34.6849
475883	34.6891
478630	34.6932
481393	34.6973
484172	34.7014
486968	34.7056
489779	34.7097
492606	34.7137
495450	34.7178
498310	34.7219
501187	34.7259
504081	34.73
506991	34.734
509918	34.738
512861	34.742
515822	34.746
518800	34.75
521795	34.754
524807	34.758
527837	34.7619
530884	34.7659
533949	34.7698
537032	34.7737
540132	34.7776
543250	34.7815
546387	34.7854
549541	34.7893
552713	34.7932
555904	34.797
559114	34.8008
562341	34.8047
565588	34.8085
568853	34.8123
572137	34.8161
575440	34.8199
578762	34.8237
582103	34.8274
585464	34.8312
588844	34.8349
592243	34.8386
595662	34.8423
599101	34.846
602560	34.8497
606038	34.8534
609537	34.8571
613056	34.8607
616595	34.8644
620155	34.868
623735	34.8716
627336	34.8752
630957	34.8788
634600	34.8824
638263	34.886
641948	34.8895
645654	34.8931
649382	34.8966
653131	34.9002
656901	34.9037
660693	34.9072
664508	34.9107
668344	34.9141
672202	34.9176
676083	34.9211
679986	34.9245
683912	34.9279
687860	34.9313
691831	34.9347
695825	34.9381
699842	34.9415
703882	34.9449
707946	34.9482
712033	34.9516
716143	34.9549
720278	34.9582
724436	34.9616
728618	34.9648
732825	34.9681
737055	34.9714
741310	34.9747
745590	34.9779
749894	34.9812
754223	34.9844
758578	34.9876
762957	34.9908
767361	34.994
771792	34.9972
776247	35.0003
780728	35.0035
785236	35.0066
789769	35.0097
794328	35.0129
798914	35.016
803526	35.019
808165	35.0221
812831	35.0252
817523	35.0283
822243	35.0313
826990	35.0343
831764	35.0373
836566	35.0404
841395	35.0434
846253	35.0463
851138	35.0493
856052	35.0523
860994	35.0552
865964	35.0581
870964	35.0611
875992	35.064
881049	35.0669
886135	35.0698
891251	35.0726
896396	35.0755
901571	35.0784
906776	35.0812
912011	35.084
917276	35.0868
922571	35.0897
927897	35.0924
933254	35.0952
938642	35.098
944061	35.1008
949511	35.1035
954993	35.1062
960506	35.109
966051	35.1117
971628	35.1144
977237	35.117
982879	35.1197
988553	35.1224
994260	35.125
1e+06	35.1277
1.00577e+06	35.1303
1.01158e+06	35.1329
1.01742e+06	35.1355
1.02329e+06	35.1381
1.0292e+06	35.1407
1.03514e+06	35.1433
1.04112e+06	35.1458
1.04713e+06	35.1484
1.05317e+06	35.1509
1.05925e+06	35.1534
1.06537e+06	35.1559
1.07152e+06	35.1584
1.07771e+06	35.1609
1.08393e+06	35.1634
1.09018e+06	35.1659
1.09648e+06	35.1683
1.10281e+06	35.1708
1.10917e+06	35.1732
1.11558e+06	35.1756
1.12202e+06	35.178
1.1285e+06	35.1804
1.13501e+06	35.1828
1.14156e+06	35.1852
1.14815e+06	35.1876
1.15478e+06	35.1899
1.16145e+06	35.1922
1.16815e+06	35.1946
1.1749e+06	35.1969
1.18168e+06	35.1992
1.1885e+06	35.2015
1.19536e+06	35.2038
1.20226e+06	35.206
1.20921e+06	35.2083
1.21619e+06	35.2106
1.22321e+06	35.2128
1.23027e+06	35.215
1.23737e+06	35.2172
1.24451e+06	35.2195
1.2517e+06	35.2217
1.25893e+06	35.2238
1.26619e+06	35.226
1.2735e+06	35.2282
1.28086e+06	35.2303
1.28825e+06	35.2325
1.29569e+06	35.2346
1.30317e+06	35.2367
1.31069e+06	35.2388
1.31826e+06	35.2409
1.32587e+06	35.243
1.33352e+06	35.2451
1.34122e+06	35.2471
1.34896e+06	35.2492
1.35675e+06	35.2512
1.36458e+06	35.2533
1.37246e+06	35.2553
1.38038e+06	35.2573
1.38835e+06	35.2593
1.39637e+06	35.2613
1.40443e+06	35.2633
1.41254e+06	35.2652
1.42069e+06	35.2672
1.42889e+06	35.2691
1.43714e+06	35.2711
1.44544e+06	35.273
1.45378e+06	35.2749
1.46218e+06	35.2768
1.47062e+06	35.2787
1.47911e+06	35.2806
1.48765e+06	35.2825
1.49624e+06	35.2844
1.50487e+06	35.2862
1.51356e+06	35.2881
1.5223e+06	35.2899
1.53109e+06	35.2917
1.53993e+06	35.2935
1.54882e+06	35.2953
1.55776e+06	35.2971
1.56675e+06	35.2989
1.5758e+06	35.3007
1.58489e+06	35.3024
1.59404e+06	35.3042
1.60325e+06	35.3059
1.6125e+06	35.3077
1.62181e+06	35.3094
1.63117e+06	35.3111
1.64059e+06	35.3128
1.65006e+06	35.3145
1.65959e+06	35.3162
1.66917e+06	35.3178
1.6788e+06	35.3195
1.6885e+06	35.3212
1.69824e+06	35.3228
1.70805e+06	35.3244
1.71791e+06	35.3261
1.72783e+06	35.3277
1.7378e+06	35.3293
1.74783e+06	35.3309
1.75792e+06	35.3325
1.76807e+06	35.334
1.77828e+06	35.3356
1.78855e+06	35.3372
1.79887e+06	35.3387
1.80926e+06	35.3402
1.8197e+06	35.3418
1.83021e+06	35.3433
1.84077e+06	35.3448
1.8514e+06	35.3463
1.86209e+06	35.3478
1.87284e+06	35.3493
1.88365e+06	35.3507
1.89452e+06	35.3522
1.90546e+06	35.3537
1.91646e+06	35.3551
1.92752e+06	35.3565
1.93865e+06	35.358
1.94984e+06	35.3594
1.9611e+06	35.3608
1.97242e+06	35.3622
1.98381e+06	35.3636
1.99526e+06	35.365
2.00678e+06	35.3663
2.01837e+06	35.3677
2.03002e+06	35.3691
2.04174e+06	35.3704
2.05353e+06	35.3717
2.06538e+06	35.3731
2.0773e+06	35.3744
2.0893e+06	35.3757
2.10136e+06	35.377
2.11349e+06	35.3783
2.12569e+06	35.3796
2.13796e+06	35.3808
2.1503e+06	35.3821
2.16272e+06	35.3834
2.1752e+06	35.3846
2.18776e+06	35.3859
2.20039e+06	35.3871
2.21309e+06	35.3883
2.22587e+06	35.3895
2.23872e+06	35.3907
2.25165e+06	35.3919
2.26464e+06	35.3931
2.27772e+06	35.3943
2.29087e+06	35.3955
2.30409e+06	35.3967
2.31739e+06	35.3978
2.33077e+06	35.399
2.34423e+06	35.4001
2.35776e+06	35.4012
2.37137e+06	35.4024
2.38506e+06	35.4035
2.39883e+06	35.4046
2.41268e+06	35.4057
2.42661e+06	35.4068
2.44062e+06	35.4079
2.45471e+06	35.4089
2.46888e+06	35.41
2.48313e+06	35.4111
2.49747e+06	35.4121
2.51189e+06	35.4132
2.52639e+06	35.4142
2.54097e+06	35.4152
2.55564e+06	35.4163
2.5704e+06	35.4173
2.58523e+06	35.4183
2.60016e+06	35.4193
2.61517e+06	35.4203
2.63027e+06	35.4212
2.64545e+06	35.4222
2.66073e+06	35.4232
2.67609e+06	35.4242
2.69153e+06	35.4251
2.70707e+06	35.426
2.7227e+06	35.427
2.73842e+06	35.4279
2.75423e+06	35.4288
2.77013e+06	35.4298
2.78612e+06	35.4307
2.80221e+06	35.4316
2.81838e+06	35.4325
2.83465e+06	35.4334
2.85102e+06	35.4342
2.86748e+06	35.4351
2.88403e+06	35.436
2.90068e+06	35.4368
2.91743e+06	35.4377
2.93427e+06	35.4385
2.95121e+06	35.4394
2.96825e+06	35.4402
2.98538e+06	35.441
3.00262e+06	35.4418
3.01995e+06	35.4426
3.03739e+06	35.4435
3.05492e+06	35.4442
3.07256e+06	35.445
3.0903e+06	35.4458
3.10814e+06	35.4466
3.12608e+06	35.4474
3.14413e+06	35.4481
3.16228e+06	35.4489
3.18053e+06	35.4496
3.1989e+06	35.4504
3.21736e+06	35.4511
3.23594e+06	35.4518
3.25462e+06	35.4526
3.27341e+06	35.4533
3.2923e+06	35.454
3.31131e+06	35.4547
3.33043e+06	35.4554
3.34965e+06	35.4561
3.36899e+06	35.4568
3.38844e+06	35.4575
3.408e+06	35.4581
3.42768e+06	35.4588
3.44747e+06	35.4595
3.46737e+06	35.4601
3.48739e+06	35.4608
3.50752e+06	35.4614
3.52777e+06	35.462
3.54813e+06	35.4627
3.56862e+06	35.4633
3.58922e+06	35.4639
3.60994e+06	35.4645
3.63078e+06	35.4651
3.65174e+06	35.4657
3.67282e+06	35.4663
3.69403e+06	35.4669
3.71535e+06	35.4675
3.7368e+06	35.4681
3.75837e+06	35.4686
3.78007e+06	35.4692
3.80189e+06	35.4698
3.82384e+06	35.4703
3.84592e+06	35.4709
3.86812e+06	35.4714
3.89045e+06	35.472
3.91291e+06	35.4725
3.9355e+06	35.473
3.95822e+06	35.4735
3.98107e+06	35.4741
4.00405e+06	35.4746
4.02717e+06	35.4751
4.05042e+06	35.4756
4.0738e+06	35.4761
4.09732e+06	35.4766
4.12098e+06	35.477
4.14477e+06	35.4775
4.16869e+06	35.478
4.19276e+06	35.4785
4.21697e+06	35.4789
4.24131e+06	35.4794
4.2658e+06	35.4798
4.29042e+06	35.4803
4.31519e+06	35.4807
4.3401e+06	35.4812
4.36516e+06	35.4816
4.39036e+06	35.482
4.4157e+06	35.4825
4.4412e+06	35.4829
4.46684e+06	35.4833
4.49262e+06	35.4837
4.51856e+06	35.4841
4.54465e+06	35.4845
4.57088e+06	35.4849
4.59727e+06	35.4853
4.62381e+06	35.4857
4.6505e+06	35.4861
4.67735e+06	35.4864
4.70435e+06	35.4868
4.73151e+06	35.4872
4.75883e+06	35.4875
4.7863e+06	35.4879
4.81393e+06	35.4883
4.84172e+06	35.4886
4.86968e+06	35.489
4.89779e+06	35.4893
4.92606e+06	35.4896
4.9545e+06	35.49
4.9831e+06	35.4903
5.01187e+06	35.4906
5.04081e+06	35.4909
5.06991e+06	35.4913
5.09918e+06	35.4916
5.12861e+06	35.4919
5.15822e+06	35.4922
5.188e+06	35.4925
5.21795e+06	35.4928
5.24807e+06	35.4931
5.27837e+06	35.4934
5.30884e+06	35.4936
5.33949e+06	35.4939
5.37032e+06	35.4942
5.40132e+06	35.4945
5.4325e+06	35.4947
5.46387e+06	35.495
5.49541e+06	35.4953
5.52713e+06	35.4955
5.55904e+06	35.4958
5.59114e+06	35.496
5.62341e+06	35.4963
5.65588e+06	35.4965
5.68853e+06	35.4967
5.72137e+06	35.497
5.7544e+06	35.4972
5.78762e+06	35.4974
5.82103e+06	35.4977
5.85464e+06	35.4979
5.88844e+06	35.4981
5.92243e+06	35.4983
5.95662e+06	35.4985
5.99101e+06	35.4987
6.0256e+06	35.4989
6.06038e+06	35.4992
6.09537e+06	35.4993
6.13056e+06	35.4995
6.16595e+06	35.4997
6.20155e+06	35.4999
6.23735e+06	35.5001
6.27336e+06	35.5003
6.30957e+06	35.5005
6.346e+06	35.5006
6.38263e+06	35.5008
6.41948e+06	35.501
6.45654e+06	35.5012
6.49382e+06	35.5013
6.53131e+06	35.5015
6.56901e+06	35.5016
6.60693e+06	35.5018
6.64508e+06	35.502
6.68344e+06	35.5021
6.72202e+06	35.5022
6.76083e+06	35.5024
6.79986e+06	35.5025
6.83912e+06	35.5027
6.8786e+06	35.5028
6.91831e+06	35.5029
6.95825e+06	35.5031
6.99842e+06	35.5032
7.03882e+06	35.5033
7.07946e+06	35.5035
7.12033e+06	35.5036
7.16143e+06	35.5037
7.20278e+06	35.5038
7.24436e+06	35.5039
7.28618e+06	35.504
7.32825e+06	35.5041
7.37055e+06	35.5043
7.4131e+06	35.5044
7.4559e+06	35.5045
7.49894e+06	35.5046
7.54223e+06	35.5047
7.58578e+06	35.5048
7.62957e+06	35.5048
7.67361e+06	35.5049
7.71792e+06	35.505
7.76247e+06	35.5051
7.80728e+06	35.5052
7.85236e+06	35.5053
7.89769e+06	35.5054
7.94328e+06	35.5054
7.98914e+06	35.5055
8.03526e+06	35.5056
8.08165e+06	35.5057
8.12831e+06	35.5057
8.17523e+06	35.5058
8.22243e+06	35.5059
8.2699e+06	35.5059
8.31764e+06	35.506
8.36566e+06	35.5061
8.41395e+06	35.5061
8.46253e+06	35.5062
8.51138e+06	35.5062
8.56052e+06	35.5063
8.60994e+06	35.5064
8.65964e+06	35.5064
8.70964e+06	35.5065
8.75992e+06	35.5065
8.81049e+06	35.5066
8.86135e+06	35.5066
8.91251e+06	35.5066
8.96396e+06	35.5067
9.01571e+06	35.5067
9.06776e+06	35.5068
9.12011e+06	35.5068
9.17276e+06	35.5068
9.22571e+06	35.5069
9.27897e+06	35.5069
9.33254e+06	35.5069
9.38642e+06	35.507
9.44061e+06	35.507
9.49511e+06	35.507
9.54993e+06	35.5071
9.60506e+06	35.5071
9.66051e+06	35.5071
9.71628e+06	35.5071
9.77237e+06	35.5072
9.82879e+06	35.5072
9.88553e+06	35.5072
9.9426e+06	35.5072
1e+07	35.5073
