Stopping power dEdx from Ionisation for O16[0.0] Z = 8 in G4_Si, process name: ionIoni
E [MeV]	dEdx [MeV/mm]
0.001	32.5125
0.00100577	32.6069
0.00101158	32.7017
0.00101742	32.7967
0.00102329	32.892
0.0010292	32.9876
0.00103514	33.0835
0.00104112	33.1796
0.00104713	33.276
0.00105317	33.3727
0.00105925	33.4697
0.00106537	33.5669
0.00107152	33.6645
0.00107771	33.7623
0.00108393	33.8604
0.00109018	33.9587
0.00109648	34.0574
0.00110281	34.1563
0.00110917	34.2555
0.00111558	34.3551
0.00112202	34.4549
0.0011285	34.5549
0.00113501	34.6553
0.00114156	34.756
0.00114815	34.8569
0.00115478	34.9582
0.00116145	35.0597
0.00116815	35.1616
0.0011749	35.2637
0.00118168	35.3661
0.0011885	35.4688
0.00119536	35.5718
0.00120226	35.6751
0.00120921	35.7787
0.00121619	35.8826
0.00122321	35.9868
0.00123027	36.0913
0.00123737	36.1961
0.00124451	36.3012
0.0012517	36.4066
0.00125893	36.5124
0.00126619	36.6184
0.0012735	36.7247
0.00128086	36.8313
0.00128825	36.9383
0.00129569	37.0455
0.00130317	37.1531
0.00131069	37.2609
0.00131826	37.3691
0.00132587	37.4776
0.00133352	37.5864
0.00134122	37.6955
0.00134896	37.8049
0.00135675	37.9147
0.00136458	38.0247
0.00137246	38.1351
0.00138038	38.2458
0.00138835	38.3568
0.00139637	38.4681
0.00140443	38.5798
0.00141254	38.6918
0.00142069	38.8041
0.00142889	38.9167
0.00143714	39.0296
0.00144544	39.1429
0.00145378	39.2565
0.00146218	39.3704
0.00147062	39.4847
0.00147911	39.5993
0.00148765	39.7142
0.00149624	39.8294
0.00150487	39.945
0.00151356	40.0609
0.0015223	40.1772
0.00153109	40.2937
0.00153993	40.4107
0.00154882	40.5279
0.00155776	40.6455
0.00156675	40.7634
0.0015758	40.8817
0.00158489	41.0003
0.00159404	41.1193
0.00160325	41.2386
0.0016125	41.3582
0.00162181	41.4782
0.00163117	41.5985
0.00164059	41.7192
0.00165006	41.8402
0.00165959	41.9616
0.00166917	42.0833
0.0016788	42.2054
0.0016885	42.3278
0.00169824	42.4506
0.00170805	42.5737
0.00171791	42.6972
0.00172783	42.8211
0.0017378	42.9453
0.00174783	43.0698
0.00175792	43.1947
0.00176807	43.32
0.00177828	43.4457
0.00178855	43.5717
0.00179887	43.698
0.00180926	43.8248
0.0018197	43.9518
0.00183021	44.0793
0.00184077	44.2071
0.0018514	44.3353
0.00186209	44.4639
0.00187284	44.5928
0.00188365	44.7221
0.00189452	44.8518
0.00190546	44.9819
0.00191646	45.1123
0.00192752	45.2431
0.00193865	45.3743
0.00194984	45.5059
0.0019611	45.6378
0.00197242	45.7701
0.00198381	45.9028
0.00199526	46.0359
0.00200678	46.1694
0.00201837	46.3032
0.00203002	46.4375
0.00204174	46.5721
0.00205353	46.7071
0.00206538	46.8425
0.0020773	46.9783
0.0020893	47.1145
0.00210136	47.251
0.00211349	47.388
0.00212569	47.5254
0.00213796	47.6631
0.0021503	47.8013
0.00216272	47.9399
0.0021752	48.0788
0.00218776	48.2182
0.00220039	48.3579
0.00221309	48.4981
0.00222587	48.6386
0.00223872	48.7796
0.00225165	48.921
0.00226464	49.0628
0.00227772	49.205
0.00229087	49.3476
0.00230409	49.4906
0.00231739	49.634
0.00233077	49.7778
0.00234423	49.9221
0.00235776	50.0668
0.00237137	50.2118
0.00238506	50.3574
0.00239883	50.5033
0.00241268	50.6496
0.00242661	50.7964
0.00244062	50.9436
0.00245471	51.0912
0.00246888	51.2392
0.00248313	51.3877
0.00249747	51.5366
0.00251189	51.6859
0.00252639	51.8357
0.00254097	51.9858
0.00255564	52.1365
0.0025704	52.2875
0.00258523	52.439
0.00260016	52.5909
0.00261517	52.7433
0.00263027	52.8961
0.00264545	53.0493
0.00266073	53.203
0.00267609	53.3571
0.00269153	53.5117
0.00270707	53.6667
0.0027227	53.8222
0.00273842	53.9781
0.00275423	54.1344
0.00277013	54.2913
0.00278612	54.4485
0.00280221	54.6062
0.00281838	54.7644
0.00283465	54.923
0.00285102	55.0821
0.00286748	55.2417
0.00288403	55.4017
0.00290068	55.5621
0.00291743	55.723
0.00293427	55.8844
0.00295121	56.0463
0.00296825	56.2086
0.00298538	56.3714
0.00300262	56.5347
0.00301995	56.6984
0.00303739	56.8626
0.00305492	57.0273
0.00307256	57.1924
0.0030903	57.358
0.00310814	57.5241
0.00312608	57.6907
0.00314413	57.8578
0.00316228	58.0253
0.00318053	58.1933
0.0031989	58.3619
0.00321736	58.5308
0.00323594	58.7003
0.00325462	58.8703
0.00327341	59.0408
0.0032923	59.2117
0.00331131	59.3832
0.00333043	59.5551
0.00334965	59.7275
0.00336899	59.9005
0.00338844	60.0739
0.003408	60.2478
0.00342768	60.4223
0.00344747	60.5972
0.00346737	60.7726
0.00348739	60.9486
0.00350752	61.125
0.00352777	61.302
0.00354813	61.4795
0.00356862	61.6574
0.00358922	61.8359
0.00360994	62.0149
0.00363078	62.1945
0.00365174	62.3745
0.00367282	62.5551
0.00369403	62.7361
0.00371535	62.9178
0.0037368	63.0999
0.00375837	63.2825
0.00378007	63.4657
0.00380189	63.6494
0.00382384	63.8337
0.00384592	64.0184
0.00386812	64.2037
0.00389045	64.3896
0.00391291	64.5759
0.0039355	64.7628
0.00395822	64.9503
0.00398107	65.1383
0.00400405	65.3268
0.00402717	65.5159
0.00405042	65.7055
0.0040738	65.8956
0.00409732	66.0863
0.00412098	66.2776
0.00414477	66.4694
0.00416869	66.6618
0.00419276	66.8547
0.00421697	67.0482
0.00424131	67.2422
0.0042658	67.4368
0.00429042	67.632
0.00431519	67.8277
0.0043401	68.0239
0.00436516	68.2208
0.00439036	68.4182
0.0044157	68.6162
0.0044412	68.8147
0.00446684	69.0139
0.00449262	69.2136
0.00451856	69.4138
0.00454465	69.6147
0.00457088	69.8161
0.00459727	70.0181
0.00462381	70.2207
0.0046505	70.4239
0.00467735	70.6277
0.00470435	70.832
0.00473151	71.0369
0.00475883	71.2425
0.0047863	71.4486
0.00481393	71.6553
0.00484172	71.8626
0.00486968	72.0705
0.00489779	72.279
0.00492606	72.4882
0.0049545	72.6979
0.0049831	72.9082
0.00501187	73.1191
0.00504081	73.3306
0.00506991	73.5428
0.00509918	73.7555
0.00512861	73.9689
0.00515822	74.1829
0.005188	74.3975
0.00521795	74.6127
0.00524807	74.8285
0.00527837	75.045
0.00530884	75.2621
0.00533949	75.4798
0.00537032	75.6981
0.00540132	75.9171
0.0054325	76.1367
0.00546387	76.3569
0.00549541	76.5778
0.00552713	76.7993
0.00555904	77.0214
0.00559114	77.2442
0.00562341	77.4676
0.00565588	77.6917
0.00568853	77.9164
0.00572137	78.1417
0.0057544	78.3678
0.00578762	78.5944
0.00582103	78.8217
0.00585464	79.0497
0.00588844	79.2783
0.00592243	79.5076
0.00595662	79.7375
0.00599101	79.9682
0.0060256	80.1994
0.00606038	80.4314
0.00609537	80.664
0.00613056	80.8973
0.00616595	81.1312
0.00620155	81.3658
0.00623735	81.6011
0.00627336	81.8371
0.00630957	82.0738
0.006346	82.3111
0.00638263	82.5491
0.00641948	82.7878
0.00645654	83.0273
0.00649382	83.2673
0.00653131	83.5081
0.00656901	83.7496
0.00660693	83.9918
0.00664508	84.2346
0.00668344	84.4782
0.00672202	84.7225
0.00676083	84.9675
0.00679986	85.2131
0.00683912	85.4595
0.0068786	85.7066
0.00691831	85.9544
0.00695825	86.203
0.00699842	86.4522
0.00703882	86.7022
0.00707946	86.9529
0.00712033	87.2043
0.00716143	87.4564
0.00720278	87.7093
0.00724436	87.9628
0.00728618	88.2172
0.00732825	88.4722
0.00737055	88.728
0.0074131	88.9845
0.0074559	89.2418
0.00749894	89.4998
0.00754223	89.7585
0.00758578	90.018
0.00762957	90.2783
0.00767361	90.5392
0.00771792	90.801
0.00776247	91.0635
0.00780728	91.3267
0.00785236	91.5908
0.00789769	91.8555
0.00794328	92.1211
0.00798914	92.3874
0.00803526	92.6544
0.00808165	92.9223
0.00812831	93.1909
0.00817523	93.4603
0.00822243	93.7304
0.0082699	94.0014
0.00831764	94.2731
0.00836566	94.5456
0.00841395	94.8189
0.00846253	95.093
0.00851138	95.3678
0.00856052	95.6435
0.00860994	95.92
0.00865964	96.1972
0.00870964	96.4753
0.00875992	96.7541
0.00881049	97.0338
0.00886135	97.3142
0.00891251	97.5955
0.00896396	97.8776
0.00901571	98.1605
0.00906776	98.4442
0.00912011	98.7287
0.00917276	99.0141
0.00922571	99.3002
0.00927897	99.5872
0.00933254	99.875
0.00938642	100.164
0.00944061	100.453
0.00949511	100.744
0.00954993	101.035
0.00960506	101.327
0.00966051	101.619
0.00971628	101.913
0.00977237	102.208
0.00982879	102.503
0.00988553	102.799
0.0099426	103.096
0.01	103.394
0.0100577	103.693
0.0101158	103.993
0.0101742	104.293
0.0102329	104.595
0.010292	104.897
0.0103514	105.2
0.0104112	105.504
0.0104713	105.809
0.0105317	106.115
0.0105925	106.421
0.0106537	106.729
0.0107152	107.037
0.0107771	107.615
0.0108393	107.925
0.0109018	108.236
0.0109648	108.548
0.0110281	108.861
0.0110917	109.175
0.0111558	109.49
0.0112202	109.805
0.011285	110.122
0.0113501	110.439
0.0114156	110.758
0.0114815	111.077
0.0115478	111.397
0.0116145	111.718
0.0116815	112.04
0.011749	112.363
0.0118168	112.687
0.011885	113.012
0.0119536	113.337
0.0120226	113.664
0.0120921	113.992
0.0121619	114.32
0.0122321	114.65
0.0123027	114.98
0.0123737	115.312
0.0124451	115.644
0.012517	115.977
0.0125893	116.312
0.0126619	116.647
0.012735	116.983
0.0128086	117.32
0.0128825	117.659
0.0129569	117.998
0.0130317	118.338
0.0131069	118.679
0.0131826	119.021
0.0132587	119.364
0.0133352	119.708
0.0134122	120.053
0.0134896	120.399
0.0135675	120.746
0.0136458	121.094
0.0137246	121.443
0.0138038	121.793
0.0138835	122.144
0.0139637	122.496
0.0140443	122.85
0.0141254	123.204
0.0142069	123.559
0.0142889	123.915
0.0143714	124.272
0.0144544	124.63
0.0145378	124.99
0.0146218	125.35
0.0147062	125.711
0.0147911	126.073
0.0148765	126.437
0.0149624	126.801
0.0150487	127.167
0.0151356	127.533
0.015223	127.901
0.0153109	128.27
0.0153993	128.639
0.0154882	129.01
0.0155776	129.382
0.0156675	129.755
0.015758	130.129
0.0158489	130.504
0.0159404	130.88
0.0160325	131.257
0.016125	131.636
0.0162181	132.015
0.0163117	132.396
0.0164059	132.777
0.0165006	133.16
0.0165959	133.544
0.0166917	133.929
0.016788	134.315
0.016885	134.702
0.0169824	135.09
0.0170805	135.48
0.0171791	135.87
0.0172783	136.262
0.017378	136.654
0.0174783	137.048
0.0175792	137.443
0.0176807	137.839
0.0177828	138.237
0.0178855	138.635
0.0179887	139.035
0.0180926	139.436
0.018197	139.837
0.0183021	140.241
0.0184077	140.645
0.018514	141.05
0.0186209	141.457
0.0187284	141.864
0.0188365	142.273
0.0189452	142.683
0.0190546	143.095
0.0191646	143.507
0.0192752	143.921
0.0193865	144.336
0.0194984	144.752
0.019611	145.169
0.0197242	145.587
0.0198381	146.007
0.0199526	146.428
0.0200678	146.85
0.0201837	147.273
0.0203002	147.698
0.0204174	148.123
0.0205353	148.55
0.0206538	148.979
0.020773	149.408
0.020893	149.839
0.0210136	150.27
0.0211349	150.704
0.0212569	151.138
0.0213796	151.574
0.021503	152.011
0.0216272	152.449
0.021752	152.888
0.0218776	153.329
0.0220039	153.771
0.0221309	154.214
0.0222587	154.658
0.0223872	155.104
0.0225165	155.551
0.0226464	156
0.0227772	156.449
0.0229087	156.9
0.0230409	157.352
0.0231739	157.806
0.0233077	158.261
0.0234423	158.717
0.0235776	159.175
0.0237137	159.633
0.0238506	160.093
0.0239883	160.555
0.0241268	161.018
0.0242661	161.482
0.0244062	161.947
0.0245471	162.414
0.0246888	162.882
0.0248313	163.352
0.0249747	163.823
0.0251189	164.295
0.0252639	164.768
0.0254097	165.243
0.0255564	165.72
0.025704	166.197
0.0258523	166.676
0.0260016	167.157
0.0261517	167.638
0.0263027	168.122
0.0264545	168.606
0.0266073	169.092
0.0267609	169.58
0.0269153	170.068
0.0270707	170.559
0.027227	171.05
0.0273842	171.543
0.0275423	172.038
0.0277013	172.534
0.0278612	173.031
0.0280221	173.53
0.0281838	174.03
0.0283465	174.531
0.0285102	175.034
0.0286748	175.539
0.0288403	176.045
0.0290068	176.552
0.0291743	177.061
0.0293427	177.572
0.0295121	178.083
0.0296825	178.597
0.0298538	179.112
0.0300262	179.628
0.0301995	180.146
0.0303739	180.665
0.0305492	181.186
0.0307256	181.708
0.030903	182.232
0.0310814	182.757
0.0312608	183.284
0.0314413	183.812
0.0316228	184.342
0.0318053	184.873
0.031989	185.406
0.0321736	185.94
0.0323594	186.476
0.0325462	187.014
0.0327341	187.553
0.032923	188.093
0.0331131	188.636
0.0333043	189.179
0.0334965	189.725
0.0336899	190.271
0.0338844	190.82
0.03408	191.37
0.0342768	191.921
0.0344747	192.475
0.0346737	193.029
0.0348739	193.586
0.0350752	194.144
0.0352777	194.703
0.0354813	195.265
0.0356862	195.827
0.0358922	196.392
0.0360994	196.958
0.0363078	197.526
0.0365174	198.095
0.0367282	198.666
0.0369403	199.239
0.0371535	199.813
0.037368	200.389
0.0375837	200.966
0.0378007	201.546
0.0380189	202.127
0.0382384	202.709
0.0384592	203.294
0.0386812	203.88
0.0389045	204.467
0.0391291	205.057
0.039355	205.648
0.0395822	206.24
0.0398107	206.835
0.0400405	207.431
0.0402717	208.029
0.0405042	208.628
0.040738	209.23
0.0409732	209.833
0.0412098	210.438
0.0414477	211.044
0.0416869	211.653
0.0419276	212.263
0.0421697	212.874
0.0424131	213.488
0.042658	214.103
0.0429042	214.721
0.0431519	215.339
0.043401	215.96
0.0436516	216.583
0.0439036	217.207
0.044157	217.833
0.044412	218.461
0.0446684	219.091
0.0449262	219.722
0.0451856	220.355
0.0454465	220.991
0.0457088	221.627
0.0459727	222.266
0.0462381	222.907
0.046505	223.549
0.0467735	224.194
0.0470435	224.84
0.0473151	225.488
0.0475883	226.138
0.047863	226.79
0.0481393	227.444
0.0484172	228.099
0.0486968	228.757
0.0489779	229.416
0.0492606	230.077
0.049545	230.74
0.049831	231.405
0.0501187	232.072
0.0504081	232.741
0.0506991	233.412
0.0509918	234.085
0.0512861	234.76
0.0515822	235.436
0.05188	236.115
0.0521795	236.796
0.0524807	237.478
0.0527837	238.163
0.0530884	238.849
0.0533949	239.538
0.0537032	240.228
0.0540132	240.92
0.054325	241.615
0.0546387	242.311
0.0549541	243.01
0.0552713	243.71
0.0555904	244.413
0.0559114	245.117
0.0562341	245.824
0.0565588	246.532
0.0568853	247.243
0.0572137	247.955
0.057544	248.67
0.0578762	249.387
0.0582103	250.106
0.0585464	250.827
0.0588844	251.55
0.0592243	252.275
0.0595662	253.002
0.0599101	253.731
0.060256	254.462
0.0606038	255.196
0.0609537	255.931
0.0613056	256.669
0.0616595	257.409
0.0620155	258.151
0.0623735	258.895
0.0627336	259.641
0.0630957	260.39
0.06346	261.14
0.0638263	261.893
0.0641948	262.648
0.0645654	263.405
0.0649382	264.164
0.0653131	264.925
0.0656901	265.689
0.0660693	266.455
0.0664508	267.223
0.0668344	267.993
0.0672202	268.766
0.0676083	269.54
0.0679986	270.317
0.0683912	271.096
0.068786	271.878
0.0691831	272.661
0.0695825	273.447
0.0699842	274.235
0.0703882	275.026
0.0707946	275.819
0.0712033	276.614
0.0716143	277.411
0.0720278	278.211
0.0724436	279.012
0.0728618	279.817
0.0732825	280.623
0.0737055	281.432
0.074131	282.243
0.074559	283.057
0.0749894	283.873
0.0754223	284.691
0.0758578	285.512
0.0762957	286.334
0.0767361	287.16
0.0771792	287.987
0.0776247	288.818
0.0780728	289.65
0.0785236	290.485
0.0789769	291.322
0.0794328	292.162
0.0798914	293.004
0.0803526	293.849
0.0808165	294.696
0.0812831	295.545
0.0817523	296.397
0.0822243	297.251
0.082699	298.108
0.0831764	298.967
0.0836566	299.829
0.0841395	300.693
0.0846253	301.56
0.0851138	302.429
0.0856052	303.301
0.0860994	304.175
0.0865964	305.052
0.0870964	305.931
0.0875992	306.813
0.0881049	307.697
0.0886135	308.584
0.0891251	309.474
0.0896396	310.366
0.0901571	311.26
0.0906776	312.157
0.0912011	313.057
0.0917276	313.959
0.0922571	314.864
0.0927897	315.772
0.0933254	316.682
0.0938642	317.595
0.0944061	318.51
0.0949511	319.428
0.0954993	320.349
0.0960506	321.273
0.0966051	322.199
0.0971628	323.127
0.0977237	324.059
0.0982879	324.993
0.0988553	325.929
0.099426	326.869
0.1	327.811
0.100577	328.756
0.101158	329.704
0.101742	330.654
0.102329	331.607
0.10292	332.563
0.103514	333.521
0.104112	334.483
0.104713	335.447
0.105317	336.414
0.105925	337.383
0.106537	338.356
0.107152	339.331
0.107771	340.309
0.108393	341.29
0.109018	342.274
0.109648	343.26
0.110281	344.25
0.110917	345.242
0.111558	346.237
0.112202	347.235
0.11285	348.236
0.113501	349.24
0.114156	350.246
0.114815	351.256
0.115478	352.268
0.116145	353.284
0.116815	354.302
0.11749	355.323
0.118168	356.347
0.11885	357.375
0.119536	358.405
0.120226	359.438
0.120921	360.474
0.121619	361.513
0.122321	362.555
0.123027	363.6
0.123737	364.648
0.124451	365.699
0.12517	366.753
0.125893	367.81
0.126619	368.87
0.12735	369.933
0.128086	371
0.128825	372.069
0.129569	373.142
0.130317	374.217
0.131069	375.296
0.131826	376.377
0.132587	377.462
0.133352	378.55
0.134122	379.641
0.134896	380.736
0.135675	381.833
0.136458	382.934
0.137246	384.037
0.138038	385.144
0.138835	386.255
0.139637	387.368
0.140443	388.484
0.141254	389.604
0.142069	390.727
0.142889	391.853
0.143714	392.983
0.144544	394.116
0.145378	395.252
0.146218	396.391
0.147062	397.533
0.147911	398.679
0.148765	399.828
0.149624	400.981
0.150487	402.137
0.151356	403.296
0.15223	404.458
0.153109	405.624
0.153993	406.793
0.154882	407.966
0.155776	409.142
0.156675	410.321
0.15758	411.504
0.158489	412.69
0.159404	413.879
0.160325	415.072
0.16125	416.269
0.162181	417.468
0.163117	418.672
0.164059	419.878
0.165006	421.089
0.165959	422.302
0.166917	423.52
0.16788	424.74
0.16885	425.965
0.169824	427.193
0.170805	428.424
0.171791	429.659
0.172783	430.897
0.17378	432.139
0.174783	433.385
0.175792	434.634
0.176807	435.887
0.177828	437.143
0.178855	438.403
0.179887	439.667
0.180926	440.934
0.18197	442.205
0.183021	443.48
0.184077	444.758
0.18514	446.04
0.186209	447.325
0.187284	448.615
0.188365	449.908
0.189452	451.205
0.190546	452.505
0.191646	453.81
0.192752	455.118
0.193865	456.429
0.194984	457.745
0.19611	459.064
0.197242	460.388
0.198381	461.715
0.199526	463.045
0.200678	464.38
0.201837	465.719
0.203002	467.061
0.204174	468.407
0.205353	469.757
0.206538	471.111
0.20773	472.469
0.20893	473.831
0.210136	475.197
0.211349	476.567
0.212569	477.94
0.213796	479.318
0.21503	480.699
0.216272	482.085
0.21752	483.475
0.218776	484.868
0.220039	486.266
0.221309	487.667
0.222587	489.073
0.223872	490.483
0.225165	491.896
0.226464	493.314
0.227772	494.736
0.229087	496.162
0.230409	497.592
0.231739	499.027
0.233077	500.465
0.234423	501.907
0.235776	503.354
0.237137	504.805
0.238506	506.26
0.239883	507.719
0.241268	509.183
0.242661	510.65
0.244062	512.122
0.245471	513.598
0.246888	515.079
0.248313	516.563
0.249747	518.052
0.251189	519.546
0.252639	521.043
0.254097	522.545
0.255564	524.051
0.25704	525.562
0.258523	527.076
0.260016	528.596
0.261517	530.119
0.263027	531.647
0.264545	533.18
0.266073	534.717
0.267609	536.258
0.269153	537.804
0.270707	539.354
0.27227	540.908
0.273842	542.467
0.275423	544.031
0.277013	545.599
0.278612	547.172
0.280221	548.749
0.281838	550.331
0.283465	551.917
0.285102	553.508
0.286748	555.103
0.288403	556.703
0.290068	558.308
0.291743	559.917
0.293427	561.531
0.295121	563.149
0.296825	564.773
0.298538	566.4
0.300262	568.033
0.301995	569.67
0.303739	571.312
0.305492	572.959
0.307256	574.611
0.30903	576.267
0.310814	577.928
0.312608	579.594
0.314413	581.264
0.316228	582.94
0.318053	584.62
0.31989	586.305
0.321736	587.995
0.323594	589.69
0.325462	591.39
0.327341	593.094
0.32923	594.804
0.331131	596.518
0.333043	598.237
0.334965	599.962
0.336899	601.691
0.338844	603.425
0.3408	605.165
0.342768	606.909
0.344747	608.658
0.346737	610.413
0.348739	612.172
0.350752	613.937
0.352777	615.706
0.354813	617.481
0.356862	619.261
0.358922	621.046
0.360994	622.836
0.363078	624.631
0.365174	626.432
0.367282	628.237
0.369403	630.048
0.371535	631.864
0.37368	633.685
0.375837	635.512
0.378007	637.344
0.380189	639.181
0.382384	641.023
0.384592	642.871
0.386812	644.724
0.389045	646.582
0.391291	648.446
0.39355	650.315
0.395822	652.189
0.398107	654.069
0.400405	656.004
0.402717	658.182
0.405042	660.372
0.40738	662.575
0.409732	664.791
0.412098	667.019
0.414477	669.26
0.416869	671.515
0.419276	673.782
0.421697	676.062
0.424131	678.355
0.42658	680.661
0.429042	682.98
0.431519	685.313
0.43401	687.658
0.436516	690.017
0.439036	692.389
0.44157	694.774
0.44412	697.173
0.446684	699.585
0.449262	702.01
0.451856	704.449
0.454465	706.901
0.457088	709.367
0.459727	711.846
0.462381	714.338
0.46505	716.845
0.467735	719.364
0.470435	721.898
0.473151	724.445
0.475883	727.005
0.47863	729.58
0.481393	732.131
0.484172	734.66
0.486968	737.202
0.489779	739.757
0.492606	742.325
0.49545	744.907
0.49831	747.503
0.501187	750.111
0.504081	752.733
0.506991	755.368
0.509918	758.017
0.512861	760.679
0.515822	763.354
0.5188	766.043
0.521795	768.745
0.524807	771.46
0.527837	774.188
0.530884	776.93
0.533949	779.685
0.537032	782.454
0.540132	785.235
0.54325	788.03
0.546387	790.838
0.549541	793.659
0.552713	796.493
0.555904	799.34
0.559114	802.201
0.562341	805.074
0.565588	807.96
0.568853	810.859
0.572137	813.771
0.57544	816.696
0.578762	819.634
0.582103	822.584
0.585464	825.547
0.588844	828.523
0.592243	831.511
0.595662	834.511
0.599101	837.524
0.60256	840.549
0.606038	843.587
0.609537	846.636
0.613056	849.698
0.616595	852.771
0.620155	855.856
0.623735	858.953
0.627336	862.062
0.630957	865.182
0.6346	868.313
0.638263	871.456
0.641948	874.6
0.645654	877.745
0.649382	880.901
0.653131	884.068
0.656901	887.245
0.660693	890.433
0.664508	893.631
0.668344	896.84
0.672202	900.058
0.676083	903.286
0.679986	906.524
0.683912	909.771
0.68786	913.028
0.691831	916.294
0.695825	919.569
0.699842	922.852
0.703882	926.145
0.707946	929.446
0.712033	932.755
0.716143	936.073
0.720278	939.398
0.724436	942.731
0.728618	946.071
0.732825	949.418
0.737055	952.773
0.74131	956.134
0.74559	959.501
0.749894	962.875
0.754223	966.255
0.758578	969.64
0.762957	973.031
0.767361	976.427
0.771792	979.827
0.776247	983.232
0.780728	986.642
0.785236	990.055
0.789769	993.471
0.794328	996.891
0.798914	1000.31
0.803526	1003.74
0.808165	1007.16
0.812831	1010.59
0.817523	1014.02
0.822243	1017.45
0.82699	1020.88
0.831764	1024.32
0.836566	1027.75
0.841395	1031.19
0.846253	1034.63
0.851138	1038.06
0.856052	1041.5
0.860994	1044.94
0.865964	1048.38
0.870964	1051.81
0.875992	1055.25
0.881049	1058.69
0.886135	1062.12
0.891251	1065.56
0.896396	1068.99
0.901571	1072.42
0.906776	1075.85
0.912011	1079.27
0.917276	1082.7
0.922571	1086.12
0.927897	1089.54
0.933254	1092.95
0.938642	1096.36
0.944061	1099.77
0.949511	1103.17
0.954993	1106.57
0.960506	1109.97
0.966051	1113.36
0.971628	1116.74
0.977237	1120.12
0.982879	1123.49
0.988553	1126.86
0.99426	1130.22
1	1133.58
1.00577	1136.93
1.01158	1140.28
1.01742	1143.62
1.02329	1146.95
1.0292	1150.28
1.03514	1153.6
1.04112	1156.91
1.04713	1160.22
1.05317	1163.52
1.05925	1166.81
1.06537	1170.09
1.07152	1173.37
1.07771	1176.64
1.08393	1179.91
1.09018	1183.16
1.09648	1186.41
1.10281	1189.65
1.10917	1192.88
1.11558	1196.11
1.12202	1199.33
1.1285	1202.53
1.13501	1205.73
1.14156	1208.93
1.14815	1212.11
1.15478	1215.29
1.16145	1218.45
1.16815	1221.61
1.1749	1224.76
1.18168	1227.9
1.1885	1231.03
1.19536	1234.15
1.20226	1237.27
1.20921	1240.37
1.21619	1243.47
1.22321	1246.55
1.23027	1249.63
1.23737	1252.7
1.24451	1255.76
1.2517	1258.81
1.25893	1261.85
1.26619	1264.88
1.2735	1267.9
1.28086	1270.92
1.28825	1273.92
1.29569	1276.92
1.30317	1279.9
1.31069	1282.88
1.31826	1285.85
1.32587	1288.81
1.33352	1291.76
1.34122	1294.69
1.34896	1297.62
1.35675	1300.54
1.36458	1303.45
1.37246	1306.36
1.38038	1309.25
1.38835	1312.13
1.39637	1315
1.40443	1317.86
1.41254	1320.71
1.42069	1323.55
1.42889	1326.39
1.43714	1329.21
1.44544	1332.02
1.45378	1334.82
1.46218	1337.62
1.47062	1340.4
1.47911	1343.18
1.48765	1345.94
1.49624	1348.7
1.50487	1351.44
1.51356	1354.18
1.5223	1356.9
1.53109	1359.62
1.53993	1362.33
1.54882	1365.03
1.55776	1367.72
1.56675	1370.4
1.5758	1373.07
1.58489	1375.73
1.59404	1378.39
1.60325	1381.03
1.6125	1383.68
1.62181	1386.31
1.63117	1388.93
1.64059	1391.55
1.65006	1394.16
1.65959	1396.76
1.66917	1399.35
1.6788	1401.93
1.6885	1404.5
1.69824	1407.06
1.70805	1409.61
1.71791	1412.15
1.72783	1414.68
1.7378	1417.2
1.74783	1419.72
1.75792	1422.22
1.76807	1424.71
1.77828	1427.19
1.78855	1429.66
1.79887	1432.12
1.80926	1434.57
1.8197	1437.01
1.83021	1439.44
1.84077	1441.85
1.8514	1444.26
1.86209	1446.65
1.87284	1449.04
1.88365	1451.41
1.89452	1453.77
1.90546	1456.12
1.91646	1458.46
1.92752	1460.79
1.93865	1463.1
1.94984	1465.41
1.9611	1467.7
1.97242	1469.99
1.98381	1472.26
1.99526	1474.52
2.00678	1476.76
2.01837	1479
2.03002	1481.23
2.04174	1483.44
2.05353	1485.64
2.06538	1487.84
2.0773	1490.02
2.0893	1492.19
2.10136	1494.35
2.11349	1496.49
2.12569	1498.63
2.13796	1500.76
2.1503	1502.87
2.16272	1504.98
2.1752	1507.07
2.18776	1509.16
2.20039	1511.23
2.21309	1513.3
2.22587	1515.35
2.23872	1517.4
2.25165	1519.43
2.26464	1521.46
2.27772	1523.48
2.29087	1525.49
2.30409	1527.49
2.31739	1529.48
2.33077	1531.47
2.34423	1533.45
2.35776	1535.42
2.37137	1537.38
2.38506	1539.34
2.39883	1541.29
2.41268	1543.19
2.42661	1545.07
2.44062	1546.95
2.45471	1548.83
2.46888	1550.69
2.48313	1552.55
2.49747	1554.4
2.51189	1556.25
2.52639	1558.09
2.54097	1559.92
2.55564	1561.75
2.5704	1563.56
2.58523	1565.37
2.60016	1567.18
2.61517	1568.97
2.63027	1570.76
2.64545	1572.54
2.66073	1574.31
2.67609	1576.08
2.69153	1577.83
2.70707	1579.58
2.7227	1581.32
2.73842	1583.05
2.75423	1584.78
2.77013	1586.49
2.78612	1588.19
2.80221	1589.89
2.81838	1591.58
2.83465	1593.26
2.85102	1594.93
2.86748	1596.59
2.88403	1598.24
2.90068	1599.88
2.91743	1601.52
2.93427	1603.14
2.95121	1604.75
2.96825	1606.36
2.98538	1607.95
3.00262	1609.54
3.01995	1611.11
3.03739	1612.68
3.05492	1614.23
3.07256	1615.78
3.0903	1617.31
3.10814	1618.84
3.12608	1620.36
3.14413	1621.86
3.16228	1623.36
3.18053	1624.84
3.1989	1626.32
3.21736	1627.79
3.23594	1629.26
3.25462	1630.71
3.27341	1632.16
3.2923	1633.59
3.31131	1635.02
3.33043	1636.43
3.34965	1637.83
3.36899	1639.23
3.38844	1640.61
3.408	1641.98
3.42768	1643.34
3.44747	1644.69
3.46737	1646.03
3.48739	1647.36
3.50752	1648.68
3.52777	1649.98
3.54813	1651.28
3.56862	1652.57
3.58922	1653.84
3.60994	1655.11
3.63078	1656.36
3.65174	1657.61
3.67282	1658.84
3.69403	1660.06
3.71535	1661.27
3.7368	1662.48
3.75837	1663.67
3.78007	1664.85
3.80189	1666.02
3.82384	1667.18
3.84592	1668.33
3.86812	1669.47
3.89045	1670.6
3.91291	1671.73
3.9355	1672.84
3.95822	1673.94
3.98107	1675.03
4.00405	1676.12
4.02717	1677.19
4.05042	1678.26
4.0738	1679.32
4.09732	1680.37
4.12098	1681.41
4.14477	1682.44
4.16869	1683.46
4.19276	1684.47
4.21697	1685.47
4.24131	1686.46
4.2658	1687.44
4.29042	1688.41
4.31519	1689.37
4.3401	1690.32
4.36516	1691.26
4.39036	1692.2
4.4157	1693.12
4.4412	1694.03
4.46684	1694.93
4.49262	1695.82
4.51856	1696.69
4.54465	1697.56
4.57088	1698.42
4.59727	1699.27
4.62381	1700.1
4.6505	1700.93
4.67735	1701.74
4.70435	1702.55
4.73151	1703.34
4.75883	1704.12
4.7863	1704.89
4.81393	1705.66
4.84172	1706.41
4.86968	1707.15
4.89779	1707.88
4.92606	1708.6
4.9545	1709.3
4.9831	1710
5.01187	1710.68
5.04081	1711.36
5.06991	1712.02
5.09918	1712.67
5.12861	1713.3
5.15822	1713.93
5.188	1714.54
5.21795	1715.14
5.24807	1715.73
5.27837	1716.31
5.30884	1716.87
5.33949	1717.42
5.37032	1717.96
5.40132	1718.48
5.4325	1719
5.46387	1719.5
5.49541	1719.99
5.52713	1720.46
5.55904	1720.92
5.59114	1721.37
5.62341	1721.81
5.65588	1722.23
5.68853	1722.64
5.72137	1723.04
5.7544	1723.42
5.78762	1723.79
5.82103	1724.15
5.85464	1724.49
5.88844	1724.82
5.92243	1725.14
5.95662	1725.44
5.99101	1725.73
6.0256	1726.01
6.06038	1726.28
6.09537	1726.53
6.13056	1726.77
6.16595	1726.99
6.20155	1727.21
6.23735	1727.41
6.27336	1727.59
6.30957	1727.77
6.346	1727.93
6.38263	1728.08
6.41948	1728.21
6.45654	1728.32
6.49382	1728.42
6.53131	1728.5
6.56901	1728.58
6.60693	1728.64
6.64508	1728.68
6.68344	1728.72
6.72202	1728.74
6.76083	1728.75
6.79986	1728.74
6.83912	1728.72
6.8786	1728.68
6.91831	1728.63
6.95825	1728.57
6.99842	1728.5
7.03882	1728.41
7.07946	1728.3
7.12033	1728.18
7.16143	1728.05
7.20278	1727.9
7.24436	1727.74
7.28618	1727.56
7.32825	1727.37
7.37055	1727.16
7.4131	1726.94
7.4559	1726.7
7.49894	1726.45
7.54223	1726.18
7.58578	1725.9
7.62957	1725.6
7.67361	1725.29
7.71792	1724.96
7.76247	1724.62
7.80728	1724.26
7.85236	1723.88
7.89769	1723.49
7.94328	1723.09
7.98914	1722.67
8.03526	1722.23
8.08165	1721.79
8.12831	1721.32
8.17523	1720.84
8.22243	1720.35
8.2699	1719.84
8.31764	1719.31
8.36566	1718.77
8.41395	1718.21
8.46253	1717.63
8.51138	1717.04
8.56052	1716.44
8.60994	1715.81
8.65964	1715.17
8.70964	1714.52
8.75992	1713.85
8.81049	1713.16
8.86135	1712.46
8.91251	1711.74
8.96396	1711.01
9.01571	1710.26
9.06776	1709.49
9.12011	1708.71
9.17276	1707.91
9.22571	1707.1
9.27897	1706.27
9.33254	1705.43
9.38642	1704.57
9.44061	1703.69
9.49511	1702.8
9.54993	1701.89
9.60506	1700.97
9.66051	1700.03
9.71628	1699.08
9.77237	1698.11
9.82879	1697.13
9.88553	1696.13
9.9426	1695.12
10	1694.09
10.0577	1693.04
10.1158	1691.98
10.1742	1690.91
10.2329	1689.82
10.292	1688.71
10.3514	1687.59
10.4112	1686.46
10.4713	1685.3
10.5317	1684.14
10.5925	1682.95
10.6537	1681.76
10.7152	1680.54
10.7771	1679.32
10.8393	1678.07
10.9018	1676.81
10.9648	1675.54
11.0281	1674.25
11.0917	1672.95
11.1558	1671.63
11.2202	1670.3
11.285	1668.95
11.3501	1667.59
11.4156	1666.22
11.4815	1664.83
11.5478	1663.42
11.6145	1662
11.6815	1660.57
11.749	1659.12
11.8168	1657.66
11.885	1656.18
11.9536	1654.69
12.0226	1653.18
12.0921	1651.66
12.1619	1650.13
12.2321	1648.58
12.3027	1647.02
12.3737	1645.44
12.4451	1643.85
12.517	1642.25
12.5893	1640.63
12.6619	1639
12.735	1637.36
12.8086	1635.7
12.8825	1634.03
12.9569	1632.35
13.0317	1630.65
13.1069	1628.94
13.1826	1627.22
13.2587	1625.48
13.3352	1623.73
13.4122	1621.97
13.4896	1620.19
13.5675	1618.41
13.6458	1616.6
13.7246	1614.79
13.8038	1612.96
13.8835	1611.12
13.9637	1609.27
14.0443	1607.41
14.1254	1605.53
14.2069	1603.64
14.2889	1601.74
14.3714	1599.83
14.4544	1597.9
14.5378	1595.96
14.6218	1594.01
14.7062	1592.05
14.7911	1590.08
14.8765	1588.09
14.9624	1586.1
15.0487	1584.09
15.1356	1582.07
15.223	1580.04
15.3109	1578
15.3993	1575.95
15.4882	1573.89
15.5776	1571.81
15.6675	1569.73
15.758	1567.63
15.8489	1565.53
15.9404	1563.42
16.0325	1561.29
16.125	1559.16
16.2181	1557.02
16.3117	1554.86
16.4059	1552.7
16.5006	1550.53
16.5959	1548.35
16.6917	1546.16
16.788	1543.96
16.885	1541.75
16.9824	1539.53
17.0805	1537.3
17.1791	1535.06
17.2783	1532.82
17.378	1530.56
17.4783	1528.29
17.5792	1526.02
17.6807	1523.73
17.7828	1521.44
17.8855	1519.13
17.9887	1516.82
18.0926	1514.5
18.197	1512.16
18.3021	1509.82
18.4077	1507.47
18.514	1505.11
18.6209	1502.74
18.7284	1500.36
18.8365	1497.97
18.9452	1495.58
19.0546	1493.17
19.1646	1490.76
19.2752	1488.33
19.3865	1485.9
19.4984	1483.46
19.611	1481.01
19.7242	1478.55
19.8381	1476.08
19.9526	1473.6
20.0678	1471.12
20.1837	1468.62
20.3002	1466.12
20.4174	1463.61
20.5353	1461.09
20.6538	1458.56
20.773	1456.03
20.893	1453.48
21.0136	1450.93
21.1349	1448.37
21.2569	1445.8
21.3796	1443.23
21.503	1440.64
21.6272	1438.05
21.752	1435.45
21.8776	1432.85
22.0039	1430.23
22.1309	1427.61
22.2587	1424.98
22.3872	1422.35
22.5165	1419.71
22.6464	1417.06
22.7772	1414.4
22.9087	1411.74
23.0409	1409.07
23.1739	1406.4
23.3077	1403.72
23.4423	1401.03
23.5776	1398.34
23.7137	1395.64
23.8506	1392.93
23.9883	1390.22
24.1268	1387.52
24.2661	1384.81
24.4062	1382.09
24.5471	1379.37
24.6888	1376.65
24.8313	1373.92
24.9747	1371.18
25.1189	1368.44
25.2639	1365.69
25.4097	1362.95
25.5564	1360.19
25.704	1357.43
25.8523	1354.67
26.0016	1351.9
26.1517	1349.13
26.3027	1346.35
26.4545	1343.57
26.6073	1340.78
26.7609	1337.99
26.9153	1335.2
27.0707	1332.4
27.227	1329.6
27.3842	1326.79
27.5423	1323.98
27.7013	1321.17
27.8612	1318.35
28.0221	1315.52
28.1838	1312.7
28.3465	1309.87
28.5102	1307.04
28.6748	1304.2
28.8403	1301.36
29.0068	1298.51
29.1743	1295.67
29.3427	1292.81
29.5121	1289.96
29.6825	1287.1
29.8538	1284.24
30.0262	1281.38
30.1995	1278.51
30.3739	1275.64
30.5492	1272.77
30.7256	1269.89
30.903	1267.01
31.0814	1264.13
31.2608	1261.24
31.4413	1258.36
31.6228	1255.47
31.8053	1252.57
31.989	1249.68
32.1736	1246.77
32.3594	1243.87
32.5462	1240.96
32.7341	1238.04
32.923	1235.13
33.1131	1232.21
33.3043	1229.29
33.4965	1226.37
33.6899	1223.45
33.8844	1220.52
34.08	1217.6
34.2768	1214.67
34.4747	1211.73
34.6737	1208.8
34.8739	1205.87
35.0752	1202.93
35.2777	1199.99
35.4813	1197.05
35.6862	1194.11
35.8922	1191.17
36.0994	1188.22
36.3078	1185.28
36.5174	1182.33
36.7282	1179.38
36.9403	1176.43
37.1535	1173.48
37.368	1170.53
37.5837	1167.57
37.8007	1164.62
38.0189	1161.66
38.2384	1158.7
38.4592	1155.75
38.6812	1152.79
38.9045	1149.83
39.1291	1146.87
39.355	1143.9
39.5822	1140.94
39.8107	1137.98
40.0405	1135.01
40.2717	1132.05
40.5042	1129.08
40.738	1126.12
40.9732	1123.15
41.2098	1120.18
41.4477	1117.21
41.6869	1114.24
41.9276	1111.27
42.1697	1108.3
42.4131	1105.33
42.658	1102.36
42.9042	1099.39
43.1519	1096.42
43.401	1093.46
43.6516	1090.49
43.9036	1087.52
44.157	1084.55
44.412	1081.58
44.6684	1078.61
44.9262	1075.64
45.1856	1072.67
45.4465	1069.71
45.7088	1066.74
45.9727	1063.77
46.2381	1060.81
46.505	1057.85
46.7735	1054.88
47.0435	1051.92
47.3151	1048.96
47.5883	1045.99
47.863	1043.03
48.1393	1040.07
48.4172	1037.11
48.6968	1034.15
48.9779	1031.19
49.2606	1028.23
49.545	1025.27
49.831	1022.32
50.1187	1019.36
50.4081	1016.41
50.6991	1013.46
50.9918	1010.51
51.2861	1007.56
51.5822	1004.61
51.88	1001.67
52.1795	998.726
52.4807	995.785
52.7837	992.846
53.0884	989.908
53.3949	986.973
53.7032	984.04
54.0132	981.109
54.325	978.18
54.6387	975.254
54.9541	972.33
55.2713	969.408
55.5904	966.488
55.9114	963.571
56.2341	960.656
56.5588	957.744
56.8853	954.834
57.2137	951.927
57.544	949.022
57.8762	946.119
58.2103	943.219
58.5464	940.321
58.8844	937.426
59.2243	934.534
59.5662	931.644
59.9101	928.756
60.256	925.871
60.6038	922.988
60.9537	920.107
61.3056	917.229
61.6595	914.353
62.0155	911.479
62.3735	908.608
62.7336	905.738
63.0957	902.871
63.46	900.005
63.8263	897.142
64.1948	894.287
64.5654	891.44
64.9382	888.595
65.3131	885.752
65.6901	882.911
66.0693	880.073
66.4508	877.236
66.8344	874.403
67.2202	871.571
67.6083	868.743
67.9986	865.917
68.3912	863.094
68.786	860.274
69.1831	857.456
69.5825	854.642
69.9842	851.831
70.3882	849.023
70.7946	846.219
71.2033	843.418
71.6143	840.62
72.0278	837.826
72.4436	835.036
72.8618	832.249
73.2825	829.466
73.7055	826.687
74.131	823.912
74.559	821.14
74.9894	818.373
75.4223	815.61
75.8578	812.85
76.2957	810.095
76.7361	807.345
77.1792	804.598
77.6247	801.856
78.0728	799.118
78.5236	796.385
78.9769	793.656
79.4328	790.931
79.8914	788.211
80.3526	785.492
80.8165	782.777
81.2831	780.067
81.7523	777.361
82.2243	774.66
82.699	771.963
83.1764	769.272
83.6566	766.585
84.1395	763.903
84.6253	761.227
85.1138	758.555
85.6052	755.888
86.0994	753.226
86.5964	750.57
87.0964	747.918
87.5992	745.272
88.1049	742.631
88.6135	739.995
89.1251	737.364
89.6396	734.739
90.1571	732.119
90.6776	729.504
91.2011	726.894
91.7276	724.289
92.2571	721.689
92.7897	719.095
93.3254	716.506
93.8642	713.921
94.4061	711.342
94.9511	708.768
95.4993	706.198
96.0506	703.634
96.6051	701.074
97.1628	698.518
97.7237	695.968
98.2879	693.423
98.8553	690.882
99.426	688.347
100	685.817
100.577	683.293
101.158	680.773
101.742	678.259
102.329	675.75
102.92	673.247
103.514	670.749
104.112	668.257
104.713	665.77
105.317	663.289
105.925	660.814
106.537	658.344
107.152	655.879
107.771	653.421
108.393	650.968
109.018	648.521
109.648	646.079
110.281	643.643
110.917	641.213
111.558	638.789
112.202	636.37
112.85	633.957
113.501	631.549
114.156	629.148
114.815	626.752
115.478	624.361
116.145	621.977
116.815	619.599
117.49	617.227
118.168	614.86
118.85	612.5
119.536	610.146
120.226	607.797
120.921	605.455
121.619	603.119
122.321	600.789
123.027	598.465
123.737	596.147
124.451	593.835
125.17	591.529
125.893	589.229
126.619	586.935
127.35	584.647
128.086	582.365
128.825	580.089
129.569	577.819
130.317	575.554
131.069	573.296
131.826	571.044
132.587	568.798
133.352	566.558
134.122	564.325
134.896	562.097
135.675	559.876
136.458	557.661
137.246	555.453
138.038	553.251
138.835	551.055
139.637	548.865
140.443	546.682
141.254	544.506
142.069	542.335
142.889	540.171
143.714	538.014
144.544	535.863
145.378	533.718
146.218	531.579
147.062	529.447
147.911	527.321
148.765	525.201
149.624	523.088
150.487	520.98
151.356	518.879
152.23	516.784
153.109	514.695
153.993	512.612
154.882	510.535
155.776	508.464
156.675	506.399
157.58	504.339
158.489	502.285
159.404	500.236
160.325	498.192
161.25	496.151
162.181	494.115
163.117	492.084
164.059	490.059
165.006	488.04
165.959	486.027
166.917	484.019
167.88	482.017
168.85	480.022
169.824	478.032
170.805	476.049
171.791	474.072
172.783	472.101
173.78	470.137
174.783	468.179
175.792	466.228
176.807	464.283
177.828	462.346
178.855	460.414
179.887	458.49
180.926	456.573
181.97	454.662
183.021	452.758
184.077	450.862
185.14	448.972
186.209	447.09
187.284	445.215
188.365	443.347
189.452	441.486
190.546	439.632
191.646	437.786
192.752	435.946
193.865	434.115
194.984	432.29
196.11	430.473
197.242	428.663
198.381	426.86
199.526	425.065
200.678	423.277
201.837	421.496
203.002	419.722
204.174	417.956
205.353	416.197
206.538	414.445
207.73	412.7
208.93	410.962
210.136	409.231
211.349	407.507
212.569	405.79
213.796	404.079
215.03	402.376
216.272	400.678
217.52	398.988
218.776	397.303
220.039	395.625
221.309	393.953
222.587	392.287
223.872	390.627
225.165	388.972
226.464	387.323
227.772	385.679
229.087	384.041
230.409	382.407
231.739	380.778
233.077	379.153
234.423	377.533
235.776	375.917
237.137	374.305
238.506	372.696
239.883	371.091
241.268	369.525
242.661	367.965
244.062	366.409
245.471	364.856
246.888	363.307
248.313	361.762
249.747	360.22
251.189	358.681
252.639	357.147
254.097	355.616
255.564	354.09
257.04	352.567
258.523	351.049
260.016	349.534
261.517	348.024
263.027	346.519
264.545	345.017
266.073	343.521
267.609	342.028
269.153	340.541
270.707	339.058
272.27	337.579
273.842	336.106
275.423	334.637
277.013	333.174
278.612	331.715
280.221	330.262
281.838	328.813
283.465	327.37
285.102	325.932
286.748	324.499
288.403	323.072
290.068	321.65
291.743	320.233
293.427	318.822
295.121	317.417
296.825	316.017
298.538	314.623
300.262	313.234
301.995	311.851
303.739	310.474
305.492	309.103
307.256	307.737
309.03	306.377
310.814	305.023
312.608	303.675
314.413	302.333
316.228	300.997
318.053	299.667
319.89	298.342
321.736	297.017
323.594	295.697
325.462	294.383
327.341	293.075
329.23	291.773
331.131	290.477
333.043	289.187
334.965	287.903
336.899	286.625
338.844	285.354
340.8	284.088
342.768	282.828
344.747	281.575
346.737	280.327
348.739	279.085
350.752	277.85
352.777	276.62
354.813	275.397
356.862	274.179
358.922	272.967
360.994	271.762
363.078	270.562
365.174	269.367
367.282	268.179
369.403	266.996
371.535	265.819
373.68	264.647
375.837	263.481
378.007	262.32
380.189	261.164
382.384	260.014
384.592	258.868
386.812	257.728
389.045	256.592
391.291	255.461
393.55	254.335
395.822	253.213
398.107	252.096
400.405	250.983
402.717	249.873
405.042	248.768
407.38	247.666
409.732	246.569
412.098	245.476
414.477	244.387
416.869	243.302
419.276	242.222
421.697	241.146
424.131	240.074
426.58	239.006
429.042	237.943
431.519	236.884
434.01	235.829
436.516	234.779
439.036	233.734
441.57	232.692
444.12	231.655
446.684	230.623
449.262	229.594
451.856	228.57
454.465	227.551
457.088	226.536
459.727	225.525
462.381	224.519
465.05	223.516
467.735	222.518
470.435	221.525
473.151	220.535
475.883	219.55
478.63	218.569
481.393	217.591
484.172	216.616
486.968	215.645
489.779	214.678
492.606	213.715
495.45	212.757
498.31	211.803
501.187	210.853
504.081	209.907
506.991	208.966
509.918	208.029
512.861	207.096
515.822	206.168
518.8	205.244
521.795	204.325
524.807	203.409
527.837	202.499
530.884	201.592
533.949	200.691
537.032	199.793
540.132	198.9
543.25	198.012
546.387	197.128
549.541	196.248
552.713	195.373
555.904	194.502
559.114	193.635
562.341	192.773
565.588	191.915
568.853	191.061
572.137	190.212
575.44	189.367
578.762	188.526
582.103	187.689
585.464	186.857
588.844	186.028
592.243	185.203
595.662	184.383
599.101	183.566
602.56	182.753
606.038	181.944
609.537	181.138
613.056	180.336
616.595	179.537
620.155	178.742
623.735	177.95
627.336	177.161
630.957	176.376
634.6	175.593
638.263	174.813
641.948	174.039
645.654	173.271
649.382	172.506
653.131	171.744
656.901	170.984
660.693	170.227
664.508	169.473
668.344	168.722
672.202	167.974
676.083	167.228
679.986	166.486
683.912	165.747
687.86	165.011
691.831	164.277
695.825	163.547
699.842	162.82
703.882	162.096
707.946	161.375
712.033	160.657
716.143	159.943
720.278	159.231
724.436	158.523
728.618	157.818
732.825	157.116
737.055	156.417
741.31	155.722
745.59	155.03
749.894	154.341
754.223	153.655
758.578	152.973
762.957	152.294
767.361	151.618
771.792	150.945
776.247	150.275
780.728	149.609
785.236	148.946
789.769	148.286
794.328	147.629
798.914	146.975
803.526	146.323
808.165	145.674
812.831	145.028
817.523	144.386
822.243	143.746
826.99	143.109
831.764	142.476
836.566	141.846
841.395	141.219
846.253	140.595
851.138	139.974
856.052	139.356
860.994	138.742
865.964	138.13
870.964	137.522
875.992	136.917
881.049	136.315
886.135	135.716
891.251	135.12
896.396	134.526
901.571	133.936
906.776	133.349
912.011	132.765
917.276	132.184
922.571	131.605
927.897	131.029
933.254	130.456
938.642	129.886
944.061	129.319
949.511	128.754
954.993	128.191
960.506	127.631
966.051	127.074
971.628	126.518
977.237	125.966
982.879	125.416
988.553	124.868
994.26	124.322
1000	123.78
1005.77	123.239
1011.58	122.702
1017.42	122.166
1023.29	121.634
1029.2	121.103
1035.14	120.576
1041.12	120.05
1047.13	119.528
1053.17	119.007
1059.25	118.49
1065.37	117.975
1071.52	117.462
1077.71	116.952
1083.93	116.444
1090.18	115.939
1096.48	115.436
1102.81	114.935
1109.17	114.437
1115.58	113.941
1122.02	113.448
1128.5	112.957
1135.01	112.468
1141.56	111.982
1148.15	111.498
1154.78	111.016
1161.45	110.536
1168.15	110.059
1174.9	109.585
1181.68	109.112
1188.5	108.642
1195.36	108.174
1202.26	107.709
1209.21	107.246
1216.19	106.785
1223.21	106.326
1230.27	105.87
1237.37	105.416
1244.51	104.964
1251.7	104.514
1258.93	104.067
1266.19	103.621
1273.5	103.178
1280.86	102.737
1288.25	102.298
1295.69	101.86
1303.17	101.425
1310.69	100.993
1318.26	100.562
1325.87	100.133
1333.52	99.7062
1341.22	99.2816
1348.96	98.8591
1356.75	98.4387
1364.58	98.0204
1372.46	97.6041
1380.38	97.19
1388.35	96.7779
1396.37	96.3678
1404.43	95.9598
1412.54	95.5539
1420.69	95.15
1428.89	94.7481
1437.14	94.3482
1445.44	93.9503
1453.78	93.5544
1462.18	93.1604
1470.62	92.7683
1479.11	92.3782
1487.65	91.99
1496.24	91.6038
1504.87	91.2193
1513.56	90.8368
1522.3	90.456
1531.09	90.0771
1539.93	89.6999
1548.82	89.3245
1557.76	88.9508
1566.75	88.5788
1575.8	88.2084
1584.89	87.8397
1594.04	87.4725
1603.25	87.1065
1612.5	86.7415
1621.81	86.378
1631.17	86.016
1640.59	85.6556
1650.06	85.2968
1659.59	84.9395
1669.17	84.5838
1678.8	84.2298
1688.5	83.8774
1698.24	83.5266
1708.05	83.1775
1717.91	82.8301
1727.83	82.4844
1737.8	82.1404
1747.83	81.7981
1757.92	81.4576
1768.07	81.1188
1778.28	80.7818
1788.55	80.4465
1798.87	80.113
1809.26	79.7813
1819.7	79.4514
1830.21	79.1233
1840.77	78.7971
1851.4	78.4726
1862.09	78.15
1872.84	77.8292
1883.65	77.5103
1894.52	77.1932
1905.46	76.8779
1916.46	76.5645
1927.52	76.2529
1938.65	75.9431
1949.84	75.6352
1961.1	75.3292
1972.42	75.025
1983.81	74.7226
1995.26	74.422
2006.78	74.1232
2018.37	73.8263
2030.02	73.5311
2041.74	73.2377
2053.53	72.9461
2065.38	72.6563
2077.3	72.3682
2089.3	72.0818
2101.36	71.7971
2113.49	71.5141
2125.69	71.2327
2137.96	70.953
2150.3	70.6749
2162.72	70.3984
2175.2	70.1234
2187.76	69.8499
2200.39	69.5779
2213.09	69.3074
2225.87	69.0383
2238.72	68.7705
2251.65	68.5041
2264.64	68.239
2277.72	67.9751
2290.87	67.7068
2304.09	67.4241
2317.39	67.1427
2330.77	66.8625
2344.23	66.5835
2357.76	66.3056
2371.37	66.0287
2385.06	65.7528
2398.83	65.4777
2412.68	65.211
2426.61	64.9459
2440.62	64.6816
2454.71	64.4183
2468.88	64.1558
2483.13	63.8943
2497.47	63.6337
2511.89	63.374
2526.39	63.1153
2540.97	62.8575
2555.64	62.6007
2570.4	62.345
2585.23	62.0902
2600.16	61.8364
2615.17	61.5837
2630.27	61.332
2645.45	61.0813
2660.73	60.8318
2676.09	60.5832
2691.53	60.3358
2707.07	60.0895
2722.7	59.8443
2738.42	59.6002
2754.23	59.3572
2770.13	59.1153
2786.12	58.8746
2802.21	58.6351
2818.38	58.3967
2834.65	58.1595
2851.02	57.9235
2867.48	57.6887
2884.03	57.4551
2900.68	57.2227
2917.43	56.9915
2934.27	56.7615
2951.21	56.5328
2968.25	56.3054
2985.38	56.0791
3002.62	55.8542
3019.95	55.6304
3037.39	55.408
3054.92	55.1868
3072.56	54.9669
3090.3	54.7483
3108.14	54.531
3126.08	54.315
3144.13	54.1002
3162.28	53.8868
3180.53	53.6746
3198.9	53.4638
3217.36	53.253
3235.94	53.0435
3254.62	52.8353
3273.41	52.6284
3292.3	52.4228
3311.31	52.2185
3330.43	52.0155
3349.65	51.8137
3368.99	51.6133
3388.44	51.4142
3408	51.2164
3427.68	51.0198
3447.47	50.8246
3467.37	50.6306
3487.39	50.4379
3507.52	50.2464
3527.77	50.0562
3548.13	49.8673
3568.62	49.6796
3589.22	49.4931
3609.94	49.3079
3630.78	49.1238
3651.74	48.941
3672.82	48.7593
3694.03	48.5789
3715.35	48.3995
3736.8	48.2213
3758.37	48.0442
3780.07	47.8682
3801.89	47.6933
3823.84	47.5194
3845.92	47.3466
3868.12	47.1748
3890.45	47.0039
3912.91	46.834
3935.5	46.665
3958.22	46.4969
3981.07	46.3297
4004.05	46.1633
4027.17	45.9976
4050.42	45.8328
4073.8	45.6687
4097.32	45.5055
4120.98	45.343
4144.77	45.1814
4168.69	45.0207
4192.76	44.8607
4216.97	44.7016
4241.31	44.5433
4265.8	44.3859
4290.42	44.2292
4315.19	44.0735
4340.1	43.9185
4365.16	43.7644
4390.36	43.6112
4415.7	43.4588
4441.2	43.3072
4466.84	43.1564
4492.62	43.0065
4518.56	42.8575
4544.65	42.7092
4570.88	42.5618
4597.27	42.4153
4623.81	42.2695
4650.5	42.1246
4677.35	41.9805
4704.35	41.8371
4731.51	41.6946
4758.83	41.5529
4786.3	41.412
4813.93	41.2717
4841.72	41.132
4869.68	40.9931
4897.79	40.8549
4926.06	40.7176
4954.5	40.581
4983.1	40.4453
5011.87	40.3103
5040.81	40.1762
5069.91	40.0428
5099.18	39.9103
5128.61	39.7786
5158.22	39.6476
5188	39.5175
5217.95	39.3882
5248.07	39.2597
5278.37	39.1321
5308.84	39.0052
5339.49	38.8792
5370.32	38.7539
5401.32	38.6295
5432.5	38.5059
5463.87	38.3831
5495.41	38.2611
5527.13	38.1399
5559.04	38.0195
5591.14	37.8999
5623.41	37.7811
5655.88	37.6631
5688.53	37.5459
5721.37	37.4294
5754.4	37.3137
5787.62	37.1987
5821.03	37.0845
5854.64	36.971
5888.44	36.8583
5922.43	36.7463
5956.62	36.635
5991.01	36.5243
6025.6	36.4144
6060.38	36.3052
6095.37	36.1966
6130.56	36.0886
6165.95	35.9813
6201.55	35.8745
6237.35	35.7684
6273.36	35.6628
6309.57	35.5578
6346	35.4533
6382.63	35.3494
6419.48	35.2464
6456.54	35.1445
6493.82	35.043
6531.31	34.942
6569.01	34.8415
6606.93	34.7415
6645.08	34.642
6683.44	34.5431
6722.02	34.4446
6760.83	34.3467
6799.86	34.2493
6839.12	34.1524
6878.6	34.056
6918.31	33.9602
6958.25	33.8649
6998.42	33.7702
7038.82	33.676
7079.46	33.5823
7120.33	33.4892
7161.43	33.3966
7202.78	33.3046
7244.36	33.2131
7286.18	33.1222
7328.25	33.0319
7370.55	32.9421
7413.1	32.8528
7455.9	32.7641
7498.94	32.6759
7542.23	32.5884
7585.78	32.5013
7629.57	32.4148
7673.61	32.3289
7717.92	32.2435
7762.47	32.1587
7807.28	32.0744
7852.36	31.9906
7897.69	31.9074
7943.28	31.8248
7989.14	31.7426
8035.26	31.6609
8081.65	31.5796
8128.31	31.4988
8175.23	31.4186
8222.43	31.3389
8269.9	31.2597
8317.64	31.1811
8365.66	31.103
8413.95	31.0254
8462.53	30.9484
8511.38	30.8718
8560.52	30.7958
8609.94	30.7204
8659.64	30.6454
8709.64	30.571
8759.92	30.4971
8810.49	30.4237
8861.35	30.3508
8912.51	30.2784
8963.96	30.2066
9015.71	30.1352
9067.76	30.0643
9120.11	29.9939
9172.76	29.924
9225.71	29.8546
9278.97	29.7856
9332.54	29.7171
9386.42	29.649
9440.61	29.5814
9495.11	29.5142
9549.93	29.4474
9605.06	29.3811
9660.51	29.3151
9716.28	29.2496
9772.37	29.1844
9828.79	29.1197
9885.53	29.0554
9942.6	28.9915
10000	28.928
10057.7	28.8649
10115.8	28.8023
10174.2	28.74
10232.9	28.6782
10292	28.6168
10351.4	28.5557
10411.2	28.4952
10471.3	28.435
10531.7	28.3752
10592.5	28.3158
10653.7	28.2569
10715.2	28.1983
10777.1	28.1402
10839.3	28.0825
10901.8	28.0251
10964.8	27.9682
11028.1	27.9116
11091.7	27.8554
11155.8	27.7997
11220.2	27.7443
11285	27.6893
11350.1	27.6346
11415.6	27.5804
11481.5	27.5265
11547.8	27.473
11614.5	27.4198
11681.5	27.3671
11749	27.3147
11816.8	27.2627
11885	27.2111
11953.6	27.1599
12022.6	27.109
12092.1	27.0585
12161.9	27.0084
12232.1	26.9586
12302.7	26.9092
12373.7	26.8602
12445.1	26.8115
12517	26.7632
12589.3	26.7152
12661.9	26.6676
12735	26.6203
12808.6	26.5734
12882.5	26.5268
12956.9	26.4805
13031.7	26.4346
13106.9	26.3889
13182.6	26.3437
13258.7	26.2987
13335.2	26.2541
13412.2	26.2098
13489.6	26.1659
13567.5	26.1222
13645.8	26.0789
13724.6	26.0359
13803.8	25.9933
13883.5	25.9509
13963.7	25.9089
14044.3	25.8672
14125.4	25.8258
14206.9	25.7847
14288.9	25.7438
14371.4	25.7033
14454.4	25.6631
14537.8	25.6232
14621.8	25.5835
14706.2	25.5441
14791.1	25.505
14876.5	25.4662
14962.4	25.4276
15048.7	25.3893
15135.6	25.3512
15223	25.3133
15310.9	25.2757
15399.3	25.2383
15488.2	25.2011
15577.6	25.1641
15667.5	25.1273
15758	25.0907
15848.9	25.0543
15940.4	25.018
16032.5	24.9814
16125	24.9444
16218.1	24.9076
16311.7	24.8711
16405.9	24.8349
16500.6	24.799
16595.9	24.7634
16691.7	24.728
16788	24.6929
16885	24.658
16982.4	24.6235
17080.5	24.5892
17179.1	24.5552
17278.3	24.5214
17378	24.4879
17478.3	24.4547
17579.2	24.4217
17680.7	24.389
17782.8	24.3566
17885.5	24.3244
17988.7	24.2925
18092.6	24.2608
18197	24.2294
18302.1	24.1982
18407.7	24.1673
18514	24.1366
18620.9	24.1062
18728.4	24.076
18836.5	24.0461
18945.2	24.0164
19054.6	23.987
19164.6	23.9578
19275.2	23.9288
19386.5	23.9001
19498.4	23.8716
19611	23.8434
19724.2	23.8154
19838.1	23.7876
19952.6	23.76
20067.8	23.7327
20183.7	23.7056
20300.2	23.6787
20417.4	23.6521
20535.3	23.6257
20653.8	23.5995
20773	23.5735
20893	23.5478
21013.6	23.5223
21134.9	23.497
21256.9	23.4719
21379.6	23.447
21503	23.4223
21627.2	23.3979
21752	23.3737
21877.6	23.3497
22003.9	23.3258
22130.9	23.3022
22258.7	23.2789
22387.2	23.2557
22516.5	23.2327
22646.4	23.2099
22777.2	23.1873
22908.7	23.165
23040.9	23.1428
23173.9	23.1208
23307.7	23.099
23442.3	23.0775
23577.6	23.0561
23713.7	23.0349
23850.6	23.0139
23988.3	22.9931
24126.8	22.9725
24266.1	22.9521
24406.2	22.9318
24547.1	22.9118
24688.8	22.892
24831.3	22.8723
24974.7	22.8528
25118.9	22.8335
25263.9	22.8144
25409.7	22.7954
25556.4	22.7767
25704	22.7581
25852.3	22.7397
26001.6	22.7215
26151.7	22.7034
26302.7	22.6855
26454.5	22.6678
26607.3	22.6503
26760.9	22.633
26915.3	22.6158
27070.7	22.5988
27227	22.5819
27384.2	22.5652
27542.3	22.5487
27701.3	22.5324
27861.2	22.5162
28022.1	22.5002
28183.8	22.4843
28346.5	22.4686
28510.2	22.4531
28674.8	22.4377
28840.3	22.4225
29006.8	22.4074
29174.3	22.3925
29342.7	22.3777
29512.1	22.3632
29682.5	22.3487
29853.8	22.3344
30026.2	22.3203
30199.5	22.3063
30373.9	22.2924
30549.2	22.2788
30725.6	22.2652
30903	22.2518
31081.4	22.2386
31260.8	22.2255
31441.3	22.2125
31622.8	22.1997
31805.3	22.187
31989	22.1745
32173.6	22.1621
32359.4	22.1498
32546.2	22.1377
32734.1	22.1257
32923	22.1139
33113.1	22.1021
33304.3	22.0906
33496.5	22.0791
33689.9	22.0678
33884.4	22.0566
34080	22.0456
34276.8	22.0347
34474.7	22.0239
34673.7	22.0132
34873.9	22.0027
35075.2	21.9923
35277.7	21.982
35481.3	21.9719
35686.2	21.9618
35892.2	21.9519
36099.4	21.9422
36307.8	21.9325
36517.4	21.923
36728.2	21.9135
36940.3	21.9042
37153.5	21.895
37368	21.886
37583.7	21.877
37800.7	21.8682
38018.9	21.8595
38238.4	21.8509
38459.2	21.8424
38681.2	21.834
38904.5	21.8258
39129.1	21.8176
39355	21.8096
39582.2	21.8016
39810.7	21.7938
40040.5	21.7861
40271.7	21.7785
40504.2	21.771
40738	21.7636
40973.2	21.7563
41209.8	21.7491
41447.7	21.742
41686.9	21.7351
41927.6	21.7282
42169.7	21.7214
42413.1	21.7147
42658	21.7081
42904.2	21.7017
43151.9	21.6953
43401	21.689
43651.6	21.6828
43903.6	21.6767
44157	21.6707
44412	21.6648
44668.4	21.659
44926.2	21.6533
45185.6	21.6477
45446.5	21.6422
45708.8	21.6367
45972.7	21.6314
46238.1	21.6262
46505	21.621
46773.5	21.6159
47043.5	21.6109
47315.1	21.606
47588.3	21.6012
47863	21.5965
48139.3	21.5918
48417.2	21.5873
48696.8	21.5828
48977.9	21.5784
49260.6	21.5741
49545	21.5699
49831	21.5657
50118.7	21.5616
50408.1	21.5577
50699.1	21.5538
50991.8	21.5499
51286.1	21.5462
51582.2	21.5425
51880	21.5389
52179.5	21.5354
52480.7	21.5319
52783.7	21.5286
53088.4	21.5253
53394.9	21.5221
53703.2	21.5189
54013.2	21.5158
54325	21.5128
54638.7	21.5099
54954.1	21.507
55271.3	21.5042
55590.4	21.5015
55911.4	21.4989
56234.1	21.4963
56558.8	21.4938
56885.3	21.4913
57213.7	21.4889
57544	21.4866
57876.2	21.4844
58210.3	21.4822
58546.4	21.4801
58884.4	21.478
59224.3	21.476
59566.2	21.4741
59910.1	21.4722
60256	21.4704
60603.8	21.4687
60953.7	21.467
61305.6	21.4654
61659.5	21.4638
62015.5	21.4623
62373.5	21.4608
62733.6	21.4595
63095.7	21.4581
63460	21.4568
63826.3	21.4556
64194.8	21.4545
64565.4	21.4534
64938.2	21.4523
65313.1	21.4513
65690.1	21.4504
66069.3	21.4495
66450.8	21.4486
66834.4	21.4479
67220.2	21.4471
67608.3	21.4464
67998.6	21.4458
68391.2	21.4452
68786	21.4447
69183.1	21.4442
69582.5	21.4438
69984.2	21.4434
70388.2	21.4431
70794.6	21.4428
71203.3	21.4425
71614.3	21.4424
72027.8	21.4422
72443.6	21.4421
72861.8	21.4421
73282.5	21.442
73705.5	21.4421
74131	21.4422
74559	21.4423
74989.4	21.4425
75422.3	21.4427
75857.8	21.4429
76295.7	21.4432
76736.1	21.4435
77179.2	21.4439
77624.7	21.4443
78072.8	21.4448
78523.6	21.4453
78976.9	21.4458
79432.8	21.4464
79891.4	21.447
80352.6	21.4477
80816.5	21.4484
81283.1	21.4491
81752.3	21.4499
82224.3	21.4507
82699	21.4515
83176.4	21.4524
83656.6	21.4533
84139.5	21.4542
84625.3	21.4552
85113.8	21.4562
85605.2	21.4573
86099.4	21.4584
86596.4	21.4595
87096.4	21.4606
87599.2	21.4618
88104.9	21.463
88613.5	21.4643
89125.1	21.4655
89639.6	21.4668
90157.1	21.4682
90677.6	21.4695
91201.1	21.4709
91727.6	21.4724
92257.1	21.4738
92789.7	21.4753
93325.4	21.4768
93864.2	21.4784
94406.1	21.4799
94951.1	21.4815
95499.3	21.4832
96050.6	21.4848
96605.1	21.4865
97162.8	21.4882
97723.7	21.4899
98287.9	21.4917
98855.3	21.4935
99426	21.4953
100000	21.4971
100577	21.499
101158	21.5009
101742	21.5028
102329	21.5047
102920	21.5066
103514	21.5086
104112	21.5106
104713	21.5126
105317	21.5147
105925	21.5167
106537	21.5188
107152	21.5209
107771	21.5231
108393	21.5252
109018	21.5274
109648	21.5296
110281	21.5318
110917	21.534
111558	21.5362
112202	21.5385
112850	21.5408
113501	21.5431
114156	21.5454
114815	21.5478
115478	21.5501
116145	21.5525
116815	21.5549
117490	21.5573
118168	21.5597
118850	21.5622
119536	21.5646
120226	21.5671
120921	21.5696
121619	21.5721
122321	21.5746
123027	21.5771
123737	21.5797
124451	21.5822
125170	21.5848
125893	21.5874
126619	21.59
127350	21.5926
128086	21.5953
128825	21.5979
129569	21.6006
130317	21.6032
131069	21.6059
131826	21.6086
132587	21.6113
133352	21.614
134122	21.6168
134896	21.6195
135675	21.6223
136458	21.625
137246	21.6278
138038	21.6306
138835	21.6334
139637	21.6362
140443	21.639
141254	21.6418
142069	21.6446
142889	21.6475
143714	21.6503
144544	21.6532
145378	21.6561
146218	21.6589
147062	21.6618
147911	21.6647
148765	21.6676
149624	21.6705
150487	21.6735
151356	21.6764
152230	21.6793
153109	21.6822
153993	21.6852
154882	21.6881
155776	21.6911
156675	21.6941
157580	21.697
158489	21.7
159404	21.703
160325	21.706
161250	21.709
162181	21.712
163117	21.715
164059	21.718
165006	21.721
165959	21.7241
166917	21.7271
167880	21.7301
168850	21.7331
169824	21.7362
170805	21.7392
171791	21.7423
172783	21.7453
173780	21.7484
174783	21.7514
175792	21.7545
176807	21.7576
177828	21.7606
178855	21.7637
179887	21.7668
180926	21.7698
181970	21.7729
183021	21.776
184077	21.7791
185140	21.7822
186209	21.7853
187284	21.7883
188365	21.7914
189452	21.7945
190546	21.7976
191646	21.8007
192752	21.8038
193865	21.8069
194984	21.81
196110	21.8131
197242	21.8162
198381	21.8193
199526	21.8224
200678	21.8255
201837	21.8286
203002	21.8317
204174	21.8348
205353	21.8379
206538	21.841
207730	21.8441
208930	21.8472
210136	21.8503
211349	21.8534
212569	21.8565
213796	21.8596
215030	21.8627
216272	21.8658
217520	21.8689
218776	21.872
220039	21.8751
221309	21.8782
222587	21.8813
223872	21.8844
225165	21.8874
226464	21.8905
227772	21.8936
229087	21.8967
230409	21.8998
231739	21.9028
233077	21.9059
234423	21.909
235776	21.9121
237137	21.9151
238506	21.9182
239883	21.9213
241268	21.9243
242661	21.9274
244062	21.9304
245471	21.9335
246888	21.9365
248313	21.9396
249747	21.9426
251189	21.9457
252639	21.9487
254097	21.9517
255564	21.9548
257040	21.9578
258523	21.9608
260016	21.9638
261517	21.9668
263027	21.9699
264545	21.9729
266073	21.9759
267609	21.9789
269153	21.9819
270707	21.9849
272270	21.9878
273842	21.9908
275423	21.9938
277013	21.9968
278612	21.9998
280221	22.0027
281838	22.0057
283465	22.0086
285102	22.0116
286748	22.0145
288403	22.0175
290068	22.0204
291743	22.0233
293427	22.0263
295121	22.0292
296825	22.0321
298538	22.035
300262	22.0379
301995	22.0408
303739	22.0437
305492	22.0466
307256	22.0495
309030	22.0524
310814	22.0553
312608	22.0581
314413	22.061
316228	22.0639
318053	22.0667
319890	22.0696
321736	22.0724
323594	22.0752
325462	22.0781
327341	22.0809
329230	22.0837
331131	22.0865
333043	22.0893
334965	22.0921
336899	22.0949
338844	22.0977
340800	22.1005
342768	22.1033
344747	22.1061
346737	22.1088
348739	22.1116
350752	22.1143
352777	22.1171
354813	22.1198
356862	22.1225
358922	22.1253
360994	22.128
363078	22.1307
365174	22.1334
367282	22.1361
369403	22.1388
371535	22.1415
373680	22.1442
375837	22.1468
378007	22.1495
380189	22.1522
382384	22.1548
384592	22.1575
386812	22.1601
389045	22.1627
391291	22.1654
393550	22.168
395822	22.1706
398107	22.1732
400405	22.1758
402717	22.1784
405042	22.181
407380	22.1836
409732	22.1861
412098	22.1887
414477	22.1912
416869	22.1938
419276	22.1963
421697	22.1989
424131	22.2014
426580	22.2039
429042	22.2064
431519	22.2089
434010	22.2114
436516	22.2139
439036	22.2164
441570	22.2189
444120	22.2214
446684	22.2238
449262	22.2263
451856	22.2287
454465	22.2312
457088	22.2336
459727	22.236
462381	22.2384
465050	22.2408
467735	22.2433
470435	22.2456
473151	22.248
475883	22.2504
478630	22.2528
481393	22.2552
484172	22.2575
486968	22.2599
489779	22.2622
492606	22.2645
495450	22.2669
498310	22.2692
501187	22.2715
504081	22.2738
506991	22.2761
509918	22.2784
512861	22.2807
515822	22.283
518800	22.2852
521795	22.2875
524807	22.2897
527837	22.292
530884	22.2942
533949	22.2964
537032	22.2987
540132	22.3009
543250	22.3031
546387	22.3053
549541	22.3075
552713	22.3097
555904	22.3118
559114	22.314
562341	22.3162
565588	22.3183
568853	22.3205
572137	22.3226
575440	22.3247
578762	22.3268
582103	22.329
585464	22.3311
588844	22.3332
592243	22.3352
595662	22.3373
599101	22.3394
602560	22.3415
606038	22.3435
609537	22.3456
613056	22.3476
616595	22.3497
620155	22.3517
623735	22.3537
627336	22.3557
630957	22.3577
634600	22.3597
638263	22.3617
641948	22.3637
645654	22.3657
649382	22.3676
653131	22.3696
656901	22.3715
660693	22.3735
664508	22.3754
668344	22.3774
672202	22.3793
676083	22.3812
679986	22.3831
683912	22.385
687860	22.3869
691831	22.3888
695825	22.3906
699842	22.3925
703882	22.3944
707946	22.3962
712033	22.3981
716143	22.3999
720278	22.4017
724436	22.4035
728618	22.4054
732825	22.4072
737055	22.409
741310	22.4108
745590	22.4125
749894	22.4143
754223	22.4161
758578	22.4178
762957	22.4196
767361	22.4213
771792	22.4231
776247	22.4248
780728	22.4265
785236	22.4282
789769	22.4299
794328	22.4316
798914	22.4333
803526	22.435
808165	22.4367
812831	22.4384
817523	22.44
822243	22.4417
826990	22.4433
831764	22.445
836566	22.4466
841395	22.4482
846253	22.4498
851138	22.4515
856052	22.4531
860994	22.4547
865964	22.4562
870964	22.4578
875992	22.4594
881049	22.461
886135	22.4625
891251	22.4641
896396	22.4656
901571	22.4672
906776	22.4687
912011	22.4702
917276	22.4717
922571	22.4732
927897	22.4747
933254	22.4762
938642	22.4777
944061	22.4792
949511	22.4807
954993	22.4821
960506	22.4836
966051	22.485
971628	22.4865
977237	22.4879
982879	22.4893
988553	22.4908
994260	22.4922
1e+06	22.4936
1.00577e+06	22.495
1.01158e+06	22.4964
1.01742e+06	22.4978
1.02329e+06	22.4991
1.0292e+06	22.5005
1.03514e+06	22.5019
1.04112e+06	22.5032
1.04713e+06	22.5046
1.05317e+06	22.5059
1.05925e+06	22.5073
1.06537e+06	22.5086
1.07152e+06	22.5099
1.07771e+06	22.5113
1.08393e+06	22.5126
1.09018e+06	22.5139
1.09648e+06	22.5152
1.10281e+06	22.5165
1.10917e+06	22.5177
1.11558e+06	22.519
1.12202e+06	22.5203
1.1285e+06	22.5215
1.13501e+06	22.5228
1.14156e+06	22.524
1.14815e+06	22.5253
1.15478e+06	22.5265
1.16145e+06	22.5278
1.16815e+06	22.529
1.1749e+06	22.5302
1.18168e+06	22.5314
1.1885e+06	22.5326
1.19536e+06	22.5338
1.20226e+06	22.535
1.20921e+06	22.5362
1.21619e+06	22.5373
1.22321e+06	22.5385
1.23027e+06	22.5397
1.23737e+06	22.5408
1.24451e+06	22.542
1.2517e+06	22.5431
1.25893e+06	22.5443
1.26619e+06	22.5454
1.2735e+06	22.5465
1.28086e+06	22.5476
1.28825e+06	22.5487
1.29569e+06	22.5498
1.30317e+06	22.5509
1.31069e+06	22.552
1.31826e+06	22.5531
1.32587e+06	22.5542
1.33352e+06	22.5553
1.34122e+06	22.5563
1.34896e+06	22.5574
1.35675e+06	22.5585
1.36458e+06	22.5595
1.37246e+06	22.5605
1.38038e+06	22.5616
1.38835e+06	22.5626
1.39637e+06	22.5636
1.40443e+06	22.5646
1.41254e+06	22.5657
1.42069e+06	22.5667
1.42889e+06	22.5677
1.43714e+06	22.5687
1.44544e+06	22.5696
1.45378e+06	22.5706
1.46218e+06	22.5716
1.47062e+06	22.5726
1.47911e+06	22.5735
1.48765e+06	22.5745
1.49624e+06	22.5754
1.50487e+06	22.5764
1.51356e+06	22.5773
1.5223e+06	22.5782
1.53109e+06	22.5792
1.53993e+06	22.5801
1.54882e+06	22.581
1.55776e+06	22.5819
1.56675e+06	22.5828
1.5758e+06	22.5837
1.58489e+06	22.5846
1.59404e+06	22.5855
1.60325e+06	22.5864
1.6125e+06	22.5873
1.62181e+06	22.5881
1.63117e+06	22.589
1.64059e+06	22.5898
1.65006e+06	22.5907
1.65959e+06	22.5915
1.66917e+06	22.5924
1.6788e+06	22.5932
1.6885e+06	22.594
1.69824e+06	22.5949
1.70805e+06	22.5957
1.71791e+06	22.5965
1.72783e+06	22.5973
1.7378e+06	22.5981
1.74783e+06	22.5989
1.75792e+06	22.5997
1.76807e+06	22.6005
1.77828e+06	22.6013
1.78855e+06	22.602
1.79887e+06	22.6028
1.80926e+06	22.6036
1.8197e+06	22.6043
1.83021e+06	22.6051
1.84077e+06	22.6058
1.8514e+06	22.6066
1.86209e+06	22.6073
1.87284e+06	22.608
1.88365e+06	22.6088
1.89452e+06	22.6095
1.90546e+06	22.6102
1.91646e+06	22.6109
1.92752e+06	22.6116
1.93865e+06	22.6123
1.94984e+06	22.613
1.9611e+06	22.6137
1.97242e+06	22.6144
1.98381e+06	22.6151
1.99526e+06	22.6157
2.00678e+06	22.6164
2.01837e+06	22.6171
2.03002e+06	22.6177
2.04174e+06	22.6184
2.05353e+06	22.619
2.06538e+06	22.6197
2.0773e+06	22.6203
2.0893e+06	22.621
2.10136e+06	22.6216
2.11349e+06	22.6222
2.12569e+06	22.6228
2.13796e+06	22.6235
2.1503e+06	22.6241
2.16272e+06	22.6247
2.1752e+06	22.6253
2.18776e+06	22.6259
2.20039e+06	22.6265
2.21309e+06	22.6271
2.22587e+06	22.6276
2.23872e+06	22.6282
2.25165e+06	22.6288
2.26464e+06	22.6294
2.27772e+06	22.6299
2.29087e+06	22.6305
2.30409e+06	22.6311
2.31739e+06	22.6316
2.33077e+06	22.6321
2.34423e+06	22.6327
2.35776e+06	22.6332
2.37137e+06	22.6338
2.38506e+06	22.6343
2.39883e+06	22.6348
2.41268e+06	22.6353
2.42661e+06	22.6358
2.44062e+06	22.6364
2.45471e+06	22.6369
2.46888e+06	22.6374
2.48313e+06	22.6379
2.49747e+06	22.6384
2.51189e+06	22.6389
2.52639e+06	22.6393
2.54097e+06	22.6398
2.55564e+06	22.6403
2.5704e+06	22.6408
2.58523e+06	22.6412
2.60016e+06	22.6417
2.61517e+06	22.6422
2.63027e+06	22.6426
2.64545e+06	22.6431
2.66073e+06	22.6435
2.67609e+06	22.644
2.69153e+06	22.6444
2.70707e+06	22.6448
2.7227e+06	22.6453
2.73842e+06	22.6457
2.75423e+06	22.6461
2.77013e+06	22.6465
2.78612e+06	22.647
2.80221e+06	22.6474
2.81838e+06	22.6478
2.83465e+06	22.6482
2.85102e+06	22.6486
2.86748e+06	22.649
2.88403e+06	22.6494
2.90068e+06	22.6498
2.91743e+06	22.6502
2.93427e+06	22.6505
2.95121e+06	22.6509
2.96825e+06	22.6513
2.98538e+06	22.6517
3.00262e+06	22.652
3.01995e+06	22.6524
3.03739e+06	22.6527
3.05492e+06	22.6531
3.07256e+06	22.6535
3.0903e+06	22.6538
3.10814e+06	22.6542
3.12608e+06	22.6545
3.14413e+06	22.6548
3.16228e+06	22.6552
3.18053e+06	22.6555
3.1989e+06	22.6558
3.21736e+06	22.6562
3.23594e+06	22.6565
3.25462e+06	22.6568
3.27341e+06	22.6571
3.2923e+06	22.6574
3.31131e+06	22.6577
3.33043e+06	22.658
3.34965e+06	22.6583
3.36899e+06	22.6586
3.38844e+06	22.6589
3.408e+06	22.6592
3.42768e+06	22.6595
3.44747e+06	22.6598
3.46737e+06	22.6601
3.48739e+06	22.6603
3.50752e+06	22.6606
3.52777e+06	22.6609
3.54813e+06	22.6612
3.56862e+06	22.6614
3.58922e+06	22.6617
3.60994e+06	22.662
3.63078e+06	22.6622
3.65174e+06	22.6625
3.67282e+06	22.6627
3.69403e+06	22.663
3.71535e+06	22.6632
3.7368e+06	22.6635
3.75837e+06	22.6637
3.78007e+06	22.6639
3.80189e+06	22.6642
3.82384e+06	22.6644
3.84592e+06	22.6646
3.86812e+06	22.6648
3.89045e+06	22.6651
3.91291e+06	22.6653
3.9355e+06	22.6655
3.95822e+06	22.6657
3.98107e+06	22.6659
4.00405e+06	22.6661
4.02717e+06	22.6663
4.05042e+06	22.6665
4.0738e+06	22.6667
4.09732e+06	22.6669
4.12098e+06	22.6671
4.14477e+06	22.6673
4.16869e+06	22.6675
4.19276e+06	22.6677
4.21697e+06	22.6679
4.24131e+06	22.6681
4.2658e+06	22.6683
4.29042e+06	22.6684
4.31519e+06	22.6686
4.3401e+06	22.6688
4.36516e+06	22.669
4.39036e+06	22.6691
4.4157e+06	22.6693
4.4412e+06	22.6695
4.46684e+06	22.6696
4.49262e+06	22.6698
4.51856e+06	22.6699
4.54465e+06	22.6701
4.57088e+06	22.6702
4.59727e+06	22.6704
4.62381e+06	22.6705
4.6505e+06	22.6707
4.67735e+06	22.6708
4.70435e+06	22.671
4.73151e+06	22.6711
4.75883e+06	22.6712
4.7863e+06	22.6714
4.81393e+06	22.6715
4.84172e+06	22.6716
4.86968e+06	22.6718
4.89779e+06	22.6719
4.92606e+06	22.672
4.9545e+06	22.6721
4.9831e+06	22.6722
5.01187e+06	22.6724
5.04081e+06	22.6725
5.06991e+06	22.6726
5.09918e+06	22.6727
5.12861e+06	22.6728
5.15822e+06	22.6729
5.188e+06	22.673
5.21795e+06	22.6731
5.24807e+06	22.6732
5.27837e+06	22.6733
5.30884e+06	22.6734
5.33949e+06	22.6735
5.37032e+06	22.6736
5.40132e+06	22.6737
5.4325e+06	22.6738
5.46387e+06	22.6739
5.49541e+06	22.674
5.52713e+06	22.6741
5.55904e+06	22.6742
5.59114e+06	22.6742
5.62341e+06	22.6743
5.65588e+06	22.6744
5.68853e+06	22.6745
5.72137e+06	22.6746
5.7544e+06	22.6746
5.78762e+06	22.6747
5.82103e+06	22.6748
5.85464e+06	22.6748
5.88844e+06	22.6749
5.92243e+06	22.675
5.95662e+06	22.675
5.99101e+06	22.6751
6.0256e+06	22.6752
6.06038e+06	22.6752
6.09537e+06	22.6753
6.13056e+06	22.6754
6.16595e+06	22.6754
6.20155e+06	22.6755
6.23735e+06	22.6755
6.27336e+06	22.6756
6.30957e+06	22.6756
6.346e+06	22.6757
6.38263e+06	22.6757
6.41948e+06	22.6758
6.45654e+06	22.6758
6.49382e+06	22.6759
6.53131e+06	22.6759
6.56901e+06	22.676
6.60693e+06	22.676
6.64508e+06	22.676
6.68344e+06	22.6761
6.72202e+06	22.6761
6.76083e+06	22.6762
6.79986e+06	22.6762
6.83912e+06	22.6762
6.8786e+06	22.6763
6.91831e+06	22.6763
6.95825e+06	22.6763
6.99842e+06	22.6764
7.03882e+06	22.6764
7.07946e+06	22.6764
7.12033e+06	22.6765
7.16143e+06	22.6765
7.20278e+06	22.6765
7.24436e+06	22.6765
7.28618e+06	22.6766
7.32825e+06	22.6766
7.37055e+06	22.6766
7.4131e+06	22.6766
7.4559e+06	22.6767
7.49894e+06	22.6767
7.54223e+06	22.6767
7.58578e+06	22.6767
7.62957e+06	22.6767
7.67361e+06	22.6767
7.71792e+06	22.6768
7.76247e+06	22.6768
7.80728e+06	22.6768
7.85236e+06	22.6768
7.89769e+06	22.6768
7.94328e+06	22.6768
7.98914e+06	22.6769
8.03526e+06	22.6769
8.08165e+06	22.6769
8.12831e+06	22.6769
8.17523e+06	22.6769
8.22243e+06	22.6769
8.2699e+06	22.6769
8.31764e+06	22.6769
8.36566e+06	22.6769
8.41395e+06	22.6769
8.46253e+06	22.6769
8.51138e+06	22.677
8.56052e+06	22.677
8.60994e+06	22.677
8.65964e+06	22.677
8.70964e+06	22.677
8.75992e+06	22.677
8.81049e+06	22.677
8.86135e+06	22.677
8.91251e+06	22.677
8.96396e+06	22.677
9.01571e+06	22.677
9.06776e+06	22.677
9.12011e+06	22.677
9.17276e+06	22.677
9.22571e+06	22.677
9.27897e+06	22.677
9.33254e+06	22.677
9.38642e+06	22.677
9.44061e+06	22.677
9.49511e+06	22.677
9.54993e+06	22.677
9.60506e+06	22.677
9.66051e+06	22.677
9.71628e+06	22.677
9.77237e+06	22.677
9.82879e+06	22.677
9.88553e+06	22.677
9.9426e+06	22.677
1e+07	22.677
