Stopping power dEdx from Ionisation for O16[0.0] Z = 8 in G4_TISSUE_SOFT_ICRP, process name: ionIoni
E [MeV]	dEdx [MeV/mm]
0.001	46.3649
0.00100577	46.4986
0.00101158	46.6326
0.00101742	46.767
0.00102329	46.9018
0.0010292	47.037
0.00103514	47.1726
0.00104112	47.3086
0.00104713	47.4449
0.00105317	47.5817
0.00105925	47.7188
0.00106537	47.8564
0.00107152	47.9943
0.00107771	48.1326
0.00108393	48.2714
0.00109018	48.4105
0.00109648	48.55
0.00110281	48.69
0.00110917	48.8303
0.00111558	48.9711
0.00112202	49.1122
0.0011285	49.2538
0.00113501	49.3958
0.00114156	49.5381
0.00114815	49.6809
0.00115478	49.8241
0.00116145	49.9677
0.00116815	50.1118
0.0011749	50.2562
0.00118168	50.4011
0.0011885	50.5463
0.00119536	50.692
0.00120226	50.8381
0.00120921	50.9847
0.00121619	51.1316
0.00122321	51.279
0.00123027	51.4268
0.00123737	51.575
0.00124451	51.7237
0.0012517	51.8728
0.00125893	52.0223
0.00126619	52.1723
0.0012735	52.3226
0.00128086	52.4735
0.00128825	52.6247
0.00129569	52.7764
0.00130317	52.9285
0.00131069	53.0811
0.00131826	53.2341
0.00132587	53.3875
0.00133352	53.5414
0.00134122	53.6957
0.00134896	53.8505
0.00135675	54.0057
0.00136458	54.1614
0.00137246	54.3175
0.00138038	54.474
0.00138835	54.6311
0.00139637	54.7885
0.00140443	54.9465
0.00141254	55.1048
0.00142069	55.2637
0.00142889	55.423
0.00143714	55.5827
0.00144544	55.7429
0.00145378	55.9036
0.00146218	56.0647
0.00147062	56.2263
0.00147911	56.3884
0.00148765	56.5509
0.00149624	56.7139
0.00150487	56.8774
0.00151356	57.0413
0.0015223	57.2057
0.00153109	57.3706
0.00153993	57.536
0.00154882	57.7018
0.00155776	57.8682
0.00156675	58.035
0.0015758	58.2022
0.00158489	58.37
0.00159404	58.5382
0.00160325	58.707
0.0016125	58.8762
0.00162181	59.0459
0.00163117	59.2161
0.00164059	59.3868
0.00165006	59.5579
0.00165959	59.7296
0.00166917	59.9018
0.0016788	60.0744
0.0016885	60.2476
0.00169824	60.4212
0.00170805	60.5954
0.00171791	60.7701
0.00172783	60.9452
0.0017378	61.1209
0.00174783	61.2971
0.00175792	61.4737
0.00176807	61.6509
0.00177828	61.8286
0.00178855	62.0068
0.00179887	62.1856
0.00180926	62.3648
0.0018197	62.5446
0.00183021	62.7249
0.00184077	62.9056
0.0018514	63.087
0.00186209	63.2688
0.00187284	63.4512
0.00188365	63.6341
0.00189452	63.8175
0.00190546	64.0014
0.00191646	64.1859
0.00192752	64.3709
0.00193865	64.5565
0.00194984	64.7425
0.0019611	64.9291
0.00197242	65.1163
0.00198381	65.304
0.00199526	65.4922
0.00200678	65.681
0.00201837	65.8703
0.00203002	66.0602
0.00204174	66.2506
0.00205353	66.4415
0.00206538	66.633
0.0020773	66.8251
0.0020893	67.0177
0.00210136	67.2109
0.00211349	67.4046
0.00212569	67.5989
0.00213796	67.7937
0.0021503	67.9892
0.00216272	68.1851
0.0021752	68.3817
0.00218776	68.5788
0.00220039	68.7764
0.00221309	68.9747
0.00222587	69.1735
0.00223872	69.3729
0.00225165	69.5728
0.00226464	69.7734
0.00227772	69.9745
0.00229087	70.1762
0.00230409	70.3784
0.00231739	70.5813
0.00233077	70.7847
0.00234423	70.9888
0.00235776	71.1934
0.00237137	71.3986
0.00238506	71.6044
0.00239883	71.8108
0.00241268	72.0178
0.00242661	72.2253
0.00244062	72.4335
0.00245471	72.6423
0.00246888	72.8517
0.00248313	73.0617
0.00249747	73.2723
0.00251189	73.4835
0.00252639	73.6953
0.00254097	73.9077
0.00255564	74.1207
0.0025704	74.3344
0.00258523	74.5486
0.00260016	74.7635
0.00261517	74.979
0.00263027	75.1951
0.00264545	75.4119
0.00266073	75.6292
0.00267609	75.8472
0.00269153	76.0658
0.00270707	76.2851
0.0027227	76.505
0.00273842	76.7255
0.00275423	76.9466
0.00277013	77.1684
0.00278612	77.3909
0.00280221	77.6139
0.00281838	77.8376
0.00283465	78.062
0.00285102	78.287
0.00286748	78.5127
0.00288403	78.739
0.00290068	78.9659
0.00291743	79.1935
0.00293427	79.4218
0.00295121	79.6507
0.00296825	79.8803
0.00298538	80.1105
0.00300262	80.3414
0.00301995	80.573
0.00303739	80.8053
0.00305492	81.0382
0.00307256	81.2718
0.0030903	81.506
0.00310814	81.7409
0.00312608	81.9766
0.00314413	82.2128
0.00316228	82.4498
0.00318053	82.6875
0.0031989	82.9258
0.00321736	83.1648
0.00323594	83.4045
0.00325462	83.6449
0.00327341	83.886
0.0032923	84.1278
0.00331131	84.3703
0.00333043	84.6135
0.00334965	84.8574
0.00336899	85.102
0.00338844	85.3473
0.003408	85.5933
0.00342768	85.84
0.00344747	86.0874
0.00346737	86.3355
0.00348739	86.5844
0.00350752	86.834
0.00352777	87.0843
0.00354813	87.3353
0.00356862	87.587
0.00358922	87.8395
0.00360994	88.0926
0.00363078	88.3466
0.00365174	88.6012
0.00367282	88.8566
0.00369403	89.1127
0.00371535	89.3696
0.0037368	89.6272
0.00375837	89.8855
0.00378007	90.1446
0.00380189	90.4044
0.00382384	90.665
0.00384592	90.9263
0.00386812	91.1884
0.00389045	91.4512
0.00391291	91.7148
0.0039355	91.9792
0.00395822	92.2443
0.00398107	92.5102
0.00400405	92.7746
0.00402717	93.0356
0.00405042	93.2973
0.0040738	93.5597
0.00409732	93.8229
0.00412098	94.0869
0.00414477	94.3516
0.00416869	94.6171
0.00419276	94.8833
0.00421697	95.1503
0.00424131	95.4181
0.0042658	95.6867
0.00429042	95.956
0.00431519	96.2261
0.0043401	96.497
0.00436516	96.7687
0.00439036	97.0411
0.0044157	97.3143
0.0044412	97.5883
0.00446684	97.8631
0.00449262	98.1387
0.00451856	98.4151
0.00454465	98.6923
0.00457088	98.9703
0.00459727	99.2491
0.00462381	99.5287
0.0046505	99.8091
0.00467735	100.09
0.00470435	100.372
0.00473151	100.655
0.00475883	100.939
0.0047863	101.223
0.00481393	101.509
0.00484172	101.795
0.00486968	102.082
0.00489779	102.369
0.00492606	102.658
0.0049545	102.947
0.0049831	103.238
0.00501187	103.529
0.00504081	103.821
0.00506991	104.113
0.00509918	104.407
0.00512861	104.701
0.00515822	104.997
0.005188	105.293
0.00521795	105.59
0.00524807	105.888
0.00527837	106.187
0.00530884	106.486
0.00533949	106.787
0.00537032	107.088
0.00540132	107.39
0.0054325	107.693
0.00546387	107.997
0.00549541	108.302
0.00552713	108.608
0.00555904	108.914
0.00559114	109.222
0.00562341	109.53
0.00565588	109.84
0.00568853	110.15
0.00572137	110.461
0.0057544	110.773
0.00578762	111.086
0.00582103	111.399
0.00585464	111.714
0.00588844	112.03
0.00592243	112.346
0.00595662	112.663
0.00599101	112.982
0.0060256	113.301
0.00606038	113.621
0.00609537	113.942
0.00613056	114.264
0.00616595	114.587
0.00620155	114.911
0.00623735	115.236
0.00627336	115.562
0.00630957	115.888
0.006346	116.216
0.00638263	116.545
0.00641948	116.874
0.00645654	117.205
0.00649382	117.536
0.00653131	117.869
0.00656901	118.202
0.00660693	118.536
0.00664508	118.872
0.00668344	119.208
0.00672202	119.545
0.00676083	119.883
0.00679986	120.223
0.00683912	120.563
0.0068786	120.904
0.00691831	121.246
0.00695825	121.589
0.00699842	121.933
0.00703882	122.279
0.00707946	122.625
0.00712033	122.972
0.00716143	123.32
0.00720278	123.669
0.00724436	124.019
0.00728618	124.371
0.00732825	124.723
0.00737055	125.076
0.0074131	125.43
0.0074559	125.786
0.00749894	126.142
0.00754223	126.499
0.00758578	126.858
0.00762957	127.217
0.00767361	127.578
0.00771792	127.939
0.00776247	128.302
0.00780728	128.665
0.00785236	129.03
0.00789769	129.396
0.00794328	129.763
0.00798914	130.131
0.00803526	130.499
0.00808165	130.869
0.00812831	131.241
0.00817523	131.613
0.00822243	131.986
0.0082699	132.36
0.00831764	132.736
0.00836566	133.112
0.00841395	133.49
0.00846253	133.868
0.00851138	134.248
0.00856052	134.629
0.00860994	135.011
0.00865964	135.394
0.00870964	135.778
0.00875992	136.164
0.00881049	136.55
0.00886135	136.938
0.00891251	137.327
0.00896396	137.716
0.00901571	138.107
0.00906776	138.499
0.00912011	138.893
0.00917276	139.287
0.00922571	139.683
0.00927897	140.079
0.00933254	140.477
0.00938642	140.876
0.00944061	141.276
0.00949511	141.678
0.00954993	142.08
0.00960506	142.484
0.00966051	142.889
0.00971628	143.295
0.00977237	143.702
0.00982879	144.11
0.00988553	144.52
0.0099426	144.931
0.01	145.342
0.0100577	145.756
0.0101158	146.17
0.0101742	146.586
0.0102329	147.002
0.010292	147.42
0.0103514	147.84
0.0104112	148.26
0.0104713	148.682
0.0105317	149.105
0.0105925	149.529
0.0106537	149.954
0.0107152	150.381
0.0107771	150.808
0.0108393	151.237
0.0109018	151.668
0.0109648	152.099
0.0110281	152.532
0.0110917	152.966
0.0111558	153.402
0.0112202	153.838
0.011285	154.276
0.0113501	154.715
0.0114156	155.156
0.0114815	155.598
0.0115478	156.041
0.0116145	156.485
0.0116815	156.931
0.011749	157.378
0.0118168	157.826
0.011885	158.275
0.0119536	158.726
0.0120226	159.178
0.0120921	159.632
0.0121619	160.087
0.0122321	160.543
0.0123027	161
0.0123737	161.459
0.0124451	161.919
0.012517	162.381
0.0125893	162.844
0.0126619	163.308
0.012735	163.773
0.0128086	164.24
0.0128825	164.709
0.0129569	165.178
0.0130317	165.649
0.0131069	166.122
0.0131826	166.595
0.0132587	167.07
0.0133352	167.547
0.0134122	168.025
0.0134896	168.504
0.0135675	168.985
0.0136458	169.467
0.0137246	169.951
0.0138038	170.436
0.0138835	170.922
0.0139637	171.41
0.0140443	171.899
0.0141254	172.39
0.0142069	172.882
0.0142889	173.375
0.0143714	173.87
0.0144544	174.367
0.0145378	174.864
0.0146218	175.364
0.0147062	175.865
0.0147911	176.367
0.0148765	176.871
0.0149624	177.376
0.0150487	177.882
0.0151356	178.391
0.015223	178.9
0.0153109	179.411
0.0153993	179.924
0.0154882	180.438
0.0155776	180.954
0.0156675	181.471
0.015758	181.99
0.0158489	182.51
0.0159404	183.031
0.0160325	183.371
0.016125	183.493
0.0162181	183.616
0.0163117	183.741
0.0164059	183.867
0.0165006	183.994
0.0165959	184.122
0.0166917	184.252
0.016788	184.382
0.016885	184.514
0.0169824	184.647
0.0170805	184.782
0.0171791	184.917
0.0172783	185.054
0.017378	185.191
0.0174783	185.33
0.0175792	185.47
0.0176807	185.611
0.0177828	185.753
0.0178855	185.896
0.0179887	186.04
0.0180926	186.185
0.018197	186.332
0.0183021	186.479
0.0184077	186.627
0.018514	186.776
0.0186209	186.926
0.0187284	187.077
0.0188365	187.229
0.0189452	187.382
0.0190546	187.536
0.0191646	187.69
0.0192752	187.846
0.0193865	188.003
0.0194984	188.16
0.019611	188.318
0.0197242	188.477
0.0198381	188.637
0.0199526	188.798
0.0200678	188.96
0.0201837	189.122
0.0203002	189.286
0.0204174	189.45
0.0205353	189.615
0.0206538	189.78
0.020773	189.947
0.020893	190.114
0.0210136	190.282
0.0211349	190.451
0.0212569	190.62
0.0213796	190.791
0.021503	190.962
0.0216272	191.134
0.021752	191.306
0.0218776	191.479
0.0220039	191.653
0.0221309	191.828
0.0222587	192.004
0.0223872	192.18
0.0225165	192.357
0.0226464	192.534
0.0227772	192.712
0.0229087	192.891
0.0230409	193.071
0.0231739	193.251
0.0233077	193.432
0.0234423	193.614
0.0235776	193.796
0.0237137	193.979
0.0238506	194.163
0.0239883	194.347
0.0241268	194.532
0.0242661	194.718
0.0244062	194.904
0.0245471	195.091
0.0246888	195.278
0.0248313	195.467
0.0249747	195.655
0.0251189	195.845
0.0252639	196.035
0.0254097	196.226
0.0255564	196.417
0.025704	196.609
0.0258523	196.802
0.0260016	196.995
0.0261517	197.189
0.0263027	197.384
0.0264545	197.579
0.0266073	197.775
0.0267609	197.971
0.0269153	198.168
0.0270707	198.366
0.027227	198.564
0.0273842	198.763
0.0275423	198.962
0.0277013	199.163
0.0278612	199.363
0.0280221	199.565
0.0281838	199.767
0.0283465	199.969
0.0285102	200.173
0.0286748	200.376
0.0288403	200.581
0.0290068	200.786
0.0291743	200.992
0.0293427	201.198
0.0295121	201.405
0.0296825	201.613
0.0298538	201.821
0.0300262	202.03
0.0301995	202.239
0.0303739	202.45
0.0305492	202.66
0.0307256	202.872
0.030903	203.084
0.0310814	203.297
0.0312608	203.51
0.0314413	203.724
0.0316228	203.938
0.0318053	204.154
0.031989	204.37
0.0321736	204.586
0.0323594	204.803
0.0325462	205.021
0.0327341	205.24
0.032923	205.459
0.0331131	205.679
0.0333043	205.899
0.0334965	206.121
0.0336899	206.342
0.0338844	206.565
0.03408	206.788
0.0342768	207.012
0.0344747	207.236
0.0346737	207.462
0.0348739	207.688
0.0350752	207.914
0.0352777	208.142
0.0354813	208.37
0.0356862	208.598
0.0358922	208.828
0.0360994	209.058
0.0363078	209.289
0.0365174	209.52
0.0367282	209.752
0.0369403	209.985
0.0371535	210.219
0.037368	210.453
0.0375837	210.689
0.0378007	210.924
0.0380189	211.161
0.0382384	211.398
0.0384592	211.637
0.0386812	211.875
0.0389045	212.115
0.0391291	212.355
0.039355	212.597
0.0395822	212.838
0.0398107	213.081
0.0400405	213.325
0.0402717	213.569
0.0405042	213.814
0.040738	214.06
0.0409732	214.306
0.0412098	214.554
0.0414477	214.802
0.0416869	215.051
0.0419276	215.301
0.0421697	215.551
0.0424131	215.803
0.042658	216.055
0.0429042	216.308
0.0431519	216.562
0.043401	216.817
0.0436516	217.073
0.0439036	217.329
0.044157	217.586
0.044412	217.845
0.0446684	218.104
0.0449262	218.363
0.0451856	218.624
0.0454465	218.886
0.0457088	219.148
0.0459727	219.412
0.0462381	219.676
0.046505	219.941
0.0467735	220.208
0.0470435	220.475
0.0473151	220.743
0.0475883	221.011
0.047863	221.281
0.0481393	221.552
0.0484172	221.824
0.0486968	222.096
0.0489779	222.37
0.0492606	222.644
0.049545	222.92
0.049831	223.196
0.0501187	223.473
0.0504081	223.752
0.0506991	224.031
0.0509918	224.311
0.0512861	224.593
0.0515822	224.875
0.05188	225.158
0.0521795	225.442
0.0524807	225.728
0.0527837	226.014
0.0530884	226.301
0.0533949	226.59
0.0537032	226.879
0.0540132	227.169
0.054325	227.461
0.0546387	227.753
0.0549541	228.047
0.0552713	228.341
0.0555904	228.637
0.0559114	228.934
0.0562341	229.232
0.0565588	229.531
0.0568853	229.831
0.0572137	230.132
0.057544	230.434
0.0578762	230.737
0.0582103	231.042
0.0585464	231.347
0.0588844	231.654
0.0592243	231.961
0.0595662	232.27
0.0599101	232.58
0.060256	232.891
0.0606038	233.204
0.0609537	233.517
0.0613056	233.832
0.0616595	234.148
0.0620155	234.465
0.0623735	234.783
0.0627336	235.102
0.0630957	235.423
0.06346	235.744
0.0638263	236.067
0.0641948	236.391
0.0645654	236.717
0.0649382	237.043
0.0653131	237.371
0.0656901	237.7
0.0660693	238.03
0.0664508	238.362
0.0668344	238.695
0.0672202	239.029
0.0676083	239.364
0.0679986	239.7
0.0683912	240.038
0.068786	240.377
0.0691831	240.717
0.0695825	241.059
0.0699842	241.402
0.0703882	241.746
0.0707946	242.092
0.0712033	242.439
0.0716143	242.787
0.0720278	243.136
0.0724436	243.487
0.0728618	243.839
0.0732825	244.193
0.0737055	244.548
0.074131	244.904
0.074559	245.261
0.0749894	245.62
0.0754223	245.981
0.0758578	246.342
0.0762957	246.705
0.0767361	247.07
0.0771792	247.435
0.0776247	247.803
0.0780728	248.171
0.0785236	248.541
0.0789769	248.913
0.0794328	249.286
0.0798914	249.66
0.0803526	250.036
0.0808165	250.413
0.0812831	250.792
0.0817523	251.172
0.0822243	251.553
0.082699	251.936
0.0831764	252.321
0.0836566	252.707
0.0841395	253.094
0.0846253	253.483
0.0851138	253.873
0.0856052	254.265
0.0860994	254.659
0.0865964	255.053
0.0870964	255.45
0.0875992	255.848
0.0881049	256.247
0.0886135	256.648
0.0891251	257.051
0.0896396	257.455
0.0901571	257.861
0.0906776	258.268
0.0912011	258.676
0.0917276	259.087
0.0922571	259.499
0.0927897	259.912
0.0933254	260.327
0.0938642	260.744
0.0944061	261.162
0.0949511	261.582
0.0954993	262.003
0.0960506	262.426
0.0966051	262.851
0.0971628	263.277
0.0977237	263.705
0.0982879	264.135
0.0988553	264.566
0.099426	264.999
0.1	265.433
0.100577	265.869
0.101158	266.307
0.101742	266.747
0.102329	267.188
0.10292	267.63
0.103514	268.075
0.104112	268.521
0.104713	268.969
0.105317	269.419
0.105925	269.87
0.106537	270.323
0.107152	270.777
0.107771	271.234
0.108393	271.692
0.109018	272.152
0.109648	272.614
0.110281	273.077
0.110917	273.542
0.111558	274.009
0.112202	274.477
0.11285	274.948
0.113501	275.42
0.114156	275.894
0.114815	276.369
0.115478	276.847
0.116145	277.326
0.116815	277.807
0.11749	278.29
0.118168	278.775
0.11885	279.261
0.119536	279.749
0.120226	280.24
0.120921	280.731
0.121619	281.225
0.122321	281.721
0.123027	282.218
0.123737	282.717
0.124451	283.219
0.12517	283.722
0.125893	284.226
0.126619	284.733
0.12735	285.242
0.128086	285.752
0.128825	286.264
0.129569	286.778
0.130317	287.295
0.131069	287.813
0.131826	288.332
0.132587	288.854
0.133352	289.378
0.134122	289.903
0.134896	290.431
0.135675	290.96
0.136458	291.492
0.137246	292.025
0.138038	292.56
0.138835	293.097
0.139637	293.636
0.140443	294.177
0.141254	294.72
0.142069	295.265
0.142889	295.812
0.143714	296.361
0.144544	296.912
0.145378	297.464
0.146218	298.019
0.147062	298.576
0.147911	299.135
0.148765	299.695
0.149624	300.258
0.150487	300.823
0.151356	301.389
0.15223	301.958
0.153109	302.529
0.153993	303.101
0.154882	303.676
0.155776	304.253
0.156675	304.832
0.15758	305.413
0.158489	305.995
0.159404	306.58
0.160325	307.167
0.16125	307.756
0.162181	308.347
0.163117	308.94
0.164059	309.535
0.165006	310.132
0.165959	310.731
0.166917	311.333
0.16788	311.936
0.16885	312.541
0.169824	313.149
0.170805	313.758
0.171791	314.37
0.172783	314.983
0.17378	315.599
0.174783	316.217
0.175792	316.837
0.176807	317.459
0.177828	318.083
0.178855	318.709
0.179887	319.337
0.180926	319.968
0.18197	320.6
0.183021	321.235
0.184077	321.871
0.18514	322.51
0.186209	323.151
0.187284	323.794
0.188365	324.439
0.189452	325.086
0.190546	325.736
0.191646	326.387
0.192752	327.041
0.193865	327.697
0.194984	328.354
0.19611	329.014
0.197242	329.676
0.198381	330.341
0.199526	331.007
0.200678	331.675
0.201837	332.346
0.203002	333.019
0.204174	333.694
0.205353	334.371
0.206538	335.05
0.20773	335.731
0.20893	336.414
0.210136	337.1
0.211349	337.788
0.212569	338.478
0.213796	339.17
0.21503	339.864
0.216272	340.56
0.21752	341.258
0.218776	341.959
0.220039	342.661
0.221309	343.366
0.222587	344.073
0.223872	344.782
0.225165	345.494
0.226464	346.207
0.227772	346.922
0.229087	347.64
0.230409	348.36
0.231739	349.082
0.233077	350.264
0.234423	351.455
0.235776	352.652
0.237137	353.858
0.238506	355.07
0.239883	356.291
0.241268	357.518
0.242661	358.754
0.244062	359.997
0.245471	361.247
0.246888	362.506
0.248313	363.772
0.249747	365.046
0.251189	366.329
0.252639	367.619
0.254097	368.917
0.255564	370.223
0.25704	371.538
0.258523	372.861
0.260016	374.192
0.261517	375.531
0.263027	376.879
0.264545	378.235
0.266073	379.6
0.267609	380.974
0.269153	382.356
0.270707	383.747
0.27227	385.147
0.273842	386.555
0.275423	387.973
0.277013	389.4
0.278612	390.835
0.280221	392.28
0.281838	393.734
0.283465	395.198
0.285102	396.67
0.286748	398.153
0.288403	399.644
0.290068	401.145
0.291743	402.656
0.293427	404.177
0.295121	405.707
0.296825	407.248
0.298538	408.798
0.300262	410.358
0.301995	411.928
0.303739	413.509
0.305492	415.099
0.307256	416.7
0.30903	418.312
0.310814	419.934
0.312608	421.566
0.314413	423.209
0.316228	424.863
0.318053	426.528
0.31989	428.204
0.321736	429.89
0.323594	431.588
0.325462	433.297
0.327341	435.017
0.32923	436.748
0.331131	438.491
0.333043	440.245
0.334965	442.011
0.336899	443.788
0.338844	445.577
0.3408	447.378
0.342768	449.192
0.344747	451.017
0.346737	452.854
0.348739	454.703
0.350752	456.565
0.352777	458.439
0.354813	460.326
0.356862	462.225
0.358922	464.138
0.360994	466.062
0.363078	468
0.365174	469.951
0.367282	471.915
0.369403	473.892
0.371535	475.883
0.37368	477.887
0.375837	479.904
0.378007	481.935
0.380189	483.98
0.382384	486.039
0.384592	488.111
0.386812	490.198
0.389045	492.299
0.391291	494.414
0.39355	496.544
0.395822	498.688
0.398107	500.847
0.400405	503.021
0.402717	505.082
0.405042	506.967
0.40738	508.862
0.409732	510.765
0.412098	512.677
0.414477	514.598
0.416869	516.529
0.419276	518.469
0.421697	520.418
0.424131	522.376
0.42658	524.344
0.429042	526.32
0.431519	528.307
0.43401	530.302
0.436516	532.307
0.439036	534.321
0.44157	536.344
0.44412	538.377
0.446684	540.42
0.449262	542.471
0.451856	544.533
0.454465	546.603
0.457088	548.683
0.459727	550.773
0.462381	552.872
0.46505	554.981
0.467735	557.099
0.470435	559.227
0.473151	561.365
0.475883	563.512
0.47863	565.668
0.481393	567.835
0.484172	570.011
0.486968	572.196
0.489779	574.392
0.492606	576.596
0.49545	578.811
0.49831	581.035
0.501187	582.827
0.504081	585.066
0.506991	587.314
0.509918	589.572
0.512861	591.84
0.515822	594.118
0.5188	596.405
0.521795	598.702
0.524807	601.009
0.527837	603.325
0.530884	605.651
0.533949	607.987
0.537032	610.332
0.540132	612.688
0.54325	615.053
0.546387	617.428
0.549541	619.812
0.552713	622.206
0.555904	624.61
0.559114	627.024
0.562341	629.448
0.565588	631.881
0.568853	634.324
0.572137	636.776
0.57544	639.239
0.578762	641.711
0.582103	644.193
0.585464	646.684
0.588844	649.185
0.592243	651.696
0.595662	654.217
0.599101	656.747
0.60256	659.287
0.606038	661.836
0.609537	664.396
0.613056	666.964
0.616595	669.543
0.620155	672.131
0.623735	674.728
0.627336	677.335
0.630957	679.952
0.6346	682.578
0.638263	685.213
0.641948	687.859
0.645654	690.513
0.649382	693.177
0.653131	695.85
0.656901	698.533
0.660693	701.225
0.664508	703.927
0.668344	706.638
0.672202	709.358
0.676083	712.087
0.679986	714.825
0.683912	717.573
0.68786	720.33
0.691831	723.096
0.695825	725.871
0.699842	728.655
0.703882	731.448
0.707946	734.25
0.712033	737.061
0.716143	739.881
0.720278	742.71
0.724436	745.548
0.728618	748.394
0.732825	751.249
0.737055	754.113
0.74131	756.985
0.74559	759.866
0.749894	762.756
0.754223	765.654
0.758578	768.56
0.762957	771.475
0.767361	774.398
0.771792	777.33
0.776247	780.269
0.780728	783.217
0.785236	786.173
0.789769	789.137
0.794328	792.109
0.798914	795.089
0.803526	798.077
0.808165	801.072
0.812831	804.075
0.817523	807.086
0.822243	810.105
0.82699	813.131
0.831764	816.164
0.836566	819.205
0.841395	822.253
0.846253	825.309
0.851138	828.371
0.856052	831.441
0.860994	834.517
0.865964	837.601
0.870964	840.691
0.875992	843.788
0.881049	846.891
0.886135	850.002
0.891251	853.118
0.896396	856.241
0.901571	859.371
0.906776	862.506
0.912011	865.648
0.917276	868.796
0.922571	871.949
0.927897	875.109
0.933254	878.274
0.938642	881.445
0.944061	884.621
0.949511	887.803
0.954993	890.989
0.960506	894.182
0.966051	897.379
0.971628	900.581
0.977237	903.788
0.982879	907
0.988553	910.217
0.99426	913.438
1	916.663
1.00577	919.893
1.01158	923.127
1.01742	926.365
1.02329	929.607
1.0292	932.852
1.03514	936.102
1.04112	939.354
1.04713	942.611
1.05317	945.87
1.05925	949.133
1.06537	952.399
1.07152	955.667
1.07771	958.939
1.08393	962.213
1.09018	965.489
1.09648	968.768
1.10281	972.049
1.10917	975.332
1.11558	978.617
1.12202	981.903
1.1285	985.192
1.13501	988.481
1.14156	991.772
1.14815	995.064
1.15478	998.357
1.16145	1001.65
1.16815	1004.95
1.1749	1008.24
1.18168	1011.54
1.1885	1014.83
1.19536	1018.13
1.20226	1021.42
1.20921	1024.72
1.21619	1028.01
1.22321	1031.31
1.23027	1034.6
1.23737	1037.89
1.24451	1041.19
1.2517	1044.48
1.25893	1047.77
1.26619	1051.05
1.2735	1054.34
1.28086	1057.62
1.28825	1060.9
1.29569	1064.18
1.30317	1067.46
1.31069	1070.73
1.31826	1074
1.32587	1077.27
1.33352	1080.53
1.34122	1083.79
1.34896	1087.05
1.35675	1090.3
1.36458	1093.55
1.37246	1096.8
1.38038	1100.04
1.38835	1103.27
1.39637	1106.51
1.40443	1109.73
1.41254	1112.95
1.42069	1116.17
1.42889	1119.38
1.43714	1122.58
1.44544	1125.78
1.45378	1128.98
1.46218	1132.16
1.47062	1135.34
1.47911	1138.51
1.48765	1141.68
1.49624	1144.84
1.50487	1147.99
1.51356	1151.13
1.5223	1154.27
1.53109	1157.4
1.53993	1160.52
1.54882	1163.63
1.55776	1166.73
1.56675	1169.83
1.5758	1172.91
1.58489	1175.99
1.59404	1179.05
1.60325	1182.11
1.6125	1185.16
1.62181	1188.19
1.63117	1191.22
1.64059	1194.24
1.65006	1197.24
1.65959	1200.24
1.66917	1203.22
1.6788	1206.2
1.6885	1209.16
1.69824	1212.11
1.70805	1215.04
1.71791	1217.97
1.72783	1220.88
1.7378	1223.78
1.74783	1226.67
1.75792	1229.55
1.76807	1232.41
1.77828	1235.26
1.78855	1238.09
1.79887	1240.92
1.80926	1243.72
1.8197	1246.52
1.83021	1249.3
1.84077	1252.06
1.8514	1254.81
1.86209	1257.55
1.87284	1260.27
1.88365	1262.97
1.89452	1265.66
1.90546	1268.33
1.91646	1270.99
1.92752	1273.63
1.93865	1276.26
1.94984	1278.87
1.9611	1281.46
1.97242	1284.03
1.98381	1286.59
1.99526	1289.13
2.00678	1291.66
2.01837	1294.16
2.03002	1296.65
2.04174	1299.12
2.05353	1301.57
2.06538	1304
2.0773	1306.42
2.0893	1308.81
2.10136	1311.19
2.11349	1313.55
2.12569	1315.89
2.13796	1318.21
2.1503	1320.51
2.16272	1322.79
2.1752	1325.05
2.18776	1327.29
2.20039	1329.51
2.21309	1331.71
2.22587	1333.89
2.23872	1336.04
2.25165	1338.18
2.26464	1340.3
2.27772	1342.39
2.29087	1344.47
2.30409	1346.52
2.31739	1348.55
2.33077	1350.56
2.34423	1352.55
2.35776	1354.51
2.37137	1356.45
2.38506	1358.37
2.39883	1360.27
2.41268	1362.15
2.42661	1364
2.44062	1365.83
2.45471	1367.64
2.46888	1369.42
2.48313	1371.18
2.49747	1372.92
2.51189	1374.63
2.52639	1376.32
2.54097	1377.99
2.55564	1379.63
2.5704	1381.25
2.58523	1382.85
2.60016	1384.42
2.61517	1385.96
2.63027	1387.49
2.64545	1388.99
2.66073	1390.46
2.67609	1391.91
2.69153	1393.34
2.70707	1394.74
2.7227	1396.11
2.73842	1397.46
2.75423	1398.79
2.77013	1400.09
2.78612	1401.37
2.80221	1402.62
2.81838	1403.84
2.83465	1405.05
2.85102	1406.22
2.86748	1407.37
2.88403	1408.5
2.90068	1409.6
2.91743	1410.67
2.93427	1411.72
2.95121	1412.74
2.96825	1413.74
2.98538	1414.71
3.00262	1415.66
3.01995	1416.58
3.03739	1417.48
3.05492	1418.35
3.07256	1419.19
3.0903	1420.01
3.10814	1420.81
3.12608	1421.58
3.14413	1422.32
3.16228	1423.03
3.18053	1423.73
3.1989	1424.39
3.21736	1425.03
3.23594	1425.64
3.25462	1426.23
3.27341	1426.8
3.2923	1427.33
3.31131	1427.85
3.33043	1428.33
3.34965	1428.79
3.36899	1429.23
3.38844	1429.64
3.408	1430.02
3.42768	1430.38
3.44747	1430.72
3.46737	1431.03
3.48739	1431.31
3.50752	1431.57
3.52777	1431.8
3.54813	1432.01
3.56862	1432.19
3.58922	1432.35
3.60994	1432.49
3.63078	1432.6
3.65174	1432.68
3.67282	1432.74
3.69403	1432.77
3.71535	1432.79
3.7368	1432.77
3.75837	1432.73
3.78007	1432.67
3.80189	1432.59
3.82384	1432.48
3.84592	1432.34
3.86812	1432.18
3.89045	1432
3.91291	1431.8
3.9355	1431.57
3.95822	1431.31
3.98107	1431.04
4.00405	1430.74
4.02717	1430.42
4.05042	1430.07
4.0738	1429.7
4.09732	1429.31
4.12098	1428.9
4.14477	1428.46
4.16869	1428
4.19276	1427.52
4.21697	1427.02
4.24131	1426.49
4.2658	1425.95
4.29042	1425.38
4.31519	1424.79
4.3401	1424.18
4.36516	1423.54
4.39036	1422.89
4.4157	1422.21
4.4412	1421.51
4.46684	1420.8
4.49262	1420.06
4.51856	1419.3
4.54465	1418.52
4.57088	1417.72
4.59727	1416.9
4.62381	1416.06
4.6505	1415.2
4.67735	1414.33
4.70435	1413.43
4.73151	1412.51
4.75883	1411.57
4.7863	1410.62
4.81393	1409.64
4.84172	1408.65
4.86968	1407.64
4.89779	1406.61
4.92606	1405.56
4.9545	1404.49
4.9831	1403.41
5.01187	1399.92
5.04081	1398.84
5.06991	1397.74
5.09918	1396.62
5.12861	1395.48
5.15822	1394.33
5.188	1393.16
5.21795	1391.97
5.24807	1390.76
5.27837	1389.54
5.30884	1388.3
5.33949	1387.05
5.37032	1385.78
5.40132	1384.49
5.4325	1383.19
5.46387	1381.88
5.49541	1380.54
5.52713	1379.2
5.55904	1377.83
5.59114	1376.46
5.62341	1375.06
5.65588	1373.66
5.68853	1372.24
5.72137	1370.8
5.7544	1369.36
5.78762	1367.89
5.82103	1366.42
5.85464	1364.93
5.88844	1363.43
5.92243	1361.91
5.95662	1360.38
5.99101	1358.84
6.0256	1357.29
6.06038	1355.72
6.09537	1354.15
6.13056	1352.56
6.16595	1350.96
6.20155	1349.34
6.23735	1347.72
6.27336	1346.09
6.30957	1344.44
6.346	1342.78
6.38263	1341.11
6.41948	1339.44
6.45654	1337.75
6.49382	1336.05
6.53131	1334.34
6.56901	1332.62
6.60693	1330.89
6.64508	1329.15
6.68344	1327.41
6.72202	1325.65
6.76083	1323.88
6.79986	1322.11
6.83912	1320.33
6.8786	1318.53
6.91831	1316.73
6.95825	1314.93
6.99842	1313.11
7.03882	1311.29
7.07946	1309.45
7.12033	1307.61
7.16143	1305.77
7.20278	1303.91
7.24436	1302.05
7.28618	1300.18
7.32825	1298.31
7.37055	1296.43
7.4131	1294.54
7.4559	1292.64
7.49894	1290.74
7.54223	1288.84
7.58578	1286.92
7.62957	1285.01
7.67361	1283.08
7.71792	1281.15
7.76247	1279.22
7.80728	1277.28
7.85236	1275.33
7.89769	1273.38
7.94328	1271.43
7.98914	1269.47
8.03526	1267.5
8.08165	1265.53
8.12831	1263.56
8.17523	1261.58
8.22243	1259.6
8.2699	1257.62
8.31764	1255.63
8.36566	1253.63
8.41395	1251.64
8.46253	1249.64
8.51138	1247.63
8.56052	1245.63
8.60994	1243.62
8.65964	1241.61
8.70964	1239.59
8.75992	1237.57
8.81049	1235.55
8.86135	1233.53
8.91251	1231.5
8.96396	1229.47
9.01571	1227.44
9.06776	1225.41
9.12011	1223.37
9.17276	1221.34
9.22571	1219.3
9.27897	1217.26
9.33254	1215.21
9.38642	1213.17
9.44061	1211.12
9.49511	1209.08
9.54993	1207.03
9.60506	1204.98
9.66051	1202.93
9.71628	1200.87
9.77237	1198.82
9.82879	1196.77
9.88553	1194.71
9.9426	1192.65
10	1190.6
10.0577	1188.54
10.1158	1186.48
10.1742	1184.42
10.2329	1182.36
10.292	1180.3
10.3514	1178.24
10.4112	1176.18
10.4713	1174.12
10.5317	1172.06
10.5925	1170
10.6537	1167.94
10.7152	1165.88
10.7771	1163.82
10.8393	1161.76
10.9018	1159.7
10.9648	1157.64
11.0281	1155.58
11.0917	1153.52
11.1558	1151.46
11.2202	1149.4
11.285	1147.34
11.3501	1145.28
11.4156	1143.22
11.4815	1141.16
11.5478	1139.11
11.6145	1137.05
11.6815	1134.99
11.749	1132.94
11.8168	1130.88
11.885	1128.83
11.9536	1126.78
12.0226	1124.73
12.0921	1122.68
12.1619	1120.62
12.2321	1118.58
12.3027	1116.53
12.3737	1114.48
12.4451	1112.43
12.517	1110.39
12.5893	1108.34
12.6619	1106.3
12.735	1104.26
12.8086	1102.21
12.8825	1100.17
12.9569	1098.13
13.0317	1096.1
13.1069	1094.06
13.1826	1092.02
13.2587	1089.99
13.3352	1087.95
13.4122	1085.92
13.4896	1083.89
13.5675	1081.86
13.6458	1079.83
13.7246	1077.8
13.8038	1075.77
13.8835	1073.75
13.9637	1071.72
14.0443	1069.7
14.1254	1067.68
14.2069	1065.66
14.2889	1063.64
14.3714	1061.62
14.4544	1059.6
14.5378	1057.59
14.6218	1055.57
14.7062	1053.56
14.7911	1051.55
14.8765	1049.54
14.9624	1047.53
15.0487	1045.52
15.1356	1043.51
15.223	1041.51
15.3109	1039.5
15.3993	1037.5
15.4882	1035.5
15.5776	1033.49
15.6675	1031.49
15.758	1029.5
15.8489	1027.5
15.9404	1025.5
16.0325	1023.51
16.125	1021.51
16.2181	1019.52
16.3117	1017.53
16.4059	1015.54
16.5006	1013.55
16.5959	1011.56
16.6917	1009.58
16.788	1007.59
16.885	1005.6
16.9824	1003.62
17.0805	1001.64
17.1791	999.658
17.2783	997.677
17.378	995.698
17.4783	993.72
17.5792	991.743
17.6807	989.767
17.7828	987.792
17.8855	985.818
17.9887	983.845
18.0926	981.873
18.197	979.902
18.3021	977.932
18.4077	975.963
18.514	973.995
18.6209	972.028
18.7284	970.061
18.8365	968.096
18.9452	966.132
19.0546	964.168
19.1646	962.206
19.2752	960.244
19.3865	958.283
19.4984	956.323
19.611	954.364
19.7242	952.406
19.8381	950.448
19.9526	948.491
20.0678	946.535
20.1837	944.58
20.3002	942.633
20.4174	940.679
20.5353	938.725
20.6538	936.773
20.773	934.821
20.893	932.87
21.0136	930.92
21.1349	928.97
21.2569	927.021
21.3796	925.073
21.503	923.126
21.6272	921.179
21.752	919.233
21.8776	917.287
22.0039	915.343
22.1309	913.398
22.2587	911.455
22.3872	909.512
22.5165	907.57
22.6464	905.628
22.7772	903.687
22.9087	901.746
23.0409	899.806
23.1739	897.867
23.3077	895.928
23.4423	893.989
23.5776	892.052
23.7137	890.114
23.8506	888.177
23.9883	886.241
24.1268	884.305
24.2661	882.37
24.4062	880.435
24.5471	878.501
24.6888	876.567
24.8313	874.634
24.9747	872.701
25.1189	870.768
25.2639	868.836
25.4097	866.904
25.5564	864.973
25.704	863.043
25.8523	861.112
26.0016	859.182
26.1517	857.253
26.3027	855.324
26.4545	853.395
26.6073	851.467
26.7609	849.539
26.9153	847.611
27.0707	845.684
27.227	843.757
27.3842	841.831
27.5423	839.905
27.7013	837.979
27.8612	836.054
28.0221	834.129
28.1838	832.205
28.3465	830.281
28.5102	828.357
28.6748	826.433
28.8403	824.51
29.0068	822.588
29.1743	820.665
29.3427	818.743
29.5121	816.822
29.6825	814.901
29.8538	812.98
30.0262	811.059
30.1995	809.139
30.3739	807.219
30.5492	805.3
30.7256	803.381
30.903	801.462
31.0814	799.543
31.2608	797.625
31.4413	795.708
31.6228	793.79
31.8053	791.842
31.989	789.794
32.1736	787.747
32.3594	785.701
32.5462	783.656
32.7341	781.612
32.923	779.568
33.1131	777.57
33.3043	775.525
33.4965	773.479
33.6899	771.437
33.8844	769.393
34.08	767.35
34.2768	765.306
34.4747	763.262
34.6737	761.219
34.8739	759.176
35.0752	757.133
35.2777	755.091
35.4813	753.148
35.6862	751.105
35.8922	749.093
36.0994	747.051
36.3078	745.01
36.5174	742.969
36.7282	740.928
36.9403	738.887
37.1535	736.847
37.368	734.809
37.5837	732.771
37.8007	730.732
38.0189	728.694
38.2384	726.656
38.4592	724.619
38.6812	722.582
38.9045	720.968
39.1291	718.929
39.355	716.89
39.5822	714.853
39.8107	711.403
40.0405	709.343
40.2717	707.413
40.5042	705.355
40.738	703.298
40.9732	701.243
41.2098	699.189
41.4477	697.139
41.6869	695.09
41.9276	693.041
42.1697	690.994
42.4131	688.948
42.658	686.902
42.9042	684.858
43.1519	682.814
43.401	680.771
43.6516	678.729
43.9036	676.689
44.157	674.65
44.412	672.611
44.6684	670.573
44.9262	668.537
45.1856	666.502
45.4465	664.468
45.7088	662.435
45.9727	660.402
46.2381	658.372
46.505	656.342
46.7735	654.314
47.0435	652.287
47.3151	650.67
47.5883	648.644
47.863	646.619
48.1393	644.596
48.4172	642.574
48.6968	640.553
48.9779	638.534
49.2606	636.517
49.545	634.501
49.831	632.482
50.1187	630.469
50.4081	628.457
50.6991	626.448
50.9918	624.44
51.2861	622.434
51.5822	620.429
51.88	618.427
52.1795	616.426
52.4807	614.428
52.7837	612.432
53.0884	610.437
53.3949	608.445
53.7032	606.48
54.0132	604.491
54.325	602.505
54.6387	600.52
54.9541	598.538
55.2713	596.558
55.5904	594.581
55.9114	592.63
56.2341	590.719
56.5588	588.809
56.8853	586.9
57.2137	584.993
57.544	583.087
57.8762	581.183
58.2103	579.281
58.5464	577.381
58.8844	575.483
59.2243	573.586
59.5662	571.691
59.9101	569.799
60.256	567.908
60.6038	566.019
60.9537	564.133
61.3056	562.248
61.6595	560.366
62.0155	558.486
62.3735	556.608
62.7336	554.733
63.0957	552.86
63.46	550.989
63.8263	549.12
64.1948	547.254
64.5654	545.391
64.9382	543.679
65.3131	541.818
65.6901	539.96
66.0693	538.104
66.4508	536.251
66.8344	534.4
67.2202	532.553
67.6083	530.708
67.9986	528.866
68.3912	527.027
68.786	525.191
69.1831	523.357
69.5825	521.527
69.9842	519.699
70.3882	517.875
70.7946	516.054
71.2033	514.582
71.6143	512.763
72.0278	510.948
72.4436	509.135
72.8618	507.326
73.2825	505.52
73.7055	503.718
74.131	501.919
74.559	500.123
74.9894	498.33
75.4223	496.541
75.8578	494.755
76.2957	492.973
76.7361	491.194
77.1792	489.419
77.6247	487.647
78.0728	485.879
78.5236	484.114
78.9769	482.353
79.4328	480.596
79.8914	478.842
80.3526	477.091
80.8165	475.345
81.2831	473.602
81.7523	471.862
82.2243	470.126
82.699	468.394
83.1764	466.666
83.6566	464.941
84.1395	463.22
84.6253	461.504
85.1138	459.79
85.6052	458.081
86.0994	456.375
86.5964	454.673
87.0964	452.975
87.5992	451.281
88.1049	449.591
88.6135	447.904
89.1251	446.222
89.6396	444.543
90.1571	442.877
90.6776	441.206
91.2011	439.632
91.7276	437.968
92.2571	436.307
92.7897	434.65
93.3254	432.997
93.8642	431.349
94.4061	429.703
94.9511	428.062
95.4993	426.425
96.0506	424.793
96.6051	423.164
97.1628	421.539
97.7237	419.918
98.2879	418.301
98.8553	416.688
99.426	415.08
100	413.475
100.577	411.874
101.158	410.278
101.742	408.685
102.329	407.097
102.92	405.513
103.514	403.932
104.112	402.356
104.713	400.784
105.317	399.217
105.925	397.653
106.537	396.093
107.152	394.538
107.771	392.986
108.393	391.439
109.018	389.896
109.648	388.357
110.281	386.823
110.917	385.292
111.558	383.766
112.202	382.243
112.85	380.726
113.501	379.212
114.156	377.702
114.815	376.197
115.478	374.695
116.145	373.198
116.815	371.705
117.49	370.217
118.168	368.732
118.85	367.252
119.536	365.892
120.226	364.418
120.921	362.949
121.619	361.483
122.321	360.022
123.027	358.565
123.737	357.112
124.451	355.664
125.17	354.219
125.893	352.779
126.619	351.349
127.35	349.917
128.086	348.49
128.825	347.066
129.569	345.647
130.317	344.233
131.069	342.822
131.826	341.417
132.587	340.015
133.352	338.618
134.122	337.225
134.896	335.836
135.675	334.451
136.458	333.07
137.246	331.694
138.038	330.322
138.835	328.954
139.637	327.591
140.443	326.231
141.254	324.876
142.069	323.525
142.889	322.179
143.714	320.837
144.544	319.498
145.378	318.164
146.218	316.835
147.062	315.509
147.911	314.188
148.765	312.871
149.624	311.558
150.487	310.249
151.356	308.945
152.23	307.645
153.109	306.349
153.993	305.057
154.882	303.769
155.776	302.486
156.675	301.207
157.58	299.932
158.489	298.661
159.404	297.395
160.325	296.133
161.25	294.875
162.181	293.621
163.117	292.371
164.059	291.126
165.006	289.885
165.959	288.648
166.917	287.415
167.88	286.257
168.85	285.032
169.824	283.81
170.805	282.593
171.791	281.38
172.783	280.172
173.78	278.967
174.783	277.767
175.792	276.57
176.807	275.378
177.828	274.191
178.855	273.007
179.887	271.827
180.926	270.652
181.97	269.481
183.021	268.314
184.077	267.151
185.14	265.992
186.209	264.838
187.284	263.687
188.365	262.541
189.452	261.399
190.546	260.261
191.646	259.127
192.752	257.997
193.865	256.871
194.984	255.75
196.11	254.632
197.242	253.519
198.381	252.41
199.526	251.305
200.678	250.204
201.837	249.107
203.002	248.014
204.174	246.925
205.353	245.84
206.538	244.76
207.73	243.683
208.93	242.61
210.136	241.541
211.349	240.477
212.569	239.416
213.796	238.36
215.03	237.307
216.272	236.259
217.52	235.214
218.776	234.173
220.039	233.137
221.309	232.104
222.587	231.076
223.872	230.051
225.165	229.03
226.464	228.013
227.772	227.001
229.087	225.992
230.409	224.987
231.739	223.986
233.077	222.989
234.423	221.995
235.776	221.006
237.137	220.02
238.506	219.039
239.883	218.061
241.268	217.087
242.661	216.117
244.062	215.151
245.471	214.189
246.888	213.231
248.313	212.277
249.747	211.326
251.189	210.379
252.639	209.436
254.097	208.497
255.564	207.561
257.04	206.63
258.523	205.702
260.016	204.777
261.517	203.857
263.027	202.94
264.545	202.027
266.073	201.118
267.609	200.212
269.153	199.31
270.707	198.412
272.27	197.517
273.842	196.626
275.423	195.739
277.013	194.856
278.612	193.976
280.221	193.099
281.838	192.226
283.465	191.357
285.102	190.492
286.748	189.63
288.403	188.771
290.068	187.916
291.743	187.065
293.427	186.217
295.121	185.373
296.825	184.532
298.538	183.695
300.262	182.861
301.995	182.031
303.739	181.205
305.492	180.381
307.256	179.561
309.03	178.745
310.814	177.932
312.608	177.123
314.413	176.317
316.228	175.514
318.053	174.715
319.89	173.919
321.736	173.127
323.594	172.338
325.462	171.552
327.341	170.77
329.23	169.991
331.131	169.215
333.043	168.443
334.965	167.674
336.899	166.908
338.844	166.146
340.8	165.387
342.768	164.631
344.747	163.879
346.737	163.129
348.739	162.383
350.752	161.641
352.777	160.901
354.813	160.165
356.862	159.431
358.922	158.701
360.994	157.975
363.078	157.251
365.174	156.531
367.282	155.813
369.403	155.099
371.535	154.388
373.68	153.68
375.837	152.975
378.007	152.274
380.189	151.575
382.384	150.88
384.592	150.187
386.812	149.498
389.045	148.811
391.291	148.128
393.55	147.448
395.822	146.771
398.107	146.096
400.405	145.425
402.717	144.757
405.042	144.092
407.38	143.429
409.732	142.77
412.098	142.113
414.477	141.46
416.869	140.809
419.276	140.162
421.697	139.517
424.131	138.875
426.58	138.236
429.042	137.6
431.519	136.967
434.01	136.337
436.516	135.71
439.036	135.085
441.57	134.463
444.12	133.844
446.684	133.228
449.262	132.615
451.856	132.004
454.465	131.396
457.088	130.791
459.727	130.189
462.381	129.589
465.05	128.992
467.735	128.398
470.435	127.807
473.151	127.218
475.883	126.632
478.63	126.049
481.393	125.468
484.172	124.89
486.968	124.315
489.779	123.742
492.606	123.172
495.45	122.605
498.31	122.04
501.187	121.478
504.081	120.918
506.991	120.361
509.918	119.807
512.861	119.255
515.822	118.705
518.8	118.159
521.795	117.614
524.807	117.073
527.837	116.533
530.884	115.997
533.949	115.462
537.032	114.931
540.132	114.401
543.25	113.874
546.387	113.35
549.541	112.828
552.713	112.309
555.904	111.791
559.114	111.277
562.341	110.765
565.588	110.255
568.853	109.747
572.137	109.242
575.44	108.739
578.762	108.239
582.103	107.741
585.464	107.245
588.844	106.752
592.243	106.261
595.662	105.772
599.101	105.286
602.56	104.801
606.038	104.319
609.537	103.84
613.056	103.363
616.595	102.887
620.155	102.415
623.735	101.944
627.336	101.476
630.957	101.009
634.6	100.545
638.263	100.084
641.948	99.624
645.654	99.1666
649.382	98.7113
653.131	98.2582
656.901	97.8072
660.693	97.3584
664.508	96.9118
668.344	96.4672
672.202	96.0248
676.083	95.5845
679.986	95.1463
683.912	94.7101
687.86	94.2761
691.831	93.8441
695.825	93.4141
699.842	92.9863
703.882	92.5604
707.946	92.1366
712.033	91.7149
716.143	91.2951
720.278	90.8774
724.436	90.4616
728.618	90.0479
732.825	89.6361
737.055	89.2264
741.31	88.8185
745.59	88.4127
749.894	88.0088
754.223	87.6068
758.578	87.2068
762.957	86.8086
767.361	86.4124
771.792	86.0181
776.247	85.6257
780.728	85.2352
785.236	84.8466
789.769	84.4599
794.328	84.075
798.914	83.692
803.526	83.3108
808.165	82.9315
812.831	82.554
817.523	82.1783
822.243	81.8045
826.99	81.4324
831.764	81.0622
836.566	80.6937
841.395	80.3271
846.253	79.9622
851.138	79.5991
856.052	79.2378
860.994	78.8782
865.964	78.5203
870.964	78.1642
875.992	77.8098
881.049	77.4572
886.135	77.1063
891.251	76.757
896.396	76.4095
901.571	76.0637
906.776	75.7195
912.011	75.3771
917.276	75.0363
922.571	74.6971
927.897	74.3597
933.254	74.0238
938.642	73.6896
944.061	73.3571
949.511	73.0262
954.993	72.6969
960.506	72.3692
966.051	72.0431
971.628	71.7186
977.237	71.3957
982.879	71.0744
988.553	70.7546
994.26	70.4365
1000	70.1199
1005.77	69.8048
1011.58	69.4913
1017.42	69.1793
1023.29	68.8689
1029.2	68.56
1035.14	68.2526
1041.12	67.9467
1047.13	67.6424
1053.17	67.3395
1059.25	67.0381
1065.37	66.7383
1071.52	66.4398
1077.71	66.1429
1083.93	65.8474
1090.18	65.5534
1096.48	65.2609
1102.81	64.9698
1109.17	64.6801
1115.58	64.3919
1122.02	64.105
1128.5	63.8196
1135.01	63.5357
1141.56	63.2531
1148.15	62.9719
1154.78	62.6921
1161.45	62.4137
1168.15	62.1367
1174.9	61.8611
1181.68	61.5868
1188.5	61.3139
1195.36	61.0424
1202.26	60.7722
1209.21	60.5033
1216.19	60.2358
1223.21	59.9696
1230.27	59.7047
1237.37	59.4412
1244.51	59.179
1251.7	58.918
1258.93	58.6584
1266.19	58.4001
1273.5	58.143
1280.86	57.8873
1288.25	57.6328
1295.69	57.3796
1303.17	57.1276
1310.69	56.877
1318.26	56.6275
1325.87	56.3793
1333.52	56.1324
1341.22	55.8867
1348.96	55.6422
1356.75	55.399
1364.58	55.1569
1372.46	54.9161
1380.38	54.6765
1388.35	54.4381
1396.37	54.2009
1404.43	53.9648
1412.54	53.73
1420.69	53.4963
1428.89	53.2639
1437.14	53.0325
1445.44	52.8024
1453.78	52.5734
1462.18	52.3456
1470.62	52.1189
1479.11	51.8933
1487.65	51.6689
1496.24	51.4456
1504.87	51.2235
1513.56	51.0024
1522.3	50.7825
1531.09	50.5637
1539.93	50.346
1548.82	50.1294
1557.76	49.9139
1566.75	49.6995
1575.8	49.4861
1584.89	49.2739
1594.04	49.0627
1603.25	48.8526
1612.5	48.6436
1621.81	48.4356
1631.17	48.2286
1640.59	48.0228
1650.06	47.8179
1659.59	47.6141
1669.17	47.4114
1678.8	47.2096
1688.5	47.0089
1698.24	46.8093
1708.05	46.6106
1717.91	46.4129
1727.83	46.2163
1737.8	46.0206
1747.83	45.826
1757.92	45.6323
1768.07	45.4397
1778.28	45.248
1788.55	45.0573
1798.87	44.8675
1809.26	44.6788
1819.7	44.491
1830.21	44.3041
1840.77	44.1182
1851.4	43.9333
1862.09	43.7493
1872.84	43.5663
1883.65	43.3842
1894.52	43.203
1905.46	43.0227
1916.46	42.8434
1927.52	42.665
1938.65	42.4875
1949.84	42.311
1961.1	42.1353
1972.42	41.9605
1983.81	41.7867
1995.26	41.6137
2006.78	41.4416
2018.37	41.2704
2030.02	41.1001
2041.74	40.9307
2053.53	40.7621
2065.38	40.5945
2077.3	40.4276
2089.3	40.2617
2101.36	40.0966
2113.49	39.9323
2125.69	39.7689
2137.96	39.6064
2150.3	39.4446
2162.72	39.2838
2175.2	39.1237
2187.76	38.9645
2200.39	38.8061
2213.09	38.6486
2225.87	38.4918
2238.72	38.3359
2251.65	38.1807
2264.64	38.0264
2277.72	37.8729
2290.87	37.7202
2304.09	37.5683
2317.39	37.4171
2330.77	37.2668
2344.23	37.1172
2357.76	36.9684
2371.37	36.8204
2385.06	36.6732
2398.83	36.5267
2412.68	36.381
2426.61	36.2361
2440.62	36.0919
2454.71	35.9485
2468.88	35.8058
2483.13	35.6639
2497.47	35.5227
2511.89	35.3823
2526.39	35.2426
2540.97	35.1036
2555.64	34.9654
2570.4	34.8279
2585.23	34.6911
2600.16	34.555
2615.17	34.4196
2630.27	34.285
2645.45	34.1511
2660.73	34.0178
2676.09	33.8853
2691.53	33.7535
2707.07	33.6224
2722.7	33.4919
2738.42	33.3622
2754.23	33.2331
2770.13	33.1047
2786.12	32.977
2802.21	32.85
2818.38	32.7237
2834.65	32.598
2851.02	32.473
2867.48	32.3486
2884.03	32.225
2900.68	32.1019
2917.43	31.9796
2934.27	31.8578
2951.21	31.7368
2968.25	31.6163
2985.38	31.4965
3002.62	31.3774
3019.95	31.2589
3037.39	31.141
3054.92	31.0238
3072.56	30.9071
3090.3	30.7912
3108.14	30.6758
3126.08	30.561
3144.13	30.4469
3162.28	30.3334
3180.53	30.2204
3198.9	30.1081
3217.36	29.9964
3235.94	29.8853
3254.62	29.7748
3273.41	29.6649
3292.3	29.5556
3311.31	29.4468
3330.43	29.3387
3349.65	29.2311
3368.99	29.1242
3388.44	29.0178
3408	28.9119
3427.68	28.8067
3447.47	28.702
3467.37	28.5979
3487.39	28.4943
3507.52	28.3914
3527.77	28.2889
3548.13	28.1871
3568.62	28.0858
3589.22	27.985
3609.94	27.8848
3630.78	27.7851
3651.74	27.686
3672.82	27.5874
3694.03	27.4894
3715.35	27.3919
3736.8	27.2949
3758.37	27.1985
3780.07	27.1026
3801.89	27.0072
3823.84	26.9123
3845.92	26.818
3868.12	26.7242
3890.45	26.6309
3912.91	26.5381
3935.5	26.4458
3958.22	26.3541
3981.07	26.2628
4004.05	26.1721
4027.17	26.0818
4050.42	25.9921
4073.8	25.9028
4097.32	25.8141
4120.98	25.7258
4144.77	25.638
4168.69	25.5507
4192.76	25.4639
4216.97	25.3776
4241.31	25.2918
4265.8	25.2064
4290.42	25.1216
4315.19	25.0372
4340.1	24.9532
4365.16	24.8698
4390.36	24.7868
4415.7	24.7042
4441.2	24.6222
4466.84	24.5406
4492.62	24.4594
4518.56	24.3788
4544.65	24.2985
4570.88	24.2188
4597.27	24.1394
4623.81	24.0606
4650.5	23.9821
4677.35	23.9041
4704.35	23.8266
4731.51	23.7495
4758.83	23.6728
4786.3	23.5966
4813.93	23.5208
4841.72	23.4454
4869.68	23.3705
4897.79	23.296
4926.06	23.2219
4954.5	23.1483
4983.1	23.075
5011.87	23.0022
5040.81	22.9298
5069.91	22.8579
5099.18	22.7863
5128.61	22.7152
5158.22	22.6444
5188	22.5741
5217.95	22.5042
5248.07	22.4346
5278.37	22.3655
5308.84	22.2968
5339.49	22.2285
5370.32	22.1606
5401.32	22.0931
5432.5	22.0259
5463.87	21.9592
5495.41	21.8928
5527.13	21.8269
5559.04	21.7613
5591.14	21.6961
5623.41	21.6313
5655.88	21.5669
5688.53	21.5028
5721.37	21.4392
5754.4	21.3759
5787.62	21.313
5821.03	21.2504
5854.64	21.1882
5888.44	21.1264
5922.43	21.065
5956.62	21.0039
5991.01	20.9432
6025.6	20.8829
6060.38	20.8229
6095.37	20.7633
6130.56	20.704
6165.95	20.6451
6201.55	20.5865
6237.35	20.5283
6273.36	20.4704
6309.57	20.4129
6346	20.3558
6382.63	20.2989
6419.48	20.2425
6456.54	20.1863
6493.82	20.1305
6531.31	20.0751
6569.01	20.02
6606.93	19.9652
6645.08	19.9107
6683.44	19.8566
6722.02	19.8029
6760.83	19.7494
6799.86	19.6963
6839.12	19.6435
6878.6	19.591
6918.31	19.5389
6958.25	19.4871
6998.42	19.4355
7038.82	19.3844
7079.46	19.3335
7120.33	19.283
7161.43	19.2327
7202.78	19.1828
7244.36	19.1332
7286.18	19.0839
7328.25	19.0349
7370.55	18.9862
7413.1	18.9379
7455.9	18.8898
7498.94	18.842
7542.23	18.7946
7585.78	18.7474
7629.57	18.7006
7673.61	18.654
7717.92	18.6077
7762.47	18.5618
7807.28	18.5161
7852.36	18.4707
7897.69	18.4256
7943.28	18.3808
7989.14	18.3363
8035.26	18.2921
8081.65	18.2482
8128.31	18.2045
8175.23	18.1611
8222.43	18.118
8269.9	18.0752
8317.64	18.0327
8365.66	17.9905
8413.95	17.9485
8462.53	17.9068
8511.38	17.8654
8560.52	17.8242
8609.94	17.7834
8659.64	17.7428
8709.64	17.7024
8759.92	17.6624
8810.49	17.6226
8861.35	17.583
8912.51	17.5438
8963.96	17.5048
9015.71	17.466
9067.76	17.4275
9120.11	17.3893
9172.76	17.3514
9225.71	17.3137
9278.97	17.2762
9332.54	17.239
9386.42	17.2021
9440.61	17.1654
9495.11	17.129
9549.93	17.0928
9605.06	17.0568
9660.51	17.0212
9716.28	16.9857
9772.37	16.9505
9828.79	16.9156
9885.53	16.8809
9942.6	16.8464
10000	16.8122
10057.7	16.7782
10115.8	16.7445
10174.2	16.711
10232.9	16.6777
10292	16.6447
10351.4	16.6119
10411.2	16.5794
10471.3	16.5471
10531.7	16.515
10592.5	16.4831
10653.7	16.4515
10715.2	16.4201
10777.1	16.3889
10839.3	16.358
10901.8	16.3273
10964.8	16.2968
11028.1	16.2665
11091.7	16.2364
11155.8	16.2066
11220.2	16.177
11285	16.1476
11350.1	16.1185
11415.6	16.0895
11481.5	16.0608
11547.8	16.0323
11614.5	16.004
11681.5	15.9759
11749	15.948
11816.8	15.9204
11885	15.8929
11953.6	15.8657
12022.6	15.8386
12092.1	15.8118
12161.9	15.7852
12232.1	15.7588
12302.7	15.7326
12373.7	15.7066
12445.1	15.6808
12517	15.6552
12589.3	15.6298
12661.9	15.6046
12735	15.5796
12808.6	15.5548
12882.5	15.5303
12956.9	15.5059
13031.7	15.4817
13106.9	15.4577
13182.6	15.4338
13258.7	15.4102
13335.2	15.3868
13412.2	15.3636
13489.6	15.3405
13567.5	15.3177
13645.8	15.295
13724.6	15.2726
13803.8	15.2503
13883.5	15.2282
13963.7	15.2063
14044.3	15.1845
14125.4	15.163
14206.9	15.1416
14288.9	15.1205
14371.4	15.0995
14454.4	15.0786
14537.8	15.058
14621.8	15.0376
14706.2	15.0173
14791.1	14.9972
14876.5	14.9773
14962.4	14.9575
15048.7	14.938
15135.6	14.9186
15223	14.8993
15310.9	14.8803
15399.3	14.8614
15488.2	14.8418
15577.6	14.8217
15667.5	14.8017
15758	14.7819
15848.9	14.7623
15940.4	14.7428
16032.5	14.7235
16125	14.7044
16218.1	14.6854
16311.7	14.6666
16405.9	14.648
16500.6	14.6295
16595.9	14.6112
16691.7	14.593
16788	14.575
16885	14.5571
16982.4	14.5394
17080.5	14.5219
17179.1	14.5045
17278.3	14.4873
17378	14.4702
17478.3	14.4532
17579.2	14.4365
17680.7	14.4198
17782.8	14.4034
17885.5	14.387
17988.7	14.3709
18092.6	14.3548
18197	14.339
18302.1	14.3232
18407.7	14.3076
18514	14.2922
18620.9	14.2769
18728.4	14.2618
18836.5	14.2467
18945.2	14.2319
19054.6	14.2172
19164.6	14.2026
19275.2	14.1881
19386.5	14.1738
19498.4	14.1597
19611	14.1456
19724.2	14.1317
19838.1	14.118
19952.6	14.1044
20067.8	14.0909
20183.7	14.0775
20300.2	14.0643
20417.4	14.0512
20535.3	14.0383
20653.8	14.0255
20773	14.0128
20893	14.0003
21013.6	13.9878
21134.9	13.9755
21256.9	13.9634
21379.6	13.9513
21503	13.9394
21627.2	13.9277
21752	13.916
21877.6	13.9045
22003.9	13.8931
22130.9	13.8818
22258.7	13.8706
22387.2	13.8596
22516.5	13.8487
22646.4	13.8379
22777.2	13.8272
22908.7	13.8167
23040.9	13.8063
23173.9	13.796
23307.7	13.7858
23442.3	13.7757
23577.6	13.7658
23713.7	13.7559
23850.6	13.7462
23988.3	13.7366
24126.8	13.7271
24266.1	13.7177
24406.2	13.7085
24547.1	13.6993
24688.8	13.6903
24831.3	13.6814
24974.7	13.6726
25118.9	13.6639
25263.9	13.6553
25409.7	13.6468
25556.4	13.6384
25704	13.6302
25852.3	13.622
26001.6	13.614
26151.7	13.606
26302.7	13.5982
26454.5	13.5904
26607.3	13.5828
26760.9	13.5753
26915.3	13.5679
27070.7	13.5606
27227	13.5534
27384.2	13.5463
27542.3	13.5393
27701.3	13.5323
27861.2	13.5255
28022.1	13.5188
28183.8	13.5122
28346.5	13.5057
28510.2	13.4993
28674.8	13.493
28840.3	13.4868
29006.8	13.4807
29174.3	13.4747
29342.7	13.4687
29512.1	13.4629
29682.5	13.4572
29853.8	13.4515
30026.2	13.446
30199.5	13.4405
30373.9	13.4352
30549.2	13.4299
30725.6	13.4247
30903	13.4197
31081.4	13.4147
31260.8	13.4098
31441.3	13.4049
31622.8	13.4002
31805.3	13.3956
31989	13.391
32173.6	13.3866
32359.4	13.3822
32546.2	13.3779
32734.1	13.3737
32923	13.3696
33113.1	13.3655
33304.3	13.3616
33496.5	13.3577
33689.9	13.3539
33884.4	13.3502
34080	13.3466
34276.8	13.3431
34474.7	13.3396
34673.7	13.3363
34873.9	13.333
35075.2	13.3298
35277.7	13.3266
35481.3	13.3236
35686.2	13.3206
35892.2	13.3177
36099.4	13.3149
36307.8	13.3122
36517.4	13.3095
36728.2	13.3069
36940.3	13.3044
37153.5	13.302
37368	13.2996
37583.7	13.2973
37800.7	13.2951
38018.9	13.293
38238.4	13.2909
38459.2	13.2889
38681.2	13.287
38904.5	13.2851
39129.1	13.2833
39355	13.2816
39582.2	13.28
39810.7	13.2784
40040.5	13.2769
40271.7	13.2755
40504.2	13.2742
40738	13.2729
40973.2	13.2716
41209.8	13.2705
41447.7	13.2694
41686.9	13.2684
41927.6	13.2674
42169.7	13.2665
42413.1	13.2657
42658	13.265
42904.2	13.2643
43151.9	13.2636
43401	13.2631
43651.6	13.2626
43903.6	13.2621
44157	13.2617
44412	13.2614
44668.4	13.2612
44926.2	13.261
45185.6	13.2608
45446.5	13.2608
45708.8	13.2608
45972.7	13.2608
46238.1	13.2609
46505	13.2611
46773.5	13.2613
47043.5	13.2616
47315.1	13.2619
47588.3	13.2623
47863	13.2628
48139.3	13.2633
48417.2	13.2639
48696.8	13.2645
48977.9	13.2652
49260.6	13.2659
49545	13.2667
49831	13.2675
50118.7	13.2684
50408.1	13.2694
50699.1	13.2704
50991.8	13.2715
51286.1	13.2726
51582.2	13.2737
51880	13.2749
52179.5	13.2762
52480.7	13.2775
52783.7	13.2789
53088.4	13.2803
53394.9	13.2818
53703.2	13.2833
54013.2	13.2849
54325	13.2865
54638.7	13.2881
54954.1	13.2899
55271.3	13.2916
55590.4	13.2934
55911.4	13.2953
56234.1	13.2972
56558.8	13.2991
56885.3	13.3011
57213.7	13.3032
57544	13.3053
57876.2	13.3074
58210.3	13.3096
58546.4	13.3118
58884.4	13.3141
59224.3	13.3164
59566.2	13.3187
59910.1	13.3211
60256	13.3236
60603.8	13.3261
60953.7	13.3286
61305.6	13.3312
61659.5	13.3338
62015.5	13.3364
62373.5	13.3391
62733.6	13.3418
63095.7	13.3446
63460	13.3474
63826.3	13.3503
64194.8	13.3532
64565.4	13.3561
64938.2	13.3591
65313.1	13.3621
65690.1	13.3652
66069.3	13.3682
66450.8	13.3714
66834.4	13.3745
67220.2	13.3777
67608.3	13.381
67998.6	13.3843
68391.2	13.3876
68786	13.3909
69183.1	13.3943
69582.5	13.3977
69984.2	13.4012
70388.2	13.4047
70794.6	13.4082
71203.3	13.4117
71614.3	13.4153
72027.8	13.419
72443.6	13.4226
72861.8	13.4263
73282.5	13.43
73705.5	13.4338
74131	13.4376
74559	13.4414
74989.4	13.4453
75422.3	13.4492
75857.8	13.4531
76295.7	13.457
76736.1	13.461
77179.2	13.465
77624.7	13.4691
78072.8	13.4732
78523.6	13.4773
78976.9	13.4814
79432.8	13.4856
79891.4	13.4898
80352.6	13.494
80816.5	13.4982
81283.1	13.5025
81752.3	13.5068
82224.3	13.5112
82699	13.5155
83176.4	13.5199
83656.6	13.5243
84139.5	13.5288
84625.3	13.5333
85113.8	13.5378
85605.2	13.5423
86099.4	13.5469
86596.4	13.5514
87096.4	13.556
87599.2	13.5607
88104.9	13.5653
88613.5	13.57
89125.1	13.5747
89639.6	13.5795
90157.1	13.5842
90677.6	13.589
91201.1	13.5938
91727.6	13.5986
92257.1	13.6035
92789.7	13.6084
93325.4	13.6133
93864.2	13.6182
94406.1	13.6231
94951.1	13.6281
95499.3	13.6331
96050.6	13.6381
96605.1	13.6431
97162.8	13.6482
97723.7	13.6533
98287.9	13.6584
98855.3	13.6635
99426	13.6686
100000	13.6738
100577	13.679
101158	13.6842
101742	13.6894
102329	13.6946
102920	13.6999
103514	13.7052
104112	13.7105
104713	13.7158
105317	13.7212
105925	13.7265
106537	13.7319
107152	13.7373
107771	13.7427
108393	13.7481
109018	13.7536
109648	13.7591
110281	13.7646
110917	13.7701
111558	13.7756
112202	13.7811
112850	13.7867
113501	13.7923
114156	13.7978
114815	13.8035
115478	13.8091
116145	13.8147
116815	13.8204
117490	13.826
118168	13.8317
118850	13.8374
119536	13.8432
120226	13.8489
120921	13.8546
121619	13.8604
122321	13.8662
123027	13.872
123737	13.8778
124451	13.8836
125170	13.8894
125893	13.8953
126619	13.9012
127350	13.907
128086	13.9129
128825	13.9188
129569	13.9248
130317	13.9307
131069	13.9366
131826	13.9426
132587	13.9486
133352	13.9546
134122	13.9605
134896	13.9666
135675	13.9726
136458	13.9786
137246	13.9847
138038	13.9907
138835	13.9968
139637	14.0029
140443	14.009
141254	14.0151
142069	14.0212
142889	14.0273
143714	14.0334
144544	14.0396
145378	14.0457
146218	14.0519
147062	14.0581
147911	14.0643
148765	14.0705
149624	14.0767
150487	14.0829
151356	14.0891
152230	14.0954
153109	14.1016
153993	14.1079
154882	14.1141
155776	14.1204
156675	14.1267
157580	14.133
158489	14.1393
159404	14.1456
160325	14.1519
161250	14.1583
162181	14.1646
163117	14.1709
164059	14.1773
165006	14.1837
165959	14.19
166917	14.1964
167880	14.2028
168850	14.2092
169824	14.2156
170805	14.222
171791	14.2284
172783	14.2348
173780	14.2413
174783	14.2477
175792	14.2542
176807	14.2606
177828	14.2671
178855	14.2735
179887	14.28
180926	14.2865
181970	14.293
183021	14.2995
184077	14.306
185140	14.3125
186209	14.319
187284	14.3255
188365	14.332
189452	14.3386
190546	14.3451
191646	14.3516
192752	14.3582
193865	14.3647
194984	14.3713
196110	14.3779
197242	14.3844
198381	14.391
199526	14.3976
200678	14.4042
201837	14.4108
203002	14.4174
204174	14.424
205353	14.4306
206538	14.4372
207730	14.4438
208930	14.4504
210136	14.457
211349	14.4637
212569	14.4703
213796	14.4769
215030	14.4836
216272	14.4902
217520	14.4969
218776	14.5035
220039	14.5102
221309	14.5168
222587	14.5235
223872	14.5302
225165	14.5368
226464	14.5435
227772	14.5502
229087	14.5569
230409	14.5635
231739	14.5702
233077	14.5769
234423	14.5836
235776	14.5903
237137	14.597
238506	14.6037
239883	14.6104
241268	14.6171
242661	14.6239
244062	14.6306
245471	14.6373
246888	14.644
248313	14.6507
249747	14.6575
251189	14.6642
252639	14.6709
254097	14.6776
255564	14.6844
257040	14.6911
258523	14.6979
260016	14.7046
261517	14.7113
263027	14.7181
264545	14.7248
266073	14.7316
267609	14.7383
269153	14.7451
270707	14.7518
272270	14.7586
273842	14.7654
275423	14.7721
277013	14.7789
278612	14.7857
280221	14.7924
281838	14.7992
283465	14.806
285102	14.8127
286748	14.8195
288403	14.8263
290068	14.833
291743	14.8398
293427	14.8466
295121	14.8534
296825	14.8601
298538	14.8669
300262	14.8737
301995	14.8805
303739	14.8873
305492	14.894
307256	14.9008
309030	14.9076
310814	14.9144
312608	14.9212
314413	14.928
316228	14.9348
318053	14.9415
319890	14.9483
321736	14.9551
323594	14.9619
325462	14.9687
327341	14.9755
329230	14.9823
331131	14.9891
333043	14.9959
334965	15.0026
336899	15.0094
338844	15.0162
340800	15.023
342768	15.0298
344747	15.0366
346737	15.0434
348739	15.0502
350752	15.057
352777	15.0638
354813	15.0706
356862	15.0773
358922	15.0841
360994	15.0909
363078	15.0977
365174	15.1045
367282	15.1113
369403	15.1181
371535	15.1249
373680	15.1317
375837	15.1384
378007	15.1452
380189	15.152
382384	15.1588
384592	15.1656
386812	15.1724
389045	15.1792
391291	15.186
393550	15.1927
395822	15.1995
398107	15.2063
400405	15.2131
402717	15.2199
405042	15.2266
407380	15.2334
409732	15.2402
412098	15.247
414477	15.2538
416869	15.2605
419276	15.2673
421697	15.2741
424131	15.2809
426580	15.2876
429042	15.2944
431519	15.3012
434010	15.3079
436516	15.3147
439036	15.3215
441570	15.3282
444120	15.335
446684	15.3418
449262	15.3485
451856	15.3553
454465	15.3621
457088	15.3688
459727	15.3756
462381	15.3823
465050	15.3891
467735	15.3958
470435	15.4026
473151	15.4094
475883	15.4161
478630	15.4229
481393	15.4296
484172	15.4363
486968	15.4431
489779	15.4498
492606	15.4566
495450	15.4633
498310	15.4701
501187	15.4768
504081	15.4835
506991	15.4903
509918	15.497
512861	15.5037
515822	15.5105
518800	15.5172
521795	15.5239
524807	15.5306
527837	15.5374
530884	15.5441
533949	15.5508
537032	15.5575
540132	15.5642
543250	15.5709
546387	15.5777
549541	15.5844
552713	15.5911
555904	15.5978
559114	15.6045
562341	15.6112
565588	15.6179
568853	15.6246
572137	15.6313
575440	15.638
578762	15.6447
582103	15.6514
585464	15.6581
588844	15.6648
592243	15.6714
595662	15.6781
599101	15.6848
602560	15.6915
606038	15.6982
609537	15.7048
613056	15.7115
616595	15.7182
620155	15.7249
623735	15.7315
627336	15.7382
630957	15.7449
634600	15.7515
638263	15.7582
641948	15.7648
645654	15.7715
649382	15.7782
653131	15.7848
656901	15.7915
660693	15.7981
664508	15.8048
668344	15.8114
672202	15.818
676083	15.8247
679986	15.8313
683912	15.838
687860	15.8446
691831	15.8512
695825	15.8578
699842	15.8645
703882	15.8711
707946	15.8777
712033	15.8843
716143	15.8909
720278	15.8976
724436	15.9042
728618	15.9108
732825	15.9174
737055	15.924
741310	15.9306
745590	15.9372
749894	15.9438
754223	15.9504
758578	15.957
762957	15.9636
767361	15.9702
771792	15.9768
776247	15.9833
780728	15.9899
785236	15.9965
789769	16.0031
794328	16.0097
798914	16.0162
803526	16.0228
808165	16.0294
812831	16.0359
817523	16.0425
822243	16.0491
826990	16.0556
831764	16.0622
836566	16.0687
841395	16.0753
846253	16.0818
851138	16.0884
856052	16.0949
860994	16.1015
865964	16.108
870964	16.1145
875992	16.1211
881049	16.1276
886135	16.1341
891251	16.1406
896396	16.1472
901571	16.1537
906776	16.1602
912011	16.1667
917276	16.1732
922571	16.1798
927897	16.1863
933254	16.1928
938642	16.1993
944061	16.2058
949511	16.2123
954993	16.2188
960506	16.2253
966051	16.2317
971628	16.2382
977237	16.2447
982879	16.2512
988553	16.2577
994260	16.2642
1e+06	16.2706
1.00577e+06	16.2771
1.01158e+06	16.2836
1.01742e+06	16.29
1.02329e+06	16.2965
1.0292e+06	16.303
1.03514e+06	16.3094
1.04112e+06	16.3159
1.04713e+06	16.3223
1.05317e+06	16.3288
1.05925e+06	16.3352
1.06537e+06	16.3417
1.07152e+06	16.3481
1.07771e+06	16.3546
1.08393e+06	16.361
1.09018e+06	16.3674
1.09648e+06	16.3739
1.10281e+06	16.3803
1.10917e+06	16.3867
1.11558e+06	16.3932
1.12202e+06	16.3996
1.1285e+06	16.406
1.13501e+06	16.4124
1.14156e+06	16.4188
1.14815e+06	16.4252
1.15478e+06	16.4316
1.16145e+06	16.438
1.16815e+06	16.4445
1.1749e+06	16.4509
1.18168e+06	16.4572
1.1885e+06	16.4636
1.19536e+06	16.47
1.20226e+06	16.4764
1.20921e+06	16.4828
1.21619e+06	16.4892
1.22321e+06	16.4956
1.23027e+06	16.502
1.23737e+06	16.5083
1.24451e+06	16.5147
1.2517e+06	16.5211
1.25893e+06	16.5274
1.26619e+06	16.5338
1.2735e+06	16.5402
1.28086e+06	16.5465
1.28825e+06	16.5529
1.29569e+06	16.5592
1.30317e+06	16.5656
1.31069e+06	16.5719
1.31826e+06	16.5783
1.32587e+06	16.5846
1.33352e+06	16.591
1.34122e+06	16.5973
1.34896e+06	16.6036
1.35675e+06	16.61
1.36458e+06	16.6163
1.37246e+06	16.6226
1.38038e+06	16.6289
1.38835e+06	16.6353
1.39637e+06	16.6416
1.40443e+06	16.6479
1.41254e+06	16.6542
1.42069e+06	16.6605
1.42889e+06	16.6668
1.43714e+06	16.6731
1.44544e+06	16.6794
1.45378e+06	16.6857
1.46218e+06	16.692
1.47062e+06	16.6983
1.47911e+06	16.7046
1.48765e+06	16.7109
1.49624e+06	16.7172
1.50487e+06	16.7235
1.51356e+06	16.7297
1.5223e+06	16.736
1.53109e+06	16.7423
1.53993e+06	16.7486
1.54882e+06	16.7548
1.55776e+06	16.7611
1.56675e+06	16.7674
1.5758e+06	16.7736
1.58489e+06	16.7799
1.59404e+06	16.7861
1.60325e+06	16.7924
1.6125e+06	16.7986
1.62181e+06	16.8049
1.63117e+06	16.8111
1.64059e+06	16.8173
1.65006e+06	16.8236
1.65959e+06	16.8298
1.66917e+06	16.836
1.6788e+06	16.8423
1.6885e+06	16.8485
1.69824e+06	16.8547
1.70805e+06	16.8609
1.71791e+06	16.8672
1.72783e+06	16.8734
1.7378e+06	16.8796
1.74783e+06	16.8858
1.75792e+06	16.892
1.76807e+06	16.8982
1.77828e+06	16.9044
1.78855e+06	16.9106
1.79887e+06	16.9168
1.80926e+06	16.923
1.8197e+06	16.9292
1.83021e+06	16.9353
1.84077e+06	16.9415
1.8514e+06	16.9477
1.86209e+06	16.9539
1.87284e+06	16.9601
1.88365e+06	16.9662
1.89452e+06	16.9724
1.90546e+06	16.9786
1.91646e+06	16.9847
1.92752e+06	16.9909
1.93865e+06	16.997
1.94984e+06	17.0032
1.9611e+06	17.0093
1.97242e+06	17.0155
1.98381e+06	17.0216
1.99526e+06	17.0278
2.00678e+06	17.0339
2.01837e+06	17.04
2.03002e+06	17.0462
2.04174e+06	17.0523
2.05353e+06	17.0584
2.06538e+06	17.0646
2.0773e+06	17.0707
2.0893e+06	17.0768
2.10136e+06	17.0829
2.11349e+06	17.089
2.12569e+06	17.0951
2.13796e+06	17.1012
2.1503e+06	17.1073
2.16272e+06	17.1134
2.1752e+06	17.1195
2.18776e+06	17.1256
2.20039e+06	17.1317
2.21309e+06	17.1378
2.22587e+06	17.1439
2.23872e+06	17.15
2.25165e+06	17.1561
2.26464e+06	17.1621
2.27772e+06	17.1682
2.29087e+06	17.1743
2.30409e+06	17.1803
2.31739e+06	17.1864
2.33077e+06	17.1925
2.34423e+06	17.1985
2.35776e+06	17.2046
2.37137e+06	17.2106
2.38506e+06	17.2167
2.39883e+06	17.2227
2.41268e+06	17.2288
2.42661e+06	17.2348
2.44062e+06	17.2408
2.45471e+06	17.2469
2.46888e+06	17.2529
2.48313e+06	17.2589
2.49747e+06	17.265
2.51189e+06	17.271
2.52639e+06	17.277
2.54097e+06	17.283
2.55564e+06	17.289
2.5704e+06	17.2951
2.58523e+06	17.3011
2.60016e+06	17.3071
2.61517e+06	17.3131
2.63027e+06	17.3191
2.64545e+06	17.3251
2.66073e+06	17.3311
2.67609e+06	17.337
2.69153e+06	17.343
2.70707e+06	17.349
2.7227e+06	17.355
2.73842e+06	17.361
2.75423e+06	17.3669
2.77013e+06	17.3729
2.78612e+06	17.3789
2.80221e+06	17.3849
2.81838e+06	17.3908
2.83465e+06	17.3968
2.85102e+06	17.4027
2.86748e+06	17.4087
2.88403e+06	17.4146
2.90068e+06	17.4206
2.91743e+06	17.4265
2.93427e+06	17.4325
2.95121e+06	17.4384
2.96825e+06	17.4443
2.98538e+06	17.4503
3.00262e+06	17.4562
3.01995e+06	17.4621
3.03739e+06	17.468
3.05492e+06	17.474
3.07256e+06	17.4799
3.0903e+06	17.4858
3.10814e+06	17.4917
3.12608e+06	17.4976
3.14413e+06	17.5035
3.16228e+06	17.5094
3.18053e+06	17.5153
3.1989e+06	17.5212
3.21736e+06	17.5271
3.23594e+06	17.533
3.25462e+06	17.5389
3.27341e+06	17.5448
3.2923e+06	17.5506
3.31131e+06	17.5565
3.33043e+06	17.5624
3.34965e+06	17.5683
3.36899e+06	17.5741
3.38844e+06	17.58
3.408e+06	17.5858
3.42768e+06	17.5917
3.44747e+06	17.5976
3.46737e+06	17.6034
3.48739e+06	17.6093
3.50752e+06	17.6151
3.52777e+06	17.6209
3.54813e+06	17.6268
3.56862e+06	17.6326
3.58922e+06	17.6385
3.60994e+06	17.6443
3.63078e+06	17.6501
3.65174e+06	17.6559
3.67282e+06	17.6618
3.69403e+06	17.6676
3.71535e+06	17.6734
3.7368e+06	17.6792
3.75837e+06	17.685
3.78007e+06	17.6908
3.80189e+06	17.6966
3.82384e+06	17.7024
3.84592e+06	17.7082
3.86812e+06	17.714
3.89045e+06	17.7198
3.91291e+06	17.7256
3.9355e+06	17.7313
3.95822e+06	17.7371
3.98107e+06	17.7429
4.00405e+06	17.7487
4.02717e+06	17.7544
4.05042e+06	17.7602
4.0738e+06	17.766
4.09732e+06	17.7717
4.12098e+06	17.7775
4.14477e+06	17.7832
4.16869e+06	17.789
4.19276e+06	17.7947
4.21697e+06	17.8005
4.24131e+06	17.8062
4.2658e+06	17.812
4.29042e+06	17.8177
4.31519e+06	17.8234
4.3401e+06	17.8291
4.36516e+06	17.8349
4.39036e+06	17.8406
4.4157e+06	17.8463
4.4412e+06	17.852
4.46684e+06	17.8577
4.49262e+06	17.8634
4.51856e+06	17.8691
4.54465e+06	17.8748
4.57088e+06	17.8805
4.59727e+06	17.8862
4.62381e+06	17.8919
4.6505e+06	17.8976
4.67735e+06	17.9033
4.70435e+06	17.909
4.73151e+06	17.9147
4.75883e+06	17.9203
4.7863e+06	17.926
4.81393e+06	17.9317
4.84172e+06	17.9373
4.86968e+06	17.943
4.89779e+06	17.9487
4.92606e+06	17.9543
4.9545e+06	17.96
4.9831e+06	17.9656
5.01187e+06	17.9713
5.04081e+06	17.9769
5.06991e+06	17.9826
5.09918e+06	17.9882
5.12861e+06	17.9938
5.15822e+06	17.9995
5.188e+06	18.0051
5.21795e+06	18.0107
5.24807e+06	18.0163
5.27837e+06	18.0219
5.30884e+06	18.0275
5.33949e+06	18.0332
5.37032e+06	18.0388
5.40132e+06	18.0444
5.4325e+06	18.05
5.46387e+06	18.0556
5.49541e+06	18.0612
5.52713e+06	18.0667
5.55904e+06	18.0723
5.59114e+06	18.0779
5.62341e+06	18.0835
5.65588e+06	18.0891
5.68853e+06	18.0946
5.72137e+06	18.1002
5.7544e+06	18.1058
5.78762e+06	18.1113
5.82103e+06	18.1169
5.85464e+06	18.1224
5.88844e+06	18.128
5.92243e+06	18.1335
5.95662e+06	18.1391
5.99101e+06	18.1446
6.0256e+06	18.1502
6.06038e+06	18.1557
6.09537e+06	18.1612
6.13056e+06	18.1668
6.16595e+06	18.1723
6.20155e+06	18.1778
6.23735e+06	18.1833
6.27336e+06	18.1888
6.30957e+06	18.1944
6.346e+06	18.1999
6.38263e+06	18.2054
6.41948e+06	18.2109
6.45654e+06	18.2164
6.49382e+06	18.2219
6.53131e+06	18.2274
6.56901e+06	18.2328
6.60693e+06	18.2383
6.64508e+06	18.2438
6.68344e+06	18.2493
6.72202e+06	18.2548
6.76083e+06	18.2602
6.79986e+06	18.2657
6.83912e+06	18.2712
6.8786e+06	18.2766
6.91831e+06	18.2821
6.95825e+06	18.2875
6.99842e+06	18.293
7.03882e+06	18.2984
7.07946e+06	18.3039
7.12033e+06	18.3093
7.16143e+06	18.3147
7.20278e+06	18.3202
7.24436e+06	18.3256
7.28618e+06	18.331
7.32825e+06	18.3364
7.37055e+06	18.3419
7.4131e+06	18.3473
7.4559e+06	18.3527
7.49894e+06	18.3581
7.54223e+06	18.3635
7.58578e+06	18.3689
7.62957e+06	18.3743
7.67361e+06	18.3797
7.71792e+06	18.3851
7.76247e+06	18.3905
7.80728e+06	18.3958
7.85236e+06	18.4012
7.89769e+06	18.4066
7.94328e+06	18.412
7.98914e+06	18.4173
8.03526e+06	18.4227
8.08165e+06	18.4281
8.12831e+06	18.4334
8.17523e+06	18.4388
8.22243e+06	18.4441
8.2699e+06	18.4495
8.31764e+06	18.4548
8.36566e+06	18.4601
8.41395e+06	18.4655
8.46253e+06	18.4708
8.51138e+06	18.4761
8.56052e+06	18.4815
8.60994e+06	18.4868
8.65964e+06	18.4921
8.70964e+06	18.4974
8.75992e+06	18.5027
8.81049e+06	18.508
8.86135e+06	18.5133
8.91251e+06	18.5186
8.96396e+06	18.5239
9.01571e+06	18.5292
9.06776e+06	18.5345
9.12011e+06	18.5398
9.17276e+06	18.5451
9.22571e+06	18.5504
9.27897e+06	18.5556
9.33254e+06	18.5609
9.38642e+06	18.5662
9.44061e+06	18.5714
9.49511e+06	18.5767
9.54993e+06	18.5819
9.60506e+06	18.5872
9.66051e+06	18.5924
9.71628e+06	18.5977
9.77237e+06	18.6029
9.82879e+06	18.6082
9.88553e+06	18.6134
9.9426e+06	18.6186
1e+07	18.6239
