Stopping power dEdx from Ionisation for P31[0.0] Z = 15 in G4_TISSUE_SOFT_ICRP, process name: ionIoni
E [MeV]	dEdx [MeV/mm]
0.001	58.9157
0.00100577	59.0855
0.00101158	59.2558
0.00101742	59.4266
0.00102329	59.5979
0.0010292	59.7697
0.00103514	59.942
0.00104112	60.1148
0.00104713	60.288
0.00105317	60.4618
0.00105925	60.6361
0.00106537	60.8109
0.00107152	60.9861
0.00107771	61.1619
0.00108393	61.3382
0.00109018	61.515
0.00109648	61.6923
0.00110281	61.8701
0.00110917	62.0485
0.00111558	62.2273
0.00112202	62.4067
0.0011285	62.5866
0.00113501	62.767
0.00114156	62.9479
0.00114815	63.1293
0.00115478	63.3113
0.00116145	63.4938
0.00116815	63.6768
0.0011749	63.8603
0.00118168	64.0444
0.0011885	64.229
0.00119536	64.4141
0.00120226	64.5998
0.00120921	64.786
0.00121619	64.9727
0.00122321	65.16
0.00123027	65.3478
0.00123737	65.5362
0.00124451	65.7251
0.0012517	65.9145
0.00125893	66.1045
0.00126619	66.2951
0.0012735	66.4861
0.00128086	66.6778
0.00128825	66.87
0.00129569	67.0627
0.00130317	67.256
0.00131069	67.4499
0.00131826	67.6443
0.00132587	67.8393
0.00133352	68.0348
0.00134122	68.2309
0.00134896	68.4276
0.00135675	68.6248
0.00136458	68.8226
0.00137246	69.021
0.00138038	69.2199
0.00138835	69.4194
0.00139637	69.6195
0.00140443	69.8202
0.00141254	70.0215
0.00142069	70.2233
0.00142889	70.4257
0.00143714	70.6287
0.00144544	70.8323
0.00145378	71.0364
0.00146218	71.2412
0.00147062	71.4465
0.00147911	71.6525
0.00148765	71.859
0.00149624	72.0661
0.00150487	72.2738
0.00151356	72.4822
0.0015223	72.6911
0.00153109	72.9006
0.00153993	73.1107
0.00154882	73.3215
0.00155776	73.5328
0.00156675	73.7448
0.0015758	73.9573
0.00158489	74.1705
0.00159404	74.3843
0.00160325	74.5987
0.0016125	74.8137
0.00162181	75.0293
0.00163117	75.2456
0.00164059	75.4625
0.00165006	75.68
0.00165959	75.8981
0.00166917	76.1169
0.0016788	76.3363
0.0016885	76.5563
0.00169824	76.777
0.00170805	76.9983
0.00171791	77.2202
0.00172783	77.4428
0.0017378	77.666
0.00174783	77.8899
0.00175792	78.1144
0.00176807	78.3396
0.00177828	78.5654
0.00178855	78.7918
0.00179887	79.0189
0.00180926	79.2467
0.0018197	79.4751
0.00183021	79.7042
0.00184077	79.9339
0.0018514	80.1643
0.00186209	80.3954
0.00187284	80.6271
0.00188365	80.8595
0.00189452	81.0926
0.00190546	81.3263
0.00191646	81.5607
0.00192752	81.7958
0.00193865	82.0316
0.00194984	82.268
0.0019611	82.5052
0.00197242	82.743
0.00198381	82.9815
0.00199526	83.2207
0.00200678	83.4605
0.00201837	83.7011
0.00203002	83.9423
0.00204174	84.1843
0.00205353	84.427
0.00206538	84.6703
0.0020773	84.9144
0.0020893	85.1591
0.00210136	85.4046
0.00211349	85.6507
0.00212569	85.8976
0.00213796	86.1452
0.0021503	86.3935
0.00216272	86.6425
0.0021752	86.8923
0.00218776	87.1427
0.00220039	87.3939
0.00221309	87.6458
0.00222587	87.8984
0.00223872	88.1518
0.00225165	88.4059
0.00226464	88.6607
0.00227772	88.9162
0.00229087	89.1725
0.00230409	89.4296
0.00231739	89.6873
0.00233077	89.9458
0.00234423	90.2051
0.00235776	90.4651
0.00237137	90.7259
0.00238506	90.9874
0.00239883	91.2496
0.00241268	91.5126
0.00242661	91.7764
0.00244062	92.041
0.00245471	92.3063
0.00246888	92.5723
0.00248313	92.8391
0.00249747	93.1067
0.00251189	93.3751
0.00252639	93.6443
0.00254097	93.9142
0.00255564	94.1849
0.0025704	94.4563
0.00258523	94.7286
0.00260016	95.0016
0.00261517	95.2755
0.00263027	95.5501
0.00264545	95.8255
0.00266073	96.1017
0.00267609	96.3787
0.00269153	96.6565
0.00270707	96.9351
0.0027227	97.2145
0.00273842	97.4947
0.00275423	97.7757
0.00277013	98.0576
0.00278612	98.3402
0.00280221	98.6237
0.00281838	98.9079
0.00283465	99.193
0.00285102	99.4789
0.00286748	99.7657
0.00288403	100.053
0.00290068	100.342
0.00291743	100.631
0.00293427	100.921
0.00295121	101.212
0.00296825	101.504
0.00298538	101.796
0.00300262	102.09
0.00301995	102.384
0.00303739	102.679
0.00305492	102.975
0.00307256	103.272
0.0030903	103.569
0.00310814	103.868
0.00312608	104.167
0.00314413	104.467
0.00316228	104.769
0.00318053	105.071
0.0031989	105.373
0.00321736	105.677
0.00323594	105.982
0.00325462	106.287
0.00327341	106.594
0.0032923	106.901
0.00331131	107.209
0.00333043	107.518
0.00334965	107.828
0.00336899	108.139
0.00338844	108.45
0.003408	108.763
0.00342768	109.076
0.00344747	109.391
0.00346737	109.706
0.00348739	110.022
0.00350752	110.34
0.00352777	110.658
0.00354813	110.977
0.00356862	111.296
0.00358922	111.617
0.00360994	111.939
0.00363078	112.262
0.00365174	112.585
0.00367282	112.91
0.00369403	113.235
0.00371535	113.561
0.0037368	113.889
0.00375837	114.217
0.00378007	114.546
0.00380189	114.876
0.00382384	115.208
0.00384592	115.54
0.00386812	115.873
0.00389045	116.207
0.00391291	116.542
0.0039355	116.878
0.00395822	117.214
0.00398107	117.552
0.00400405	117.891
0.00402717	118.231
0.00405042	118.572
0.0040738	118.913
0.00409732	119.256
0.00412098	119.6
0.00414477	119.945
0.00416869	120.29
0.00419276	120.637
0.00421697	120.985
0.00424131	121.334
0.0042658	121.683
0.00429042	122.034
0.00431519	122.386
0.0043401	122.739
0.00436516	123.092
0.00439036	123.447
0.0044157	123.803
0.0044412	124.16
0.00446684	124.518
0.00449262	124.877
0.00451856	125.237
0.00454465	125.598
0.00457088	125.96
0.00459727	126.323
0.00462381	126.687
0.0046505	127.052
0.00467735	127.418
0.00470435	127.785
0.00473151	128.154
0.00475883	128.523
0.0047863	128.894
0.00481393	129.265
0.00484172	129.638
0.00486968	130.011
0.00489779	130.386
0.00492606	130.762
0.0049545	131.139
0.0049831	131.517
0.00501187	131.896
0.00504081	132.276
0.00506991	132.657
0.00509918	133.04
0.00512861	133.423
0.00515822	133.808
0.005188	134.193
0.00521795	134.58
0.00524807	134.968
0.00527837	135.357
0.00530884	135.747
0.00533949	136.139
0.00537032	136.531
0.00540132	136.924
0.0054325	137.319
0.00546387	137.715
0.00549541	138.112
0.00552713	138.51
0.00555904	138.909
0.00559114	139.31
0.00562341	139.711
0.00565588	140.114
0.00568853	140.518
0.00572137	140.923
0.0057544	141.329
0.00578762	141.736
0.00582103	142.145
0.00585464	142.555
0.00588844	142.965
0.00592243	143.378
0.00595662	143.791
0.00599101	144.205
0.0060256	144.621
0.00606038	145.038
0.00609537	145.456
0.00613056	145.875
0.00616595	146.296
0.00620155	146.717
0.00623735	147.14
0.00627336	147.564
0.00630957	147.99
0.006346	148.416
0.00638263	148.844
0.00641948	149.273
0.00645654	149.703
0.00649382	150.135
0.00653131	150.567
0.00656901	151.001
0.00660693	151.437
0.00664508	151.873
0.00668344	152.311
0.00672202	152.75
0.00676083	153.19
0.00679986	153.632
0.00683912	154.075
0.0068786	154.519
0.00691831	154.964
0.00695825	155.411
0.00699842	155.859
0.00703882	156.308
0.00707946	156.759
0.00712033	157.21
0.00716143	157.663
0.00720278	158.118
0.00724436	158.574
0.00728618	159.031
0.00732825	159.489
0.00737055	159.949
0.0074131	160.41
0.0074559	160.872
0.00749894	161.336
0.00754223	161.801
0.00758578	162.267
0.00762957	162.735
0.00767361	163.204
0.00771792	163.675
0.00776247	164.14
0.00780728	164.602
0.00785236	165.065
0.00789769	165.529
0.00794328	165.995
0.00798914	166.462
0.00803526	166.93
0.00808165	167.4
0.00812831	167.871
0.00817523	168.343
0.00822243	168.817
0.0082699	169.292
0.00831764	169.769
0.00836566	170.247
0.00841395	170.726
0.00846253	171.207
0.00851138	171.689
0.00856052	172.172
0.00860994	172.657
0.00865964	173.143
0.00870964	173.631
0.00875992	174.12
0.00881049	174.61
0.00886135	175.102
0.00891251	175.595
0.00896396	176.09
0.00901571	176.586
0.00906776	177.083
0.00912011	177.582
0.00917276	178.083
0.00922571	178.585
0.00927897	179.088
0.00933254	179.593
0.00938642	180.099
0.00944061	180.607
0.00949511	181.116
0.00954993	181.626
0.00960506	182.138
0.00966051	182.652
0.00971628	183.167
0.00977237	183.683
0.00982879	184.201
0.00988553	184.721
0.0099426	185.242
0.01	185.764
0.0100577	186.288
0.0101158	186.814
0.0101742	187.341
0.0102329	187.869
0.010292	188.399
0.0103514	188.931
0.0104112	189.464
0.0104713	189.999
0.0105317	190.535
0.0105925	191.073
0.0106537	191.612
0.0107152	192.153
0.0107771	192.696
0.0108393	193.24
0.0109018	193.785
0.0109648	194.332
0.0110281	194.881
0.0110917	195.431
0.0111558	195.983
0.0112202	196.537
0.011285	197.092
0.0113501	197.649
0.0114156	198.207
0.0114815	198.767
0.0115478	199.329
0.0116145	199.892
0.0116815	200.457
0.011749	201.023
0.0118168	201.591
0.011885	202.161
0.0119536	202.732
0.0120226	203.305
0.0120921	203.88
0.0121619	204.456
0.0122321	205.034
0.0123027	205.614
0.0123737	206.195
0.0124451	206.779
0.012517	207.363
0.0125893	207.95
0.0126619	208.538
0.012735	209.128
0.0128086	209.719
0.0128825	210.312
0.0129569	210.907
0.0130317	211.504
0.0131069	212.103
0.0131826	212.703
0.0132587	213.305
0.0133352	213.908
0.0134122	214.514
0.0134896	215.121
0.0135675	215.73
0.0136458	216.34
0.0137246	216.953
0.0138038	217.567
0.0138835	218.183
0.0139637	218.801
0.0140443	219.42
0.0141254	220.042
0.0142069	220.665
0.0142889	221.29
0.0143714	221.917
0.0144544	222.545
0.0145378	223.176
0.0146218	223.808
0.0147062	224.442
0.0147911	225.078
0.0148765	225.716
0.0149624	226.356
0.0150487	226.997
0.0151356	227.64
0.015223	228.286
0.0153109	228.933
0.0153993	229.582
0.0154882	230.233
0.0155776	230.885
0.0156675	231.54
0.015758	232.196
0.0158489	232.855
0.0159404	233.515
0.0160325	234.177
0.016125	234.842
0.0162181	235.508
0.0163117	236.176
0.0164059	236.846
0.0165006	237.518
0.0165959	238.192
0.0166917	238.868
0.016788	239.545
0.016885	240.225
0.0169824	240.907
0.0170805	241.591
0.0171791	242.276
0.0172783	242.964
0.017378	243.654
0.0174783	244.346
0.0175792	245.039
0.0176807	245.735
0.0177828	246.433
0.0178855	247.133
0.0179887	247.835
0.0180926	248.538
0.018197	249.244
0.0183021	249.952
0.0184077	250.662
0.018514	251.375
0.0186209	252.089
0.0187284	252.805
0.0188365	253.523
0.0189452	254.244
0.0190546	254.966
0.0191646	255.691
0.0192752	256.418
0.0193865	257.147
0.0194984	257.878
0.019611	258.611
0.0197242	259.346
0.0198381	260.083
0.0199526	260.823
0.0200678	261.565
0.0201837	262.308
0.0203002	263.054
0.0204174	263.803
0.0205353	264.553
0.0206538	265.306
0.020773	266.06
0.020893	266.817
0.0210136	267.576
0.0211349	268.338
0.0212569	269.101
0.0213796	269.867
0.021503	270.635
0.0216272	271.406
0.021752	272.178
0.0218776	272.953
0.0220039	273.73
0.0221309	274.509
0.0222587	275.291
0.0223872	276.075
0.0225165	276.861
0.0226464	277.649
0.0227772	278.44
0.0229087	279.233
0.0230409	280.028
0.0231739	280.826
0.0233077	281.626
0.0234423	282.428
0.0235776	283.233
0.0237137	284.04
0.0238506	284.85
0.0239883	285.661
0.0241268	286.475
0.0242661	287.292
0.0244062	288.111
0.0245471	288.932
0.0246888	289.756
0.0248313	290.582
0.0249747	291.41
0.0251189	292.241
0.0252639	293.075
0.0254097	293.91
0.0255564	294.749
0.025704	295.589
0.0258523	296.432
0.0260016	297.278
0.0261517	298.126
0.0263027	298.977
0.0264545	299.83
0.0266073	300.685
0.0267609	301.543
0.0269153	302.404
0.0270707	303.267
0.027227	304.132
0.0273842	305
0.0275423	305.871
0.0277013	306.744
0.0278612	307.62
0.0280221	308.498
0.0281838	309.379
0.0283465	310.262
0.0285102	311.148
0.0286748	312.037
0.0288403	312.928
0.0290068	313.822
0.0291743	314.719
0.0293427	315.618
0.0295121	316.519
0.0296825	317.424
0.0298538	318.331
0.0300262	319.24
0.0301995	320.153
0.0303739	321.067
0.0305492	321.985
0.0307256	322.905
0.030903	323.828
0.0310814	324.292
0.0312608	324.508
0.0314413	324.727
0.0316228	324.947
0.0318053	325.17
0.031989	325.395
0.0321736	325.622
0.0323594	325.852
0.0325462	326.084
0.0327341	326.317
0.032923	326.553
0.0331131	326.791
0.0333043	327.031
0.0334965	327.273
0.0336899	327.516
0.0338844	327.762
0.03408	328.01
0.0342768	328.26
0.0344747	328.511
0.0346737	328.764
0.0348739	329.02
0.0350752	329.277
0.0352777	329.535
0.0354813	329.796
0.0356862	330.058
0.0358922	330.322
0.0360994	330.588
0.0363078	330.855
0.0365174	331.124
0.0367282	331.395
0.0369403	331.667
0.0371535	331.941
0.037368	332.217
0.0375837	332.494
0.0378007	332.772
0.0380189	333.052
0.0382384	333.334
0.0384592	333.617
0.0386812	333.902
0.0389045	334.188
0.0391291	334.476
0.039355	334.765
0.0395822	335.055
0.0398107	335.347
0.0400405	335.64
0.0402717	335.935
0.0405042	336.231
0.040738	336.528
0.0409732	336.827
0.0412098	337.127
0.0414477	337.429
0.0416869	337.731
0.0419276	338.036
0.0421697	338.341
0.0424131	338.648
0.042658	338.955
0.0429042	339.265
0.0431519	339.575
0.043401	339.887
0.0436516	340.2
0.0439036	340.514
0.044157	340.829
0.044412	341.146
0.0446684	341.464
0.0449262	341.783
0.0451856	342.103
0.0454465	342.425
0.0457088	342.747
0.0459727	343.071
0.0462381	343.396
0.046505	343.722
0.0467735	344.049
0.0470435	344.378
0.0473151	344.707
0.0475883	345.038
0.047863	345.37
0.0481393	345.703
0.0484172	346.037
0.0486968	346.372
0.0489779	346.709
0.0492606	347.046
0.049545	347.385
0.049831	347.725
0.0501187	348.066
0.0504081	348.408
0.0506991	348.751
0.0509918	349.095
0.0512861	349.44
0.0515822	349.787
0.05188	350.134
0.0521795	350.483
0.0524807	350.833
0.0527837	351.183
0.0530884	351.535
0.0533949	351.888
0.0537032	352.242
0.0540132	352.598
0.054325	352.954
0.0546387	353.311
0.0549541	353.67
0.0552713	354.03
0.0555904	354.39
0.0559114	354.752
0.0562341	355.115
0.0565588	355.479
0.0568853	355.844
0.0572137	356.21
0.057544	356.578
0.0578762	356.946
0.0582103	357.316
0.0585464	357.687
0.0588844	358.058
0.0592243	358.431
0.0595662	358.805
0.0599101	359.181
0.060256	359.557
0.0606038	359.934
0.0609537	360.313
0.0613056	360.693
0.0616595	361.073
0.0620155	361.455
0.0623735	361.839
0.0627336	362.223
0.0630957	362.608
0.06346	362.995
0.0638263	363.383
0.0641948	363.772
0.0645654	364.162
0.0649382	364.553
0.0653131	364.946
0.0656901	365.34
0.0660693	365.734
0.0664508	366.131
0.0668344	366.528
0.0672202	366.926
0.0676083	367.326
0.0679986	367.727
0.0683912	368.129
0.068786	368.533
0.0691831	368.937
0.0695825	369.343
0.0699842	369.75
0.0703882	370.159
0.0707946	370.568
0.0712033	370.979
0.0716143	371.391
0.0720278	371.805
0.0724436	372.22
0.0728618	372.636
0.0732825	373.053
0.0737055	373.472
0.074131	373.892
0.074559	374.313
0.0749894	374.736
0.0754223	375.16
0.0758578	375.585
0.0762957	376.012
0.0767361	376.44
0.0771792	376.869
0.0776247	377.3
0.0780728	377.732
0.0785236	378.165
0.0789769	378.6
0.0794328	379.037
0.0798914	379.474
0.0803526	379.914
0.0808165	380.354
0.0812831	380.796
0.0817523	381.24
0.0822243	381.685
0.082699	382.131
0.0831764	382.579
0.0836566	383.028
0.0841395	383.479
0.0846253	383.931
0.0851138	384.385
0.0856052	384.84
0.0860994	385.297
0.0865964	385.756
0.0870964	386.215
0.0875992	386.677
0.0881049	387.14
0.0886135	387.604
0.0891251	388.071
0.0896396	388.538
0.0901571	389.008
0.0906776	389.478
0.0912011	389.951
0.0917276	390.425
0.0922571	390.901
0.0927897	391.378
0.0933254	391.857
0.0938642	392.338
0.0944061	392.82
0.0949511	393.304
0.0954993	393.79
0.0960506	394.277
0.0966051	394.766
0.0971628	395.257
0.0977237	395.75
0.0982879	396.244
0.0988553	396.74
0.099426	397.238
0.1	397.737
0.100577	398.238
0.101158	398.741
0.101742	399.246
0.102329	399.753
0.10292	400.261
0.103514	400.771
0.104112	401.283
0.104713	401.797
0.105317	402.313
0.105925	402.831
0.106537	403.35
0.107152	403.871
0.107771	404.394
0.108393	404.92
0.109018	405.447
0.109648	405.975
0.110281	406.506
0.110917	407.039
0.111558	407.574
0.112202	408.11
0.11285	408.649
0.113501	409.19
0.114156	409.732
0.114815	410.277
0.115478	410.823
0.116145	411.372
0.116815	411.923
0.11749	412.475
0.118168	413.03
0.11885	413.587
0.119536	414.145
0.120226	414.706
0.120921	415.269
0.121619	415.834
0.122321	416.402
0.123027	416.971
0.123737	417.542
0.124451	418.116
0.12517	418.692
0.125893	419.269
0.126619	419.849
0.12735	420.432
0.128086	421.016
0.128825	421.603
0.129569	422.191
0.130317	422.782
0.131069	423.376
0.131826	423.971
0.132587	424.569
0.133352	425.169
0.134122	425.771
0.134896	426.376
0.135675	426.982
0.136458	427.592
0.137246	428.203
0.138038	428.817
0.138835	429.433
0.139637	430.051
0.140443	430.672
0.141254	431.295
0.142069	431.921
0.142889	432.549
0.143714	433.179
0.144544	433.812
0.145378	434.447
0.146218	435.084
0.147062	435.724
0.147911	436.367
0.148765	437.012
0.149624	437.659
0.150487	438.309
0.151356	438.961
0.15223	439.616
0.153109	440.273
0.153993	440.933
0.154882	441.596
0.155776	442.261
0.156675	442.928
0.15758	443.598
0.158489	444.271
0.159404	444.946
0.160325	445.623
0.16125	446.304
0.162181	446.987
0.163117	447.672
0.164059	448.361
0.165006	449.051
0.165959	449.745
0.166917	450.441
0.16788	451.14
0.16885	451.841
0.169824	452.546
0.170805	453.252
0.171791	453.962
0.172783	454.674
0.17378	455.389
0.174783	456.107
0.175792	456.828
0.176807	457.551
0.177828	458.277
0.178855	459.006
0.179887	459.738
0.180926	460.472
0.18197	461.209
0.183021	461.949
0.184077	462.692
0.18514	463.438
0.186209	464.187
0.187284	464.938
0.188365	465.692
0.189452	466.45
0.190546	467.21
0.191646	467.973
0.192752	468.739
0.193865	469.508
0.194984	470.279
0.19611	471.054
0.197242	471.832
0.198381	472.612
0.199526	473.396
0.200678	474.182
0.201837	474.972
0.203002	475.764
0.204174	476.56
0.205353	477.358
0.206538	478.16
0.20773	478.965
0.20893	479.772
0.210136	480.583
0.211349	481.397
0.212569	482.214
0.213796	483.034
0.21503	483.857
0.216272	484.683
0.21752	485.512
0.218776	486.344
0.220039	487.18
0.221309	488.018
0.222587	488.86
0.223872	489.705
0.225165	490.553
0.226464	491.404
0.227772	492.259
0.229087	493.116
0.230409	493.977
0.231739	494.841
0.233077	495.708
0.234423	496.579
0.235776	497.453
0.237137	498.329
0.238506	499.21
0.239883	500.093
0.241268	500.98
0.242661	501.87
0.244062	502.763
0.245471	503.66
0.246888	504.56
0.248313	505.463
0.249747	506.369
0.251189	507.279
0.252639	508.192
0.254097	509.109
0.255564	510.029
0.25704	510.952
0.258523	511.879
0.260016	512.809
0.261517	513.742
0.263027	514.679
0.264545	515.619
0.266073	516.563
0.267609	517.51
0.269153	518.46
0.270707	519.414
0.27227	520.371
0.273842	521.332
0.275423	522.296
0.277013	523.264
0.278612	524.235
0.280221	525.21
0.281838	526.188
0.283465	527.17
0.285102	528.155
0.286748	529.144
0.288403	530.136
0.290068	531.131
0.291743	532.131
0.293427	533.133
0.295121	534.14
0.296825	535.149
0.298538	536.163
0.300262	537.18
0.301995	538.2
0.303739	539.224
0.305492	540.252
0.307256	541.283
0.30903	542.318
0.310814	543.357
0.312608	544.399
0.314413	545.445
0.316228	546.494
0.318053	547.547
0.31989	548.603
0.321736	549.664
0.323594	550.727
0.325462	551.795
0.327341	552.866
0.32923	553.941
0.331131	555.019
0.333043	556.101
0.334965	557.187
0.336899	558.277
0.338844	559.37
0.3408	560.467
0.342768	561.567
0.344747	562.672
0.346737	563.78
0.348739	564.891
0.350752	566.007
0.352777	567.126
0.354813	568.248
0.356862	569.375
0.358922	570.505
0.360994	571.639
0.363078	572.777
0.365174	573.918
0.367282	575.064
0.369403	576.213
0.371535	577.365
0.37368	578.522
0.375837	579.682
0.378007	580.846
0.380189	582.014
0.382384	583.185
0.384592	584.36
0.386812	585.539
0.389045	586.722
0.391291	587.909
0.39355	589.099
0.395822	590.293
0.398107	591.491
0.400405	592.693
0.402717	593.898
0.405042	595.107
0.40738	596.32
0.409732	597.537
0.412098	598.758
0.414477	599.982
0.416869	601.21
0.419276	602.442
0.421697	603.678
0.424131	604.917
0.42658	606.16
0.429042	607.407
0.431519	608.658
0.43401	609.913
0.436516	611.171
0.439036	612.433
0.44157	613.699
0.44412	614.969
0.446684	616.242
0.449262	617.519
0.451856	618.8
0.454465	620.085
0.457088	621.374
0.459727	622.666
0.462381	623.962
0.46505	625.262
0.467735	626.565
0.470435	627.873
0.473151	629.184
0.475883	630.499
0.47863	631.817
0.481393	633.139
0.484172	634.465
0.486968	635.795
0.489779	637.129
0.492606	638.466
0.49545	639.807
0.49831	641.151
0.501187	642.5
0.504081	643.852
0.506991	645.207
0.509918	646.567
0.512861	647.93
0.515822	649.296
0.5188	650.667
0.521795	652.04
0.524807	653.418
0.527837	654.799
0.530884	656.184
0.533949	657.573
0.537032	658.965
0.540132	660.361
0.54325	661.76
0.546387	663.163
0.549541	664.569
0.552713	665.979
0.555904	667.393
0.559114	668.81
0.562341	670.23
0.565588	671.654
0.568853	673.082
0.572137	674.513
0.57544	675.948
0.578762	677.386
0.582103	678.827
0.585464	680.272
0.588844	681.721
0.592243	683.173
0.595662	684.628
0.599101	686.086
0.60256	687.548
0.606038	689.014
0.609537	690.482
0.613056	691.954
0.616595	693.429
0.620155	694.908
0.623735	696.39
0.627336	697.875
0.630957	699.363
0.6346	700.855
0.638263	702.349
0.641948	703.847
0.645654	705.348
0.649382	706.853
0.653131	708.36
0.656901	709.871
0.660693	711.384
0.664508	712.901
0.668344	714.42
0.672202	715.943
0.676083	717.469
0.679986	718.997
0.683912	720.529
0.68786	722.063
0.691831	724.296
0.695825	727.727
0.699842	731.184
0.703882	734.666
0.707946	738.175
0.712033	741.709
0.716143	745.271
0.720278	748.859
0.724436	752.474
0.728618	756.116
0.732825	759.786
0.737055	763.484
0.74131	767.209
0.74559	770.963
0.749894	774.745
0.754223	778.556
0.758578	782.396
0.762957	786.266
0.767361	790.164
0.771792	794.093
0.776247	798.051
0.780728	801.644
0.785236	805.01
0.789769	808.395
0.794328	811.797
0.798914	815.219
0.803526	818.658
0.808165	822.116
0.812831	825.592
0.817523	829.087
0.822243	832.601
0.82699	836.133
0.831764	839.684
0.836566	843.253
0.841395	846.842
0.846253	850.449
0.851138	854.076
0.856052	857.721
0.860994	861.386
0.865964	865.069
0.870964	868.772
0.875992	872.495
0.881049	876.236
0.886135	879.997
0.891251	883.777
0.896396	887.577
0.901571	891.396
0.906776	895.235
0.912011	899.094
0.917276	902.972
0.922571	906.87
0.927897	910.788
0.933254	914.726
0.938642	918.684
0.944061	922.661
0.949511	926.659
0.954993	930.677
0.960506	934.715
0.966051	938.773
0.971628	942.851
0.977237	946.949
0.982879	951.068
0.988553	955.207
0.99426	959.367
1	963.547
1.00577	967.747
1.01158	971.968
1.01742	976.21
1.02329	980.472
1.0292	984.754
1.03514	989.058
1.04112	993.382
1.04713	997.727
1.05317	1002.09
1.05925	1006.48
1.06537	1010.89
1.07152	1015.31
1.07771	1019.76
1.08393	1024.23
1.09018	1028.72
1.09648	1033.24
1.10281	1037.77
1.10917	1042.32
1.11558	1046.9
1.12202	1051.49
1.1285	1056.11
1.13501	1060.75
1.14156	1065.41
1.14815	1070.09
1.15478	1074.79
1.16145	1079.52
1.16815	1084.26
1.1749	1089.03
1.18168	1093.81
1.1885	1098.62
1.19536	1103.45
1.20226	1108.3
1.20921	1113.17
1.21619	1118.06
1.22321	1122.98
1.23027	1127.91
1.23737	1132.87
1.24451	1137.85
1.2517	1142.85
1.25893	1147.87
1.26619	1152.91
1.2735	1157.98
1.28086	1163.06
1.28825	1168.17
1.29569	1173.29
1.30317	1178.44
1.31069	1183.61
1.31826	1188.8
1.32587	1194.01
1.33352	1199.24
1.34122	1204.5
1.34896	1209.77
1.35675	1215.07
1.36458	1220.39
1.37246	1225.72
1.38038	1231.08
1.38835	1236.46
1.39637	1241.86
1.40443	1247.28
1.41254	1252.73
1.42069	1258.19
1.42889	1263.67
1.43714	1269.18
1.44544	1274.7
1.45378	1280.25
1.46218	1285.82
1.47062	1291.4
1.47911	1297.01
1.48765	1302.64
1.49624	1308.28
1.50487	1313.95
1.51356	1319.64
1.5223	1325.35
1.53109	1331.07
1.53993	1336.82
1.54882	1342.59
1.55776	1348.38
1.56675	1354.18
1.5758	1360.01
1.58489	1365.86
1.59404	1371.72
1.60325	1377.61
1.6125	1383.51
1.62181	1389.44
1.63117	1395.38
1.64059	1401.34
1.65006	1407.32
1.65959	1413.32
1.66917	1419.34
1.6788	1425.37
1.6885	1431.43
1.69824	1437.5
1.70805	1443.59
1.71791	1449.7
1.72783	1455.82
1.7378	1461.97
1.74783	1468.13
1.75792	1474.31
1.76807	1480.51
1.77828	1486.72
1.78855	1492.95
1.79887	1499.2
1.80926	1505.47
1.8197	1511.75
1.83021	1518.05
1.84077	1524.36
1.8514	1530.69
1.86209	1537.04
1.87284	1543.4
1.88365	1549.78
1.89452	1556.17
1.90546	1562.58
1.91646	1569.01
1.92752	1575.45
1.93865	1581.9
1.94984	1588.37
1.9611	1594.85
1.97242	1601.35
1.98381	1607.86
1.99526	1614.39
2.00678	1620.93
2.01837	1627.48
2.03002	1634.04
2.04174	1640.62
2.05353	1647.21
2.06538	1653.82
2.0773	1660.43
2.0893	1667.06
2.10136	1673.7
2.11349	1680.36
2.12569	1687.02
2.13796	1693.69
2.1503	1700.38
2.16272	1707.08
2.1752	1713.78
2.18776	1720.5
2.20039	1727.23
2.21309	1733.97
2.22587	1740.71
2.23872	1747.47
2.25165	1754.24
2.26464	1761.01
2.27772	1767.79
2.29087	1774.58
2.30409	1781.38
2.31739	1788.19
2.33077	1795
2.34423	1801.82
2.35776	1808.65
2.37137	1815.48
2.38506	1822.32
2.39883	1829.17
2.41268	1836.02
2.42661	1842.88
2.44062	1849.74
2.45471	1856.61
2.46888	1863.48
2.48313	1870.35
2.49747	1877.23
2.51189	1884.11
2.52639	1891
2.54097	1897.89
2.55564	1904.78
2.5704	1911.67
2.58523	1918.57
2.60016	1925.46
2.61517	1932.36
2.63027	1939.26
2.64545	1946.16
2.66073	1953.06
2.67609	1959.96
2.69153	1966.86
2.70707	1972.47
2.7227	1979.35
2.73842	1986.23
2.75423	1993.11
2.77013	1999.99
2.78612	2006.86
2.80221	2013.73
2.81838	2020.59
2.83465	2027.46
2.85102	2034.31
2.86748	2041.17
2.88403	2048.01
2.90068	2054.86
2.91743	2061.69
2.93427	2068.52
2.95121	2075.35
2.96825	2082.16
2.98538	2088.98
3.00262	2095.78
3.01995	2102.57
3.03739	2109.36
3.05492	2116.13
3.07256	2122.9
3.0903	2129.66
3.10814	2136.41
3.12608	2143.15
3.14413	2149.87
3.16228	2156.59
3.18053	2163.3
3.1989	2169.99
3.21736	2176.67
3.23594	2183.34
3.25462	2189.99
3.27341	2196.63
3.2923	2203.26
3.31131	2209.87
3.33043	2216.47
3.34965	2223.05
3.36899	2229.62
3.38844	2236.17
3.408	2242.7
3.42768	2249.22
3.44747	2255.72
3.46737	2262.2
3.48739	2268.67
3.50752	2275.11
3.52777	2281.54
3.54813	2287.95
3.56862	2294.34
3.58922	2300.71
3.60994	2307.05
3.63078	2313.38
3.65174	2319.69
3.67282	2325.97
3.69403	2332.24
3.71535	2338.48
3.7368	2344.69
3.75837	2350.89
3.78007	2357.06
3.80189	2363.2
3.82384	2369.33
3.84592	2375.42
3.86812	2381.49
3.89045	2387.54
3.91291	2393.56
3.9355	2399.55
3.95822	2405.52
3.98107	2411.46
4.00405	2417.37
4.02717	2423.26
4.05042	2429.11
4.0738	2434.94
4.09732	2440.74
4.12098	2446.51
4.14477	2452.25
4.16869	2457.96
4.19276	2463.64
4.21697	2469.28
4.24131	2474.9
4.2658	2480.49
4.29042	2486.04
4.31519	2491.56
4.3401	2497.05
4.36516	2502.5
4.39036	2507.92
4.4157	2513.31
4.4412	2518.67
4.46684	2523.99
4.49262	2529.27
4.51856	2534.52
4.54465	2539.73
4.57088	2544.91
4.59727	2550.06
4.62381	2555.16
4.6505	2560.23
4.67735	2565.27
4.70435	2570.26
4.73151	2575.22
4.75883	2580.14
4.7863	2585.02
4.81393	2589.87
4.84172	2594.67
4.86968	2599.44
4.89779	2604.17
4.92606	2608.86
4.9545	2613.5
4.9831	2618.11
5.01187	2622.68
5.04081	2627.21
5.06991	2631.7
5.09918	2636.14
5.12861	2640.55
5.15822	2644.91
5.188	2649.23
5.21795	2653.51
5.24807	2657.75
5.27837	2661.94
5.30884	2666.1
5.33949	2670.21
5.37032	2674.27
5.40132	2678.3
5.4325	2682.28
5.46387	2686.21
5.49541	2690.11
5.52713	2693.96
5.55904	2697.76
5.59114	2701.52
5.62341	2705.24
5.65588	2708.91
5.68853	2712.54
5.72137	2716.12
5.7544	2719.66
5.78762	2723.15
5.82103	2726.6
5.85464	2730
5.88844	2733.36
5.92243	2736.67
5.95662	2739.94
5.99101	2743.16
6.0256	2746.33
6.06038	2749.46
6.09537	2752.55
6.13056	2755.58
6.16595	2758.57
6.20155	2761.52
6.23735	2764.42
6.27336	2767.27
6.30957	2770.07
6.346	2772.83
6.38263	2775.54
6.41948	2778.21
6.45654	2780.83
6.49382	2783.4
6.53131	2785.93
6.56901	2788.41
6.60693	2790.84
6.64508	2793.23
6.68344	2795.57
6.72202	2797.87
6.76083	2800.11
6.79986	2802.32
6.83912	2804.47
6.8786	2806.58
6.91831	2808.64
6.95825	2810.66
6.99842	2812.63
7.03882	2814.55
7.07946	2816.43
7.12033	2818.26
7.16143	2820.04
7.20278	2821.78
7.24436	2823.48
7.28618	2825.12
7.32825	2826.73
7.37055	2828.28
7.4131	2829.79
7.4559	2831.26
7.49894	2832.68
7.54223	2834.05
7.58578	2835.38
7.62957	2836.67
7.67361	2837.91
7.71792	2839.11
7.76247	2840.26
7.80728	2841.36
7.85236	2842.43
7.89769	2843.44
7.94328	2844.42
7.98914	2845.35
8.03526	2846.24
8.08165	2847.08
8.12831	2847.88
8.17523	2848.64
8.22243	2849.36
8.2699	2850.03
8.31764	2850.66
8.36566	2851.24
8.41395	2851.79
8.46253	2852.29
8.51138	2852.75
8.56052	2853.17
8.60994	2853.55
8.65964	2853.89
8.70964	2854.19
8.75992	2854.44
8.81049	2854.66
8.86135	2854.84
8.91251	2854.97
8.96396	2855.07
9.01571	2855.12
9.06776	2855.14
9.12011	2855.12
9.17276	2855.06
9.22571	2854.96
9.27897	2854.82
9.33254	2854.65
9.38642	2854.44
9.44061	2854.19
9.49511	2853.9
9.54993	2853.57
9.60506	2853.21
9.66051	2852.82
9.71628	2852.38
9.77237	2851.91
9.82879	2851.41
9.88553	2850.87
9.9426	2850.29
10	2849.68
10.0577	2849.04
10.1158	2848.36
10.1742	2847.65
10.2329	2846.9
10.292	2846.12
10.3514	2845.31
10.4112	2844.47
10.4713	2843.59
10.5317	2834.48
10.5925	2833.63
10.6537	2832.75
10.7152	2831.84
10.7771	2830.9
10.8393	2829.92
10.9018	2828.92
10.9648	2827.88
11.0281	2826.81
11.0917	2825.72
11.1558	2824.59
11.2202	2823.43
11.285	2822.25
11.3501	2821.03
11.4156	2819.79
11.4815	2818.52
11.5478	2817.22
11.6145	2815.9
11.6815	2814.54
11.749	2813.16
11.8168	2811.76
11.885	2810.32
11.9536	2808.86
12.0226	2807.38
12.0921	2805.87
12.1619	2804.33
12.2321	2802.77
12.3027	2801.19
12.3737	2799.58
12.4451	2797.94
12.517	2796.29
12.5893	2794.61
12.6619	2792.91
12.735	2791.18
12.8086	2789.43
12.8825	2787.66
12.9569	2785.87
13.0317	2784.06
13.1069	2782.23
13.1826	2780.37
13.2587	2778.5
13.3352	2776.61
13.4122	2774.69
13.4896	2772.76
13.5675	2770.8
13.6458	2768.83
13.7246	2766.84
13.8038	2764.83
13.8835	2762.81
13.9637	2760.76
14.0443	2758.7
14.1254	2756.62
14.2069	2754.52
14.2889	2752.41
14.3714	2750.28
14.4544	2748.14
14.5378	2745.97
14.6218	2743.8
14.7062	2741.61
14.7911	2739.4
14.8765	2737.18
14.9624	2734.94
15.0487	2732.69
15.1356	2730.43
15.223	2728.15
15.3109	2725.86
15.3993	2723.55
15.4882	2721.24
15.5776	2718.91
15.6675	2716.56
15.758	2714.21
15.8489	2711.84
15.9404	2709.47
16.0325	2707.08
16.125	2704.68
16.2181	2702.27
16.3117	2699.84
16.4059	2697.41
16.5006	2694.97
16.5959	2692.52
16.6917	2690.05
16.788	2687.58
16.885	2685.1
16.9824	2682.61
17.0805	2680.11
17.1791	2677.6
17.2783	2675.08
17.378	2672.56
17.4783	2670.02
17.5792	2667.48
17.6807	2664.93
17.7828	2662.38
17.8855	2659.81
17.9887	2657.24
18.0926	2654.66
18.197	2652.08
18.3021	2649.49
18.4077	2646.89
18.514	2644.28
18.6209	2641.67
18.7284	2639.05
18.8365	2636.43
18.9452	2633.8
19.0546	2631.17
19.1646	2628.53
19.2752	2625.89
19.3865	2623.24
19.4984	2620.58
19.611	2617.92
19.7242	2615.26
19.8381	2612.59
19.9526	2609.92
20.0678	2607.24
20.1837	2604.56
20.3002	2601.87
20.4174	2599.18
20.5353	2596.49
20.6538	2593.79
20.773	2591.09
20.893	2588.39
21.0136	2585.68
21.1349	2582.97
21.2569	2580.26
21.3796	2577.54
21.503	2574.82
21.6272	2572.1
21.752	2569.37
21.8776	2566.65
22.0039	2563.92
22.1309	2561.18
22.2587	2558.45
22.3872	2555.71
22.5165	2552.97
22.6464	2550.23
22.7772	2547.48
22.9087	2544.74
23.0409	2541.99
23.1739	2539.24
23.3077	2536.49
23.4423	2533.73
23.5776	2530.98
23.7137	2528.22
23.8506	2525.46
23.9883	2522.7
24.1268	2519.94
24.2661	2517.18
24.4062	2514.41
24.5471	2511.64
24.6888	2508.88
24.8313	2506.11
24.9747	2503.34
25.1189	2500.56
25.2639	2497.79
25.4097	2495.02
25.5564	2492.24
25.704	2489.46
25.8523	2486.69
26.0016	2483.91
26.1517	2481.13
26.3027	2478.35
26.4545	2475.56
26.6073	2472.78
26.7609	2470
26.9153	2467.21
27.0707	2464.42
27.227	2461.64
27.3842	2458.85
27.5423	2456.06
27.7013	2453.27
27.8612	2450.48
28.0221	2447.68
28.1838	2444.89
28.3465	2442.1
28.5102	2439.3
28.6748	2436.5
28.8403	2433.71
29.0068	2430.91
29.1743	2428.11
29.3427	2425.31
29.5121	2422.51
29.6825	2419.7
29.8538	2416.9
30.0262	2414.1
30.1995	2411.29
30.3739	2408.48
30.5492	2405.67
30.7256	2402.86
30.903	2400.05
31.0814	2397.24
31.2608	2394.43
31.4413	2391.62
31.6228	2388.8
31.8053	2385.98
31.989	2383.17
32.1736	2380.35
32.3594	2377.53
32.5462	2374.7
32.7341	2371.88
32.923	2369.05
33.1131	2366.23
33.3043	2363.4
33.4965	2360.57
33.6899	2357.74
33.8844	2354.91
34.08	2352.07
34.2768	2349.24
34.4747	2346.4
34.6737	2343.56
34.8739	2340.72
35.0752	2337.88
35.2777	2335.03
35.4813	2332.19
35.6862	2329.34
35.8922	2326.49
36.0994	2323.64
36.3078	2320.78
36.5174	2317.93
36.7282	2315.07
36.9403	2312.21
37.1535	2309.35
37.368	2306.48
37.5837	2303.61
37.8007	2300.75
38.0189	2297.87
38.2384	2295
38.4592	2292.12
38.6812	2289.25
38.9045	2286.37
39.1291	2283.48
39.355	2280.6
39.5822	2277.71
39.8107	2274.82
40.0405	2271.93
40.2717	2269.03
40.5042	2266.13
40.738	2263.23
40.9732	2260.33
41.2098	2257.42
41.4477	2254.51
41.6869	2251.6
41.9276	2248.68
42.1697	2245.76
42.4131	2242.84
42.658	2239.92
42.9042	2236.99
43.1519	2234.06
43.401	2231.12
43.6516	2228.19
43.9036	2225.25
44.157	2222.3
44.412	2219.36
44.6684	2216.4
44.9262	2213.45
45.1856	2210.49
45.4465	2207.53
45.7088	2204.57
45.9727	2201.6
46.2381	2198.63
46.505	2195.66
46.7735	2192.68
47.0435	2189.7
47.3151	2186.71
47.5883	2183.72
47.863	2180.73
48.1393	2177.73
48.4172	2174.73
48.6968	2171.73
48.9779	2168.72
49.2606	2165.71
49.545	2162.69
49.831	2159.67
50.1187	2156.64
50.4081	2153.62
50.6991	2150.58
50.9918	2147.55
51.2861	2144.51
51.5822	2141.46
51.88	2138.41
52.1795	2135.36
52.4807	2132.3
52.7837	2129.24
53.0884	2126.17
53.3949	2123.1
53.7032	2120.03
54.0132	2116.95
54.325	2113.86
54.6387	2110.77
54.9541	2107.68
55.2713	2104.58
55.5904	2101.48
55.9114	2098.37
56.2341	2095.26
56.5588	2092.15
56.8853	2089.02
57.2137	2085.9
57.544	2082.77
57.8762	2079.63
58.2103	2076.49
58.5464	2073.35
58.8844	2070.2
59.2243	2067.05
59.5662	2063.89
59.9101	2060.72
60.256	2057.55
60.6038	2054.38
60.9537	2051.2
61.3056	2048.02
61.6595	2044.37
62.0155	2040.15
62.3735	2035.93
62.7336	2031.72
63.0957	2027.52
63.46	2023.32
63.8263	2019.12
64.1948	2015.05
64.5654	2010.85
64.9382	2006.66
65.3131	2002.47
65.6901	1998.28
66.0693	1994.09
66.4508	1989.9
66.8344	1985.71
67.2202	1981.53
67.6083	1977.34
67.9986	1973.16
68.3912	1968.98
68.786	1965.06
69.1831	1960.88
69.5825	1956.78
69.9842	1952.6
70.3882	1948.43
70.7946	1944.25
71.2033	1940.07
71.6143	1935.9
72.0278	1931.73
72.4436	1927.56
72.8618	1923.39
73.2825	1919.21
73.7055	1915.04
74.131	1910.87
74.559	1906.7
74.9894	1902.53
75.4223	1899.49
75.8578	1895.31
76.2957	1891.13
76.7361	1886.96
77.1792	1878.99
77.6247	1874.75
78.0728	1870.86
78.5236	1866.62
78.9769	1862.38
79.4328	1858.15
79.8914	1853.92
80.3526	1849.69
80.8165	1845.47
81.2831	1841.24
81.7523	1837.02
82.2243	1832.79
82.699	1828.57
83.1764	1824.34
83.6566	1820.12
84.1395	1815.89
84.6253	1811.67
85.1138	1807.44
85.6052	1803.21
86.0994	1798.99
86.5964	1794.76
87.0964	1790.53
87.5992	1786.31
88.1049	1782.08
88.6135	1777.85
89.1251	1773.62
89.6396	1769.39
90.1571	1765.15
90.6776	1760.92
91.2011	1756.69
91.7276	1753.58
92.2571	1749.34
92.7897	1745.1
93.3254	1740.86
93.8642	1736.62
94.4061	1732.38
94.9511	1728.14
95.4993	1723.9
96.0506	1719.66
96.6051	1715.41
97.1628	1711.17
97.7237	1706.93
98.2879	1702.68
98.8553	1698.44
99.426	1694.2
100	1689.95
100.577	1685.71
101.158	1681.47
101.742	1677.23
102.329	1672.99
102.92	1668.75
103.514	1664.51
104.112	1660.34
104.713	1656.1
105.317	1651.86
105.925	1647.62
106.537	1643.38
107.152	1639.14
107.771	1634.91
108.393	1630.77
109.018	1626.71
109.648	1622.65
110.281	1618.59
110.917	1614.52
111.558	1610.45
112.202	1606.39
112.85	1602.32
113.501	1598.25
114.156	1594.18
114.815	1590.11
115.478	1586.04
116.145	1581.97
116.815	1577.9
117.49	1573.83
118.168	1569.76
118.85	1565.7
119.536	1561.63
120.226	1557.56
120.921	1553.49
121.619	1549.42
122.321	1545.36
123.027	1541.29
123.737	1537.23
124.451	1533.16
125.17	1529.1
125.893	1525.46
126.619	1521.4
127.35	1517.33
128.086	1513.26
128.825	1509.2
129.569	1505.14
130.317	1501.08
131.069	1497.02
131.826	1492.96
132.587	1488.9
133.352	1484.85
134.122	1480.8
134.896	1476.75
135.675	1472.7
136.458	1468.66
137.246	1464.62
138.038	1461.58
138.835	1457.54
139.637	1453.49
140.443	1449.45
141.254	1445.42
142.069	1441.38
142.889	1437.35
143.714	1433.32
144.544	1429.29
145.378	1425.27
146.218	1421.25
147.062	1417.24
147.911	1413.22
148.765	1409.21
149.624	1405.21
150.487	1401.21
151.356	1397.21
152.23	1393.21
153.109	1389.22
153.993	1385.24
154.882	1381.25
155.776	1377.27
156.675	1373.3
157.58	1369.33
158.489	1365.36
159.404	1361.39
160.325	1357.43
161.25	1353.48
162.181	1349.52
163.117	1345.58
164.059	1341.63
165.006	1337.69
165.959	1333.76
166.917	1329.83
167.88	1325.9
168.85	1321.98
169.824	1318.06
170.805	1314.14
171.791	1310.23
172.783	1306.33
173.78	1302.43
174.783	1298.56
175.792	1294.67
176.807	1291.06
177.828	1287.17
178.855	1283.29
179.887	1279.41
180.926	1275.53
181.97	1271.66
183.021	1267.8
184.077	1263.94
185.14	1260.08
186.209	1256.23
187.284	1252.38
188.365	1248.54
189.452	1244.7
190.546	1240.87
191.646	1237.04
192.752	1233.22
193.865	1229.4
194.984	1225.58
196.11	1221.77
197.242	1217.97
198.381	1214.17
199.526	1210.38
200.678	1206.59
201.837	1202.8
203.002	1199.02
204.174	1195.25
205.353	1191.48
206.538	1187.71
207.73	1183.95
208.93	1180.2
210.136	1176.45
211.349	1172.7
212.569	1168.96
213.796	1165.23
215.03	1161.5
216.272	1157.78
217.52	1154.06
218.776	1150.35
220.039	1146.64
221.309	1142.94
222.587	1139.24
223.872	1135.55
225.165	1131.86
226.464	1128.18
227.772	1124.5
229.087	1120.83
230.409	1117.53
231.739	1113.87
233.077	1110.21
234.423	1106.55
235.776	1102.9
237.137	1099.26
238.506	1096.21
239.883	1092.57
241.268	1088.94
242.661	1085.31
244.062	1081.69
245.471	1078.09
246.888	1074.48
248.313	1070.88
249.747	1067.28
251.189	1063.68
252.639	1060.1
254.097	1056.52
255.564	1052.94
257.04	1049.38
258.523	1045.81
260.016	1042.26
261.517	1038.71
263.027	1035.16
264.545	1031.62
266.073	1028.09
267.609	1024.56
269.153	1021.04
270.707	1017.53
272.27	1014.02
273.842	1010.52
275.423	1007.02
277.013	1003.53
278.612	1000.05
280.221	996.568
281.838	993.096
283.465	989.63
285.102	986.17
286.748	982.716
288.403	979.269
290.068	975.828
291.743	972.394
293.427	968.966
295.121	965.544
296.825	962.129
298.538	958.72
300.262	955.317
301.995	951.921
303.739	948.531
305.492	945.148
307.256	941.772
309.03	938.402
310.814	935.039
312.608	931.682
314.413	928.333
316.228	924.989
318.053	921.653
319.89	918.323
321.736	915
323.594	911.684
325.462	908.604
327.341	905.299
329.23	902.001
331.131	898.709
333.043	895.423
334.965	892.145
336.899	888.874
338.844	885.61
340.8	882.353
342.768	879.104
344.747	875.861
346.737	872.626
348.739	869.397
350.752	866.176
352.777	862.962
354.813	859.755
356.862	856.556
358.922	853.363
360.994	850.178
363.078	847.001
365.174	843.83
367.282	840.668
369.403	837.512
371.535	834.364
373.68	831.223
375.837	828.09
378.007	824.964
380.189	821.846
382.384	818.735
384.592	815.632
386.812	812.537
389.045	809.45
391.291	806.37
393.55	803.297
395.822	800.232
398.107	797.174
400.405	794.124
402.717	791.082
405.042	788.048
407.38	785.021
409.732	782.002
412.098	778.99
414.477	775.986
416.869	772.99
419.276	770.002
421.697	767.022
424.131	764.049
426.58	761.085
429.042	758.128
431.519	755.179
434.01	752.237
436.516	749.304
439.036	746.379
441.57	743.461
444.12	740.551
446.684	737.649
449.262	734.756
451.856	731.87
454.465	728.992
457.088	726.122
459.727	723.26
462.381	720.406
465.05	717.558
467.735	714.721
470.435	711.892
473.151	709.07
475.883	706.257
478.63	703.452
481.393	700.655
484.172	697.865
486.968	695.084
489.779	692.311
492.606	689.546
495.45	686.788
498.31	684.039
501.187	681.298
504.081	678.565
506.991	675.84
509.918	673.123
512.861	670.414
515.822	667.714
518.8	665.021
521.795	662.337
524.807	659.661
527.837	656.992
530.884	654.332
533.949	651.68
537.032	649.035
540.132	646.399
543.25	643.771
546.387	641.151
549.541	638.539
552.713	635.935
555.904	633.339
559.114	630.752
562.341	628.172
565.588	625.6
568.853	623.037
572.137	620.481
575.44	617.934
578.762	615.394
582.103	612.863
585.464	610.34
588.844	607.825
592.243	605.317
595.662	602.818
599.101	600.327
602.56	597.844
606.038	595.369
609.537	592.902
613.056	590.443
616.595	587.992
620.155	585.549
623.735	583.114
627.336	580.688
630.957	578.269
634.6	575.858
638.263	573.455
641.948	571.061
645.654	568.674
649.382	566.295
653.131	563.924
656.901	561.562
660.693	559.207
664.508	556.86
668.344	554.521
672.202	552.191
676.083	549.868
679.986	547.553
683.912	545.246
687.86	542.947
691.831	540.656
695.825	538.372
699.842	536.097
703.882	533.83
707.946	531.57
712.033	529.319
716.143	527.075
720.278	524.839
724.436	522.612
728.618	520.392
732.825	518.179
737.055	515.975
741.31	513.779
745.59	511.59
749.894	509.409
754.223	507.237
758.578	505.071
762.957	502.914
767.361	500.765
771.792	498.623
776.247	496.489
780.728	494.363
785.236	492.245
789.769	490.133
794.328	488.031
798.914	485.936
803.526	483.848
808.165	481.769
812.831	479.697
817.523	477.633
822.243	475.576
826.99	473.527
831.764	471.486
836.566	469.452
841.395	467.427
846.253	465.408
851.138	463.398
856.052	461.394
860.994	459.399
865.964	457.411
870.964	455.431
875.992	453.458
881.049	451.493
886.135	449.535
891.251	447.584
896.396	445.642
901.571	443.706
906.776	441.779
912.011	439.858
917.276	437.945
922.571	436.04
927.897	434.142
933.254	432.251
938.642	430.367
944.061	428.491
949.511	426.623
954.993	424.762
960.506	422.908
966.051	421.061
971.628	419.222
977.237	417.39
982.879	415.565
988.553	413.748
994.26	411.938
1000	410.135
1005.77	408.339
1011.58	406.55
1017.42	404.769
1023.29	402.994
1029.2	401.227
1035.14	399.467
1041.12	397.714
1047.13	395.968
1053.17	394.23
1059.25	392.498
1065.37	390.773
1071.52	389.056
1077.71	387.345
1083.93	385.641
1090.18	383.945
1096.48	382.255
1102.81	380.572
1109.17	378.896
1115.58	377.227
1122.02	375.565
1128.5	373.91
1135.01	372.262
1141.56	370.62
1148.15	368.986
1154.78	367.358
1161.45	365.737
1168.15	364.122
1174.9	362.515
1181.68	360.914
1188.5	359.32
1195.36	357.732
1202.26	356.151
1209.21	354.577
1216.19	353.01
1223.21	351.449
1230.27	349.895
1237.37	348.347
1244.51	346.806
1251.7	345.271
1258.93	343.743
1266.19	342.222
1273.5	340.707
1280.86	339.198
1288.25	337.696
1295.69	336.2
1303.17	334.711
1310.69	333.228
1318.26	331.752
1325.87	330.282
1333.52	328.818
1341.22	327.361
1348.96	325.91
1356.75	324.465
1364.58	323.026
1372.46	321.594
1380.38	320.168
1388.35	318.748
1396.37	317.334
1404.43	315.927
1412.54	314.525
1420.69	313.13
1428.89	311.741
1437.14	310.358
1445.44	308.981
1453.78	307.611
1462.18	306.246
1470.62	304.887
1479.11	303.534
1487.65	302.188
1496.24	300.847
1504.87	299.512
1513.56	298.183
1522.3	296.86
1531.09	295.543
1539.93	294.232
1548.82	292.926
1557.76	291.627
1566.75	290.333
1575.8	289.045
1584.89	287.763
1594.04	286.486
1603.25	285.216
1612.5	283.951
1621.81	282.691
1631.17	281.438
1640.59	280.19
1650.06	278.948
1659.59	277.711
1669.17	276.48
1678.8	275.254
1688.5	274.034
1698.24	272.82
1708.05	271.611
1717.91	270.408
1727.83	269.21
1737.8	268.018
1747.83	266.831
1757.92	265.649
1768.07	264.473
1778.28	263.302
1788.55	262.137
1798.87	260.977
1809.26	259.822
1819.7	258.673
1830.21	257.529
1840.77	256.39
1851.4	255.257
1862.09	254.128
1872.84	253.005
1883.65	251.888
1894.52	250.775
1905.46	249.667
1916.46	248.565
1927.52	247.468
1938.65	246.376
1949.84	245.289
1961.1	244.207
1972.42	243.13
1983.81	242.058
1995.26	240.991
2006.78	239.929
2018.37	238.872
2030.02	237.82
2041.74	236.773
2053.53	235.731
2065.38	234.694
2077.3	233.661
2089.3	232.634
2101.36	231.611
2113.49	230.593
2125.69	229.58
2137.96	228.572
2150.3	227.568
2162.72	226.57
2175.2	225.576
2187.76	224.586
2200.39	223.602
2213.09	222.622
2225.87	221.647
2238.72	220.676
2251.65	219.71
2264.64	218.749
2277.72	217.792
2290.87	216.84
2304.09	215.892
2317.39	214.949
2330.77	214.01
2344.23	213.076
2357.76	212.146
2371.37	211.221
2385.06	210.3
2398.83	209.384
2412.68	208.472
2426.61	207.564
2440.62	206.661
2454.71	205.762
2468.88	204.868
2483.13	203.978
2497.47	203.092
2511.89	202.21
2526.39	201.333
2540.97	200.46
2555.64	199.591
2570.4	198.726
2585.23	197.866
2600.16	197.009
2615.17	196.157
2630.27	195.309
2645.45	194.465
2660.73	193.625
2676.09	192.79
2691.53	191.958
2707.07	191.13
2722.7	190.307
2738.42	189.487
2754.23	188.672
2770.13	187.86
2786.12	187.053
2802.21	186.249
2818.38	185.449
2834.65	184.654
2851.02	183.862
2867.48	183.074
2884.03	182.29
2900.68	181.51
2917.43	180.733
2934.27	179.961
2951.21	179.192
2968.25	178.427
2985.38	177.666
3002.62	176.908
3019.95	176.155
3037.39	175.405
3054.92	174.658
3072.56	173.916
3090.3	173.177
3108.14	172.442
3126.08	171.71
3144.13	170.982
3162.28	170.258
3180.53	169.537
3198.9	168.82
3217.36	168.106
3235.94	167.396
3254.62	166.69
3273.41	165.987
3292.3	165.287
3311.31	164.591
3330.43	163.899
3349.65	163.21
3368.99	162.524
3388.44	161.842
3408	161.163
3427.68	160.488
3447.47	159.816
3467.37	159.147
3487.39	158.482
3507.52	157.82
3527.77	157.161
3548.13	156.506
3568.62	155.854
3589.22	155.205
3609.94	154.56
3630.78	153.918
3651.74	153.279
3672.82	152.643
3694.03	152.01
3715.35	151.381
3736.8	150.755
3758.37	150.132
3780.07	149.512
3801.89	148.895
3823.84	148.282
3845.92	147.671
3868.12	147.064
3890.45	146.46
3912.91	145.859
3935.5	145.26
3958.22	144.665
3981.07	144.073
4004.05	143.484
4027.17	142.898
4050.42	142.315
4073.8	141.735
4097.32	141.158
4120.98	140.583
4144.77	140.012
4168.69	139.444
4192.76	138.878
4216.97	138.316
4241.31	137.756
4265.8	137.199
4290.42	136.645
4315.19	136.094
4340.1	135.546
4365.16	135
4390.36	134.458
4415.7	133.918
4441.2	133.381
4466.84	132.846
4492.62	132.315
4518.56	131.786
4544.65	131.26
4570.88	130.736
4597.27	130.216
4623.81	129.698
4650.5	129.182
4677.35	128.67
4704.35	128.16
4731.51	127.652
4758.83	127.147
4786.3	126.645
4813.93	126.146
4841.72	125.649
4869.68	125.154
4897.79	124.663
4926.06	124.173
4954.5	123.687
4983.1	123.202
5011.87	122.721
5040.81	122.242
5069.91	121.765
5099.18	121.291
5128.61	120.819
5158.22	120.35
5188	119.883
5217.95	119.419
5248.07	118.957
5278.37	118.498
5308.84	118.041
5339.49	117.586
5370.32	117.134
5401.32	116.684
5432.5	116.236
5463.87	115.791
5495.41	115.348
5527.13	114.908
5559.04	114.469
5591.14	114.034
5623.41	113.6
5655.88	113.169
5688.53	112.74
5721.37	112.313
5754.4	111.889
5787.62	111.466
5821.03	111.046
5854.64	110.629
5888.44	110.213
5922.43	109.8
5956.62	109.388
5991.01	108.979
6025.6	108.573
6060.38	108.168
6095.37	107.766
6130.56	107.365
6165.95	106.967
6201.55	106.571
6237.35	106.177
6273.36	105.785
6309.57	105.395
6346	105.008
6382.63	104.622
6419.48	104.239
6456.54	103.857
6493.82	103.478
6531.31	103.1
6569.01	102.725
6606.93	102.352
6645.08	101.98
6683.44	101.611
6722.02	101.244
6760.83	100.878
6799.86	100.515
6839.12	100.153
6878.6	99.7939
6918.31	99.4364
6958.25	99.0808
6998.42	98.7272
7038.82	98.3754
7079.46	98.0256
7120.33	97.6777
7161.43	97.3316
7202.78	96.9875
7244.36	96.6452
7286.18	96.3048
7328.25	95.9662
7370.55	95.6295
7413.1	95.2946
7455.9	94.9616
7498.94	94.6304
7542.23	94.301
7585.78	93.9734
7629.57	93.6476
7673.61	93.3236
7717.92	93.0013
7762.47	92.6809
7807.28	92.3622
7852.36	92.0453
7897.69	91.7301
7943.28	91.4166
7989.14	91.1049
8035.26	90.7949
8081.65	90.4866
8128.31	90.1801
8175.23	89.8752
8222.43	89.572
8269.9	89.2705
8317.64	88.9707
8365.66	88.6726
8413.95	88.3761
8462.53	88.0812
8511.38	87.7881
8560.52	87.4965
8609.94	87.2066
8659.64	86.9183
8709.64	86.6316
8759.92	86.3465
8810.49	86.0631
8861.35	85.7812
8912.51	85.5009
8963.96	85.2222
9015.71	84.945
9067.76	84.6694
9120.11	84.3954
9172.76	84.1229
9225.71	83.852
9278.97	83.5826
9332.54	83.3148
9386.42	83.0484
9440.61	82.7836
9495.11	82.5202
9549.93	82.2584
9605.06	81.9981
9660.51	81.7392
9716.28	81.4818
9772.37	81.2259
9828.79	80.9715
9885.53	80.7185
9942.6	80.467
10000	80.2169
10057.7	79.9683
10115.8	79.7211
10174.2	79.4753
10232.9	79.2309
10292	78.988
10351.4	78.7464
10411.2	78.5063
10471.3	78.2675
10531.7	78.0301
10592.5	77.7941
10653.7	77.5595
10715.2	77.3263
10777.1	77.0944
10839.3	76.8638
10901.8	76.6347
10964.8	76.4068
11028.1	76.1803
11091.7	75.9551
11155.8	75.7313
11220.2	75.5087
11285	75.2875
11350.1	75.0676
11415.6	74.849
11481.5	74.6317
11547.8	74.4156
11614.5	74.2009
11681.5	73.9874
11749	73.7752
11816.8	73.5642
11885	73.3545
11953.6	73.1461
12022.6	72.9389
12092.1	72.733
12161.9	72.5282
12232.1	72.3248
12302.7	72.1225
12373.7	71.9215
12445.1	71.7216
12517	71.523
12589.3	71.3256
12661.9	71.1294
12735	70.9343
12808.6	70.7405
12882.5	70.5478
12956.9	70.3563
13031.7	70.166
13106.9	69.9769
13182.6	69.7889
13258.7	69.602
13335.2	69.4163
13412.2	69.2318
13489.6	69.0483
13567.5	68.866
13645.8	68.6849
13724.6	68.5049
13803.8	68.3259
13883.5	68.1481
13963.7	67.9714
14044.3	67.7958
14125.4	67.6213
14206.9	67.4479
14288.9	67.2756
14371.4	67.1043
14454.4	66.9342
14537.8	66.7651
14621.8	66.597
14706.2	66.4301
14791.1	66.2642
14876.5	66.0993
14962.4	65.9355
15048.7	65.7727
15135.6	65.611
15223	65.4503
15310.9	65.2906
15399.3	65.132
15488.2	64.9744
15577.6	64.8178
15667.5	64.6622
15758	64.5076
15848.9	64.354
15940.4	64.2014
16032.5	64.0498
16125	63.8992
16218.1	63.7495
16311.7	63.6009
16405.9	63.4532
16500.6	63.3065
16595.9	63.1607
16691.7	63.0159
16788	62.8721
16885	62.7292
16982.4	62.5873
17080.5	62.4463
17179.1	62.3063
17278.3	62.1672
17378	62.029
17478.3	61.8917
17579.2	61.7554
17680.7	61.62
17782.8	61.4855
17885.5	61.3519
17988.7	61.2192
18092.6	61.0874
18197	60.9566
18302.1	60.8266
18407.7	60.6975
18514	60.5693
18620.9	60.4419
18728.4	60.3155
18836.5	60.1899
18945.2	60.0652
19054.6	59.9413
19164.6	59.8183
19275.2	59.6962
19386.5	59.5749
19498.4	59.4545
19611	59.3349
19724.2	59.2162
19838.1	59.0983
19952.6	58.9813
20067.8	58.865
20183.7	58.7496
20300.2	58.6351
20417.4	58.5213
20535.3	58.4084
20653.8	58.2962
20773	58.1849
20893	58.0744
21013.6	57.9647
21134.9	57.8558
21256.9	57.7476
21379.6	57.6403
21503	57.5338
21627.2	57.428
21752	57.323
21877.6	57.2188
22003.9	57.1154
22130.9	57.0128
22258.7	56.9109
22387.2	56.8097
22516.5	56.7094
22646.4	56.6098
22777.2	56.5109
22908.7	56.4128
23040.9	56.3154
23173.9	56.2188
23307.7	56.1229
23442.3	56.0278
23577.6	55.9334
23713.7	55.8397
23850.6	55.7467
23988.3	55.6545
24126.8	55.563
24266.1	55.4722
24406.2	55.3821
24547.1	55.2927
24688.8	55.204
24831.3	55.1161
24974.7	55.0288
25118.9	54.9422
25263.9	54.8564
25409.7	54.7712
25556.4	54.6867
25704	54.6029
25852.3	54.5197
26001.6	54.4373
26151.7	54.3555
26302.7	54.2744
26454.5	54.194
26607.3	54.1142
26760.9	54.0351
26915.3	53.9566
27070.7	53.8788
27227	53.8017
27384.2	53.7252
27542.3	53.6494
27701.3	53.5742
27861.2	53.4997
28022.1	53.4258
28183.8	53.3525
28346.5	53.2798
28510.2	53.2078
28674.8	53.1365
28840.3	53.0657
29006.8	52.9956
29174.3	52.9261
29342.7	52.8572
29512.1	52.7889
29682.5	52.7212
29853.8	52.6542
30026.2	52.5835
30199.5	52.512
30373.9	52.4412
30549.2	52.3709
30725.6	52.3012
30903	52.2321
31081.4	52.1636
31260.8	52.0957
31441.3	52.0283
31622.8	51.9615
31805.3	51.8953
31989	51.8296
32173.6	51.7646
32359.4	51.7
32546.2	51.6361
32734.1	51.5726
32923	51.5098
33113.1	51.4475
33304.3	51.3857
33496.5	51.3245
33689.9	51.2638
33884.4	51.2037
34080	51.1441
34276.8	51.085
34474.7	51.0265
34673.7	50.9685
34873.9	50.911
35075.2	50.8541
35277.7	50.7976
35481.3	50.7417
35686.2	50.6863
35892.2	50.6314
36099.4	50.5771
36307.8	50.5232
36517.4	50.4699
36728.2	50.417
36940.3	50.3647
37153.5	50.3128
37368	50.2615
37583.7	50.2106
37800.7	50.1602
38018.9	50.1104
38238.4	50.061
38459.2	50.0121
38681.2	49.9636
38904.5	49.9157
39129.1	49.8682
39355	49.8212
39582.2	49.7747
39810.7	49.7287
40040.5	49.6831
40271.7	49.638
40504.2	49.5933
40738	49.5491
40973.2	49.5054
41209.8	49.4621
41447.7	49.4193
41686.9	49.3769
41927.6	49.335
42169.7	49.2935
42413.1	49.2525
42658	49.2119
42904.2	49.1717
43151.9	49.132
43401	49.0927
43651.6	49.0539
43903.6	49.0155
44157	48.9775
44412	48.9399
44668.4	48.9028
44926.2	48.8661
45185.6	48.8298
45446.5	48.7939
45708.8	48.7584
45972.7	48.7234
46238.1	48.6887
46505	48.6545
46773.5	48.6207
47043.5	48.5873
47315.1	48.5543
47588.3	48.5216
47863	48.4894
48139.3	48.4576
48417.2	48.4262
48696.8	48.3952
48977.9	48.3645
49260.6	48.3343
49545	48.3044
49831	48.2749
50118.7	48.2458
50408.1	48.2171
50699.1	48.1887
50991.8	48.1608
51286.1	48.1332
51582.2	48.1059
51880	48.0791
52179.5	48.0526
52480.7	48.0265
52783.7	48.0007
53088.4	47.9753
53394.9	47.9503
53703.2	47.9256
54013.2	47.9013
54325	47.8773
54638.7	47.8537
54954.1	47.8304
55271.3	47.8075
55590.4	47.785
55911.4	47.7627
56234.1	47.7408
56558.8	47.7193
56885.3	47.6981
57213.7	47.6772
57544	47.6567
57876.2	47.6365
58210.3	47.6166
58546.4	47.5971
58884.4	47.5779
59224.3	47.559
59566.2	47.5404
59910.1	47.5222
60256	47.5043
60603.8	47.4866
60953.7	47.4694
61305.6	47.4524
61659.5	47.4357
62015.5	47.4194
62373.5	47.4033
62733.6	47.3876
63095.7	47.3722
63460	47.3571
63826.3	47.3422
64194.8	47.3277
64565.4	47.3135
64938.2	47.2996
65313.1	47.2859
65690.1	47.2726
66069.3	47.2596
66450.8	47.2468
66834.4	47.2344
67220.2	47.2222
67608.3	47.2103
67998.6	47.1987
68391.2	47.1873
68786	47.1763
69183.1	47.1655
69582.5	47.155
69984.2	47.1448
70388.2	47.1349
70794.6	47.1252
71203.3	47.1158
71614.3	47.1067
72027.8	47.0978
72443.6	47.0892
72861.8	47.0809
73282.5	47.0728
73705.5	47.065
74131	47.0574
74559	47.0501
74989.4	47.0431
75422.3	47.0363
75857.8	47.0297
76295.7	47.0235
76736.1	47.0174
77179.2	47.0116
77624.7	47.0061
78072.8	47.0008
78523.6	46.9957
78976.9	46.9909
79432.8	46.9864
79891.4	46.982
80352.6	46.9779
80816.5	46.9741
81283.1	46.9705
81752.3	46.9671
82224.3	46.9639
82699	46.961
83176.4	46.9583
83656.6	46.9558
84139.5	46.9535
84625.3	46.9515
85113.8	46.9497
85605.2	46.9481
86099.4	46.9468
86596.4	46.9456
87096.4	46.9447
87599.2	46.944
88104.9	46.9435
88613.5	46.9432
89125.1	46.9431
89639.6	46.9433
90157.1	46.9436
90677.6	46.9442
91201.1	46.9449
91727.6	46.9459
92257.1	46.9471
92789.7	46.9484
93325.4	46.95
93864.2	46.9518
94406.1	46.9537
94951.1	46.9559
95499.3	46.9583
96050.6	46.9608
96605.1	46.9636
97162.8	46.9665
97723.7	46.9696
98287.9	46.9729
98855.3	46.9764
99426	46.9801
100000	46.984
100577	46.988
101158	46.9923
101742	46.9967
102329	47.0013
102920	47.0061
103514	47.011
104112	47.0162
104713	47.0215
105317	47.0269
105925	47.0326
106537	47.0384
107152	47.0444
107771	47.0506
108393	47.0569
109018	47.0634
109648	47.07
110281	47.0769
110917	47.0839
111558	47.091
112202	47.0983
112850	47.1058
113501	47.1134
114156	47.1212
114815	47.1291
115478	47.1372
116145	47.1455
116815	47.1539
117490	47.1624
118168	47.1711
118850	47.18
119536	47.189
120226	47.1981
120921	47.2074
121619	47.2168
122321	47.2264
123027	47.2361
123737	47.246
124451	47.256
125170	47.2661
125893	47.2764
126619	47.2868
127350	47.2974
128086	47.3081
128825	47.3189
129569	47.3299
130317	47.341
131069	47.3522
131826	47.3635
132587	47.375
133352	47.3866
134122	47.3984
134896	47.4102
135675	47.4222
136458	47.4343
137246	47.4465
138038	47.4589
138835	47.4714
139637	47.484
140443	47.4967
141254	47.5095
142069	47.5225
142889	47.5356
143714	47.5487
144544	47.562
145378	47.5755
146218	47.589
147062	47.6026
147911	47.6164
148765	47.6302
149624	47.6442
150487	47.6583
151356	47.6725
152230	47.6868
153109	47.7012
153993	47.7157
154882	47.7303
155776	47.745
156675	47.7598
157580	47.7747
158489	47.7897
159404	47.8048
160325	47.8201
161250	47.8354
162181	47.8508
163117	47.8663
164059	47.8819
165006	47.8976
165959	47.9134
166917	47.9293
167880	47.9452
168850	47.9613
169824	47.9775
170805	47.9937
171791	48.01
172783	48.0265
173780	48.043
174783	48.0596
175792	48.0763
176807	48.093
177828	48.1099
178855	48.1268
179887	48.1438
180926	48.161
181970	48.1781
183021	48.1954
184077	48.2128
185140	48.2302
186209	48.2477
187284	48.2653
188365	48.2829
189452	48.3007
190546	48.3185
191646	48.3364
192752	48.3543
193865	48.3724
194984	48.3905
196110	48.4087
197242	48.4269
198381	48.4453
199526	48.4637
200678	48.4821
201837	48.5007
203002	48.5193
204174	48.538
205353	48.5567
206538	48.5755
207730	48.5944
208930	48.6133
210136	48.6323
211349	48.6514
212569	48.6705
213796	48.6897
215030	48.709
216272	48.7283
217520	48.7477
218776	48.7671
220039	48.7866
221309	48.8062
222587	48.8258
223872	48.8455
225165	48.8652
226464	48.885
227772	48.9048
229087	48.9247
230409	48.9447
231739	48.9647
233077	48.9848
234423	49.0049
235776	49.0251
237137	49.0453
238506	49.0656
239883	49.0859
241268	49.1063
242661	49.1267
244062	49.1472
245471	49.1678
246888	49.1883
248313	49.209
249747	49.2296
251189	49.2504
252639	49.2711
254097	49.292
255564	49.3128
257040	49.3337
258523	49.3547
260016	49.3757
261517	49.3967
263027	49.4178
264545	49.4389
266073	49.4601
267609	49.4813
269153	49.5026
270707	49.5239
272270	49.5452
273842	49.5666
275423	49.588
277013	49.6094
278612	49.6309
280221	49.6525
281838	49.674
283465	49.6957
285102	49.7173
286748	49.739
288403	49.7607
290068	49.7825
291743	49.8042
293427	49.8261
295121	49.8479
296825	49.8698
298538	49.8917
300262	49.9137
301995	49.9357
303739	49.9577
305492	49.9798
307256	50.0019
309030	50.024
310814	50.0462
312608	50.0683
314413	50.0905
316228	50.1128
318053	50.1351
319890	50.1574
321736	50.1797
323594	50.2021
325462	50.2244
327341	50.2469
329230	50.2693
331131	50.2918
333043	50.3143
334965	50.3368
336899	50.3593
338844	50.3819
340800	50.4045
342768	50.4271
344747	50.4498
346737	50.4725
348739	50.4952
350752	50.5179
352777	50.5406
354813	50.5634
356862	50.5862
358922	50.609
360994	50.6318
363078	50.6547
365174	50.6776
367282	50.7005
369403	50.7234
371535	50.7463
373680	50.7693
375837	50.7923
378007	50.8153
380189	50.8383
382384	50.8613
384592	50.8844
386812	50.9074
389045	50.9305
391291	50.9537
393550	50.9768
395822	50.9999
398107	51.0231
400405	51.0463
402717	51.0695
405042	51.0927
407380	51.1159
409732	51.1392
412098	51.1624
414477	51.1857
416869	51.209
419276	51.2323
421697	51.2556
424131	51.2789
426580	51.3023
429042	51.3257
431519	51.349
434010	51.3724
436516	51.3958
439036	51.4192
441570	51.4427
444120	51.4661
446684	51.4896
449262	51.513
451856	51.5365
454465	51.56
457088	51.5835
459727	51.607
462381	51.6305
465050	51.654
467735	51.6776
470435	51.7011
473151	51.7247
475883	51.7483
478630	51.7719
481393	51.7954
484172	51.819
486968	51.8427
489779	51.8663
492606	51.8899
495450	51.9135
498310	51.9372
501187	51.9608
504081	51.9845
506991	52.0082
509918	52.0318
512861	52.0555
515822	52.0792
518800	52.1029
521795	52.1266
524807	52.1503
527837	52.174
530884	52.1977
533949	52.2215
537032	52.2452
540132	52.2689
543250	52.2927
546387	52.3164
549541	52.3402
552713	52.3639
555904	52.3877
559114	52.4115
562341	52.4352
565588	52.459
568853	52.4828
572137	52.5066
575440	52.5304
578762	52.5542
582103	52.578
585464	52.6018
588844	52.6256
592243	52.6494
595662	52.6732
599101	52.697
602560	52.7208
606038	52.7446
609537	52.7684
613056	52.7923
616595	52.8161
620155	52.8399
623735	52.8637
627336	52.8876
630957	52.9114
634600	52.9352
638263	52.9591
641948	52.9829
645654	53.0067
649382	53.0306
653131	53.0544
656901	53.0783
660693	53.1021
664508	53.1259
668344	53.1498
672202	53.1736
676083	53.1975
679986	53.2213
683912	53.2451
687860	53.269
691831	53.2928
695825	53.3167
699842	53.3405
703882	53.3644
707946	53.3882
712033	53.412
716143	53.4359
720278	53.4597
724436	53.4835
728618	53.5074
732825	53.5312
737055	53.555
741310	53.5789
745590	53.6027
749894	53.6265
754223	53.6503
758578	53.6742
762957	53.698
767361	53.7218
771792	53.7456
776247	53.7694
780728	53.7932
785236	53.8171
789769	53.8409
794328	53.8647
798914	53.8885
803526	53.9123
808165	53.9361
812831	53.9598
817523	53.9836
822243	54.0074
826990	54.0312
831764	54.055
836566	54.0788
841395	54.1025
846253	54.1263
851138	54.1501
856052	54.1738
860994	54.1976
865964	54.2213
870964	54.2451
875992	54.2688
881049	54.2926
886135	54.3163
891251	54.34
896396	54.3638
901571	54.3875
906776	54.4112
912011	54.4349
917276	54.4586
922571	54.4823
927897	54.5061
933254	54.5297
938642	54.5534
944061	54.5771
949511	54.6008
954993	54.6245
960506	54.6482
966051	54.6718
971628	54.6955
977237	54.7191
982879	54.7428
988553	54.7664
994260	54.7901
1e+06	54.8137
1.00577e+06	54.8373
1.01158e+06	54.861
1.01742e+06	54.8846
1.02329e+06	54.9082
1.0292e+06	54.9318
1.03514e+06	54.9554
1.04112e+06	54.979
1.04713e+06	55.0026
1.05317e+06	55.0262
1.05925e+06	55.0497
1.06537e+06	55.0733
1.07152e+06	55.0969
1.07771e+06	55.1204
1.08393e+06	55.144
1.09018e+06	55.1675
1.09648e+06	55.1911
1.10281e+06	55.2146
1.10917e+06	55.2381
1.11558e+06	55.2617
1.12202e+06	55.2852
1.1285e+06	55.3087
1.13501e+06	55.3322
1.14156e+06	55.3557
1.14815e+06	55.3792
1.15478e+06	55.4026
1.16145e+06	55.4261
1.16815e+06	55.4496
1.1749e+06	55.473
1.18168e+06	55.4965
1.1885e+06	55.5199
1.19536e+06	55.5434
1.20226e+06	55.5668
1.20921e+06	55.5902
1.21619e+06	55.6137
1.22321e+06	55.6371
1.23027e+06	55.6605
1.23737e+06	55.6839
1.24451e+06	55.7073
1.2517e+06	55.7306
1.25893e+06	55.754
1.26619e+06	55.7774
1.2735e+06	55.8008
1.28086e+06	55.8241
1.28825e+06	55.8474
1.29569e+06	55.8708
1.30317e+06	55.8941
1.31069e+06	55.9174
1.31826e+06	55.9408
1.32587e+06	55.9641
1.33352e+06	55.9874
1.34122e+06	56.0107
1.34896e+06	56.0339
1.35675e+06	56.0572
1.36458e+06	56.0805
1.37246e+06	56.1037
1.38038e+06	56.127
1.38835e+06	56.1502
1.39637e+06	56.1735
1.40443e+06	56.1967
1.41254e+06	56.2199
1.42069e+06	56.2432
1.42889e+06	56.2664
1.43714e+06	56.2896
1.44544e+06	56.3127
1.45378e+06	56.3359
1.46218e+06	56.3591
1.47062e+06	56.3823
1.47911e+06	56.4054
1.48765e+06	56.4286
1.49624e+06	56.4517
1.50487e+06	56.4748
1.51356e+06	56.498
1.5223e+06	56.5211
1.53109e+06	56.5442
1.53993e+06	56.5673
1.54882e+06	56.5904
1.55776e+06	56.6135
1.56675e+06	56.6365
1.5758e+06	56.6596
1.58489e+06	56.6827
1.59404e+06	56.7057
1.60325e+06	56.7288
1.6125e+06	56.7518
1.62181e+06	56.7748
1.63117e+06	56.7978
1.64059e+06	56.8208
1.65006e+06	56.8438
1.65959e+06	56.8668
1.66917e+06	56.8898
1.6788e+06	56.9128
1.6885e+06	56.9357
1.69824e+06	56.9587
1.70805e+06	56.9816
1.71791e+06	57.0046
1.72783e+06	57.0275
1.7378e+06	57.0504
1.74783e+06	57.0733
1.75792e+06	57.0962
1.76807e+06	57.1191
1.77828e+06	57.142
1.78855e+06	57.1649
1.79887e+06	57.1877
1.80926e+06	57.2106
1.8197e+06	57.2335
1.83021e+06	57.2563
1.84077e+06	57.2791
1.8514e+06	57.3019
1.86209e+06	57.3248
1.87284e+06	57.3476
1.88365e+06	57.3704
1.89452e+06	57.3931
1.90546e+06	57.4159
1.91646e+06	57.4387
1.92752e+06	57.4614
1.93865e+06	57.4842
1.94984e+06	57.5069
1.9611e+06	57.5297
1.97242e+06	57.5524
1.98381e+06	57.5751
1.99526e+06	57.5978
2.00678e+06	57.6205
2.01837e+06	57.6432
2.03002e+06	57.6659
2.04174e+06	57.6885
2.05353e+06	57.7112
2.06538e+06	57.7338
2.0773e+06	57.7565
2.0893e+06	57.7791
2.10136e+06	57.8017
2.11349e+06	57.8243
2.12569e+06	57.8469
2.13796e+06	57.8695
2.1503e+06	57.8921
2.16272e+06	57.9147
2.1752e+06	57.9373
2.18776e+06	57.9598
2.20039e+06	57.9824
2.21309e+06	58.0049
2.22587e+06	58.0274
2.23872e+06	58.0499
2.25165e+06	58.0724
2.26464e+06	58.0949
2.27772e+06	58.1174
2.29087e+06	58.1399
2.30409e+06	58.1624
2.31739e+06	58.1848
2.33077e+06	58.2073
2.34423e+06	58.2297
2.35776e+06	58.2522
2.37137e+06	58.2746
2.38506e+06	58.297
2.39883e+06	58.3194
2.41268e+06	58.3418
2.42661e+06	58.3642
2.44062e+06	58.3866
2.45471e+06	58.4089
2.46888e+06	58.4313
2.48313e+06	58.4536
2.49747e+06	58.476
2.51189e+06	58.4983
2.52639e+06	58.5206
2.54097e+06	58.5429
2.55564e+06	58.5652
2.5704e+06	58.5875
2.58523e+06	58.6098
2.60016e+06	58.6321
2.61517e+06	58.6543
2.63027e+06	58.6766
2.64545e+06	58.6988
2.66073e+06	58.721
2.67609e+06	58.7433
2.69153e+06	58.7655
2.70707e+06	58.7877
2.7227e+06	58.8099
2.73842e+06	58.832
2.75423e+06	58.8542
2.77013e+06	58.8764
2.78612e+06	58.8985
2.80221e+06	58.9207
2.81838e+06	58.9428
2.83465e+06	58.9649
2.85102e+06	58.987
2.86748e+06	59.0092
2.88403e+06	59.0312
2.90068e+06	59.0533
2.91743e+06	59.0754
2.93427e+06	59.0975
2.95121e+06	59.1195
2.96825e+06	59.1416
2.98538e+06	59.1636
3.00262e+06	59.1856
3.01995e+06	59.2076
3.03739e+06	59.2296
3.05492e+06	59.2516
3.07256e+06	59.2736
3.0903e+06	59.2956
3.10814e+06	59.3176
3.12608e+06	59.3395
3.14413e+06	59.3615
3.16228e+06	59.3834
3.18053e+06	59.4053
3.1989e+06	59.4272
3.21736e+06	59.4491
3.23594e+06	59.471
3.25462e+06	59.4929
3.27341e+06	59.5148
3.2923e+06	59.5367
3.31131e+06	59.5585
3.33043e+06	59.5804
3.34965e+06	59.6022
3.36899e+06	59.624
3.38844e+06	59.6458
3.408e+06	59.6676
3.42768e+06	59.6894
3.44747e+06	59.7112
3.46737e+06	59.733
3.48739e+06	59.7548
3.50752e+06	59.7765
3.52777e+06	59.7983
3.54813e+06	59.82
3.56862e+06	59.8417
3.58922e+06	59.8634
3.60994e+06	59.8851
3.63078e+06	59.9068
3.65174e+06	59.9285
3.67282e+06	59.9502
3.69403e+06	59.9719
3.71535e+06	59.9935
3.7368e+06	60.0152
3.75837e+06	60.0368
3.78007e+06	60.0584
3.80189e+06	60.08
3.82384e+06	60.1016
3.84592e+06	60.1232
3.86812e+06	60.1448
3.89045e+06	60.1664
3.91291e+06	60.1879
3.9355e+06	60.2095
3.95822e+06	60.231
3.98107e+06	60.2526
4.00405e+06	60.2741
4.02717e+06	60.2956
4.05042e+06	60.3171
4.0738e+06	60.3386
4.09732e+06	60.3601
4.12098e+06	60.3815
4.14477e+06	60.403
4.16869e+06	60.4244
4.19276e+06	60.4459
4.21697e+06	60.4673
4.24131e+06	60.4887
4.2658e+06	60.5101
4.29042e+06	60.5315
4.31519e+06	60.5529
4.3401e+06	60.5743
4.36516e+06	60.5956
4.39036e+06	60.617
4.4157e+06	60.6383
4.4412e+06	60.6597
4.46684e+06	60.681
4.49262e+06	60.7023
4.51856e+06	60.7236
4.54465e+06	60.7449
4.57088e+06	60.7662
4.59727e+06	60.7875
4.62381e+06	60.8087
4.6505e+06	60.83
4.67735e+06	60.8512
4.70435e+06	60.8725
4.73151e+06	60.8937
4.75883e+06	60.9149
4.7863e+06	60.9361
4.81393e+06	60.9573
4.84172e+06	60.9784
4.86968e+06	60.9996
4.89779e+06	61.0208
4.92606e+06	61.0419
4.9545e+06	61.063
4.9831e+06	61.0842
5.01187e+06	61.1053
5.04081e+06	61.1264
5.06991e+06	61.1475
5.09918e+06	61.1686
5.12861e+06	61.1896
5.15822e+06	61.2107
5.188e+06	61.2318
5.21795e+06	61.2528
5.24807e+06	61.2738
5.27837e+06	61.2948
5.30884e+06	61.3159
5.33949e+06	61.3368
5.37032e+06	61.3578
5.40132e+06	61.3788
5.4325e+06	61.3998
5.46387e+06	61.4207
5.49541e+06	61.4417
5.52713e+06	61.4626
5.55904e+06	61.4835
5.59114e+06	61.5044
5.62341e+06	61.5254
5.65588e+06	61.5462
5.68853e+06	61.5671
5.72137e+06	61.588
5.7544e+06	61.6089
5.78762e+06	61.6297
5.82103e+06	61.6505
5.85464e+06	61.6714
5.88844e+06	61.6922
5.92243e+06	61.713
5.95662e+06	61.7338
5.99101e+06	61.7546
6.0256e+06	61.7753
6.06038e+06	61.7961
6.09537e+06	61.8168
6.13056e+06	61.8376
6.16595e+06	61.8583
6.20155e+06	61.879
6.23735e+06	61.8997
6.27336e+06	61.9204
6.30957e+06	61.9411
6.346e+06	61.9618
6.38263e+06	61.9825
6.41948e+06	62.0031
6.45654e+06	62.0238
6.49382e+06	62.0444
6.53131e+06	62.065
6.56901e+06	62.0856
6.60693e+06	62.1062
6.64508e+06	62.1268
6.68344e+06	62.1474
6.72202e+06	62.1679
6.76083e+06	62.1885
6.79986e+06	62.209
6.83912e+06	62.2296
6.8786e+06	62.2501
6.91831e+06	62.2706
6.95825e+06	62.2911
6.99842e+06	62.3116
7.03882e+06	62.3321
7.07946e+06	62.3525
7.12033e+06	62.373
7.16143e+06	62.3934
7.20278e+06	62.4139
7.24436e+06	62.4343
7.28618e+06	62.4547
7.32825e+06	62.4751
7.37055e+06	62.4955
7.4131e+06	62.5159
7.4559e+06	62.5362
7.49894e+06	62.5566
7.54223e+06	62.5769
7.58578e+06	62.5973
7.62957e+06	62.6176
7.67361e+06	62.6379
7.71792e+06	62.6582
7.76247e+06	62.6785
7.80728e+06	62.6988
7.85236e+06	62.719
7.89769e+06	62.7393
7.94328e+06	62.7595
7.98914e+06	62.7798
8.03526e+06	62.8
8.08165e+06	62.8202
8.12831e+06	62.8404
8.17523e+06	62.8606
8.22243e+06	62.8808
8.2699e+06	62.9009
8.31764e+06	62.9211
8.36566e+06	62.9412
8.41395e+06	62.9613
8.46253e+06	62.9815
8.51138e+06	63.0016
8.56052e+06	63.0217
8.60994e+06	63.0418
8.65964e+06	63.0618
8.70964e+06	63.0819
8.75992e+06	63.1019
8.81049e+06	63.122
8.86135e+06	63.142
8.91251e+06	63.162
8.96396e+06	63.182
9.01571e+06	63.202
9.06776e+06	63.222
9.12011e+06	63.242
9.17276e+06	63.2619
9.22571e+06	63.2819
9.27897e+06	63.3018
9.33254e+06	63.3217
9.38642e+06	63.3417
9.44061e+06	63.3616
9.49511e+06	63.3814
9.54993e+06	63.4013
9.60506e+06	63.4212
9.66051e+06	63.441
9.71628e+06	63.4609
9.77237e+06	63.4807
9.82879e+06	63.5005
9.88553e+06	63.5203
9.9426e+06	63.5401
1e+07	63.5599
