Stopping power dEdx from Ionisation for P31[0.0] Z = 15 in Water, process name: ionIoni
E [MeV]	dEdx [MeV/mm]
0.001	22.4655
0.00100577	22.5307
0.00101158	22.596
0.00101742	22.6615
0.00102329	22.7272
0.0010292	22.793
0.00103514	22.8591
0.00104112	22.9254
0.00104713	22.9918
0.00105317	23.0584
0.00105925	23.1253
0.00106537	23.1923
0.00107152	23.2595
0.00107771	23.3269
0.00108393	23.3945
0.00109018	23.4623
0.00109648	23.5303
0.00110281	23.5985
0.00110917	23.6669
0.00111558	23.7355
0.00112202	23.8043
0.0011285	23.8733
0.00113501	23.9424
0.00114156	24.0118
0.00114815	24.0814
0.00115478	24.1512
0.00116145	24.2212
0.00116815	24.2913
0.0011749	24.3617
0.00118168	24.4323
0.0011885	24.5031
0.00119536	24.5741
0.00120226	24.6453
0.00120921	24.7167
0.00121619	24.7883
0.00122321	24.8601
0.00123027	24.9322
0.00123737	25.0044
0.00124451	25.0768
0.0012517	25.1495
0.00125893	25.2223
0.00126619	25.2954
0.0012735	25.3687
0.00128086	25.4422
0.00128825	25.5159
0.00129569	25.5898
0.00130317	25.6639
0.00131069	25.7382
0.00131826	25.8128
0.00132587	25.8876
0.00133352	25.9626
0.00134122	26.0378
0.00134896	26.1132
0.00135675	26.1888
0.00136458	26.2647
0.00137246	26.3407
0.00138038	26.417
0.00138835	26.4935
0.00139637	26.5703
0.00140443	26.6472
0.00141254	26.7244
0.00142069	26.8018
0.00142889	26.8794
0.00143714	26.9573
0.00144544	27.0353
0.00145378	27.1136
0.00146218	27.1922
0.00147062	27.2709
0.00147911	27.3499
0.00148765	27.4291
0.00149624	27.5085
0.00150487	27.5882
0.00151356	27.668
0.0015223	27.7482
0.00153109	27.8285
0.00153993	27.9091
0.00154882	27.9899
0.00155776	28.0709
0.00156675	28.1522
0.0015758	28.2337
0.00158489	28.3155
0.00159404	28.3975
0.00160325	28.4797
0.0016125	28.5622
0.00162181	28.6448
0.00163117	28.7278
0.00164059	28.8109
0.00165006	28.8944
0.00165959	28.978
0.00166917	29.0619
0.0016788	29.146
0.0016885	29.2304
0.00169824	29.315
0.00170805	29.3999
0.00171791	29.485
0.00172783	29.5704
0.0017378	29.656
0.00174783	29.7418
0.00175792	29.8279
0.00176807	29.9143
0.00177828	30.0008
0.00178855	30.0877
0.00179887	30.1748
0.00180926	30.2621
0.0018197	30.3497
0.00183021	30.4376
0.00184077	30.5257
0.0018514	30.614
0.00186209	30.7026
0.00187284	30.7915
0.00188365	30.8806
0.00189452	30.97
0.00190546	31.0596
0.00191646	31.1495
0.00192752	31.2397
0.00193865	31.3301
0.00194984	31.4208
0.0019611	31.5117
0.00197242	31.6029
0.00198381	31.6943
0.00199526	31.7861
0.00200678	31.8781
0.00201837	31.9703
0.00203002	32.0628
0.00204174	32.1556
0.00205353	32.2487
0.00206538	32.342
0.0020773	32.4356
0.0020893	32.5294
0.00210136	32.6236
0.00211349	32.718
0.00212569	32.8126
0.00213796	32.9076
0.0021503	33.0028
0.00216272	33.0983
0.0021752	33.1941
0.00218776	33.2901
0.00220039	33.3864
0.00221309	33.483
0.00222587	33.5799
0.00223872	33.6771
0.00225165	33.7745
0.00226464	33.8722
0.00227772	33.9702
0.00229087	34.0685
0.00230409	34.1671
0.00231739	34.2659
0.00233077	34.3651
0.00234423	34.4645
0.00235776	34.5642
0.00237137	34.6642
0.00238506	34.7645
0.00239883	34.865
0.00241268	34.9659
0.00242661	35.0671
0.00244062	35.1685
0.00245471	35.2702
0.00246888	35.3723
0.00248313	35.4746
0.00249747	35.5772
0.00251189	35.6801
0.00252639	35.7833
0.00254097	35.8869
0.00255564	35.9907
0.0025704	36.0948
0.00258523	36.1992
0.00260016	36.3039
0.00261517	36.4089
0.00263027	36.5142
0.00264545	36.6198
0.00266073	36.7257
0.00267609	36.832
0.00269153	36.9385
0.00270707	37.0453
0.0027227	37.1525
0.00273842	37.2599
0.00275423	37.3677
0.00277013	37.4758
0.00278612	37.5842
0.00280221	37.6929
0.00281838	37.8019
0.00283465	37.9112
0.00285102	38.0208
0.00286748	38.1308
0.00288403	38.2411
0.00290068	38.3517
0.00291743	38.4626
0.00293427	38.5738
0.00295121	38.6854
0.00296825	38.7972
0.00298538	38.9094
0.00300262	39.022
0.00301995	39.1348
0.00303739	39.248
0.00305492	39.3615
0.00307256	39.4753
0.0030903	39.5894
0.00310814	39.7039
0.00312608	39.8187
0.00314413	39.9339
0.00316228	40.0493
0.00318053	40.1651
0.0031989	40.2813
0.00321736	40.3978
0.00323594	40.5146
0.00325462	40.6317
0.00327341	40.7492
0.0032923	40.867
0.00331131	40.9852
0.00333043	41.1037
0.00334965	41.2225
0.00336899	41.3417
0.00338844	41.4612
0.003408	41.5811
0.00342768	41.7013
0.00344747	41.8219
0.00346737	41.9428
0.00348739	42.0641
0.00350752	42.1857
0.00352777	42.3077
0.00354813	42.43
0.00356862	42.5526
0.00358922	42.6757
0.00360994	42.799
0.00363078	42.9228
0.00365174	43.0469
0.00367282	43.1713
0.00369403	43.2961
0.00371535	43.4213
0.0037368	43.5468
0.00375837	43.6727
0.00378007	43.7989
0.00380189	43.9255
0.00382384	44.0525
0.00384592	44.1799
0.00386812	44.3076
0.00389045	44.4356
0.00391291	44.5641
0.0039355	44.6929
0.00395822	44.8221
0.00398107	44.9517
0.00400405	45.0816
0.00402717	45.2119
0.00405042	45.3426
0.0040738	45.4737
0.00409732	45.6051
0.00412098	45.7369
0.00414477	45.8691
0.00416869	46.0017
0.00419276	46.1347
0.00421697	46.268
0.00424131	46.4017
0.0042658	46.5358
0.00429042	46.6704
0.00431519	46.8052
0.0043401	46.9405
0.00436516	47.0762
0.00439036	47.2122
0.0044157	47.3487
0.0044412	47.4855
0.00446684	47.6228
0.00449262	47.7604
0.00451856	47.8984
0.00454465	48.0369
0.00457088	48.1757
0.00459727	48.3149
0.00462381	48.4546
0.0046505	48.5946
0.00467735	48.735
0.00470435	48.8759
0.00473151	49.0171
0.00475883	49.1588
0.0047863	49.3008
0.00481393	49.4433
0.00484172	49.5862
0.00486968	49.7295
0.00489779	49.8732
0.00492606	50.0173
0.0049545	50.1618
0.0049831	50.3068
0.00501187	50.4522
0.00504081	50.598
0.00506991	50.7442
0.00509918	50.8908
0.00512861	51.1655
0.00515822	51.3129
0.005188	51.4609
0.00521795	51.6092
0.00524807	51.7579
0.00527837	51.9071
0.00530884	52.0567
0.00533949	52.2068
0.00537032	52.3573
0.00540132	52.5082
0.0054325	52.6595
0.00546387	52.8113
0.00549541	52.9635
0.00552713	53.1162
0.00555904	53.2693
0.00559114	53.4228
0.00562341	53.5768
0.00565588	53.7313
0.00568853	53.8861
0.00572137	54.0414
0.0057544	54.1972
0.00578762	54.3534
0.00582103	54.5101
0.00585464	54.6672
0.00588844	54.8248
0.00592243	54.9828
0.00595662	55.1413
0.00599101	55.3002
0.0060256	55.4596
0.00606038	55.6195
0.00609537	55.7798
0.00613056	55.9406
0.00616595	56.1018
0.00620155	56.2635
0.00623735	56.4257
0.00627336	56.5883
0.00630957	56.7514
0.006346	56.915
0.00638263	57.0791
0.00641948	57.2436
0.00645654	57.4086
0.00649382	57.5741
0.00653131	57.74
0.00656901	57.9065
0.00660693	58.0734
0.00664508	58.2407
0.00668344	58.4086
0.00672202	58.577
0.00676083	58.7458
0.00679986	58.9151
0.00683912	59.085
0.0068786	59.2553
0.00691831	59.4261
0.00695825	59.5974
0.00699842	59.7691
0.00703882	59.9414
0.00707946	60.1142
0.00712033	60.2875
0.00716143	60.4612
0.00720278	60.6355
0.00724436	60.8103
0.00728618	60.9856
0.00732825	61.1613
0.00737055	61.3376
0.0074131	61.5144
0.0074559	61.6917
0.00749894	61.8695
0.00754223	62.0479
0.00758578	62.2267
0.00762957	62.4061
0.00767361	62.586
0.00771792	62.7664
0.00776247	62.9473
0.00780728	63.1287
0.00785236	63.3107
0.00789769	63.4932
0.00794328	63.6762
0.00798914	63.8597
0.00803526	64.0438
0.00808165	64.2284
0.00812831	64.4135
0.00817523	64.5992
0.00822243	64.7854
0.0082699	64.9721
0.00831764	65.1594
0.00836566	65.3472
0.00841395	65.5356
0.00846253	65.7244
0.00851138	65.9139
0.00856052	66.1039
0.00860994	66.2944
0.00865964	66.4855
0.00870964	66.6771
0.00875992	66.8693
0.00881049	67.0621
0.00886135	67.2554
0.00891251	67.4492
0.00896396	67.6436
0.00901571	67.8386
0.00906776	68.0341
0.00912011	68.2302
0.00917276	68.4269
0.00922571	68.6241
0.00927897	68.8219
0.00933254	69.0203
0.00938642	69.2193
0.00944061	69.4188
0.00949511	69.6189
0.00954993	69.8195
0.00960506	70.0208
0.00966051	70.2226
0.00971628	70.425
0.00977237	70.628
0.00982879	70.8316
0.00988553	71.0357
0.0099426	71.2405
0.01	71.4458
0.0100577	71.6518
0.0101158	71.8583
0.0101742	72.0654
0.0102329	72.2731
0.010292	72.4815
0.0103514	72.6904
0.0104112	72.8999
0.0104713	73.11
0.0105317	73.3208
0.0105925	73.5321
0.0106537	73.744
0.0107152	73.9566
0.0107771	74.1698
0.0108393	74.3836
0.0109018	74.598
0.0109648	74.813
0.0110281	75.0286
0.0110917	75.2449
0.0111558	75.4618
0.0112202	75.6793
0.011285	75.8974
0.0113501	76.1162
0.0114156	76.3356
0.0114815	76.5556
0.0115478	76.7763
0.0116145	76.9976
0.0116815	77.2195
0.011749	77.4421
0.0118168	77.6653
0.011885	77.8891
0.0119536	78.1137
0.0120226	78.3388
0.0120921	78.5646
0.0121619	78.7911
0.0122321	79.0182
0.0123027	79.2459
0.0123737	79.4743
0.0124451	79.7034
0.012517	79.9332
0.0125893	80.1636
0.0126619	80.3946
0.012735	80.6263
0.0128086	80.8587
0.0128825	81.0918
0.0129569	81.3255
0.0130317	81.56
0.0131069	81.795
0.0131826	82.0308
0.0132587	82.2672
0.0133352	82.5044
0.0134122	82.7422
0.0134896	82.9807
0.0135675	83.2199
0.0136458	83.4597
0.0137246	83.7003
0.0138038	83.9415
0.0138835	84.1835
0.0139637	84.4261
0.0140443	84.6695
0.0141254	84.9135
0.0142069	85.1583
0.0142889	85.4038
0.0143714	85.6499
0.0144544	85.8968
0.0145378	86.1444
0.0146218	86.3927
0.0147062	86.6417
0.0147911	86.8914
0.0148765	87.1419
0.0149624	87.3931
0.0150487	87.645
0.0151356	87.8976
0.015223	88.1509
0.0153109	88.405
0.0153993	88.6598
0.0154882	88.9154
0.0155776	89.1717
0.0156675	89.4287
0.015758	89.6865
0.0158489	89.945
0.0159404	90.2042
0.0160325	90.4642
0.016125	90.725
0.0162181	90.9865
0.0163117	91.2488
0.0164059	91.5118
0.0165006	91.7755
0.0165959	92.0401
0.0166917	92.3054
0.016788	92.5714
0.016885	92.8383
0.0169824	93.1058
0.0170805	93.3742
0.0171791	93.6434
0.0172783	93.9133
0.017378	94.184
0.0174783	94.4554
0.0175792	94.7277
0.0176807	95.0007
0.0177828	95.2746
0.0178855	95.5492
0.0179887	95.8246
0.0180926	96.1008
0.018197	96.3778
0.0183021	96.6556
0.0184077	96.9342
0.018514	97.2136
0.0186209	97.4938
0.0187284	97.7748
0.0188365	98.0566
0.0189452	98.3393
0.0190546	98.6227
0.0191646	98.907
0.0192752	99.1921
0.0193865	99.478
0.0194984	99.7647
0.019611	100.052
0.0197242	100.341
0.0198381	100.63
0.0199526	100.92
0.0200678	101.211
0.0201837	101.503
0.0203002	101.795
0.0204174	102.089
0.0205353	102.383
0.0206538	102.678
0.020773	102.974
0.020893	103.271
0.0210136	103.568
0.0211349	103.867
0.0212569	104.166
0.0213796	104.466
0.021503	104.768
0.0216272	105.07
0.021752	105.372
0.0218776	105.676
0.0220039	105.981
0.0221309	106.286
0.0222587	106.593
0.0223872	106.9
0.0225165	107.208
0.0226464	107.517
0.0227772	107.827
0.0229087	108.138
0.0230409	108.449
0.0231739	108.762
0.0233077	109.075
0.0234423	109.39
0.0235776	109.705
0.0237137	110.021
0.0238506	110.338
0.0239883	110.657
0.0241268	110.975
0.0242661	111.295
0.0244062	111.616
0.0245471	111.938
0.0246888	112.26
0.0248313	112.584
0.0249747	112.909
0.0251189	113.234
0.0252639	113.56
0.0254097	113.888
0.0255564	114.216
0.025704	114.545
0.0258523	114.875
0.0260016	115.206
0.0261517	115.539
0.0263027	115.872
0.0264545	116.206
0.0266073	116.541
0.0267609	116.876
0.0269153	117.213
0.0270707	117.551
0.027227	117.89
0.0273842	118.23
0.0275423	118.571
0.0277013	118.912
0.0278612	119.255
0.0280221	119.599
0.0281838	119.944
0.0283465	120.289
0.0285102	120.636
0.0286748	120.984
0.0288403	121.332
0.0290068	121.682
0.0291743	122.033
0.0293427	122.385
0.0295121	122.737
0.0296825	123.091
0.0298538	123.446
0.0300262	123.802
0.0301995	124.159
0.0303739	124.517
0.0305492	124.875
0.0307256	125.235
0.030903	125.596
0.0310814	125.958
0.0312608	126.321
0.0314413	126.686
0.0316228	127.051
0.0318053	127.417
0.031989	127.784
0.0321736	128.152
0.0323594	128.522
0.0325462	128.892
0.0327341	129.264
0.032923	129.636
0.0331131	130.01
0.0333043	130.385
0.0334965	130.761
0.0336899	131.138
0.0338844	131.516
0.03408	131.895
0.0342768	132.275
0.0344747	132.656
0.0346737	133.038
0.0348739	133.422
0.0350752	133.806
0.0352777	134.192
0.0354813	134.579
0.0356862	134.967
0.0358922	135.356
0.0360994	135.746
0.0363078	136.137
0.0365174	136.53
0.0367282	136.923
0.0369403	137.318
0.0371535	137.714
0.037368	138.111
0.0375837	138.509
0.0378007	138.908
0.0380189	139.308
0.0382384	139.71
0.0384592	140.113
0.0386812	140.516
0.0389045	140.921
0.0391291	141.328
0.039355	141.735
0.0395822	142.143
0.0398107	142.553
0.0400405	142.964
0.0402717	143.376
0.0405042	143.789
0.040738	144.204
0.0409732	144.62
0.0412098	145.036
0.0414477	145.454
0.0416869	145.874
0.0419276	146.294
0.0421697	146.716
0.0424131	147.139
0.042658	147.563
0.0429042	147.988
0.0431519	148.415
0.043401	148.843
0.0436516	149.272
0.0439036	149.702
0.044157	150.133
0.044412	150.566
0.0446684	151
0.0449262	151.435
0.0451856	151.872
0.0454465	152.309
0.0457088	152.749
0.0459727	153.189
0.0462381	153.63
0.046505	154.073
0.0467735	154.517
0.0470435	154.963
0.0473151	155.409
0.0475883	155.857
0.047863	156.306
0.0481393	156.757
0.0484172	157.209
0.0486968	157.662
0.0489779	158.116
0.0492606	158.572
0.049545	159.029
0.049831	159.488
0.0501187	159.947
0.0504081	160.408
0.0506991	160.871
0.0509918	161.334
0.0512861	161.799
0.0515822	162.266
0.05188	162.733
0.0521795	163.203
0.0524807	163.673
0.0527837	164.145
0.0530884	164.618
0.0533949	165.092
0.0537032	165.568
0.0540132	166.045
0.054325	166.524
0.0546387	167.004
0.0549541	167.485
0.0552713	167.968
0.0555904	168.452
0.0559114	168.938
0.0562341	169.425
0.0565588	169.913
0.0568853	170.403
0.0572137	170.894
0.057544	171.387
0.0578762	171.881
0.0582103	172.376
0.0585464	172.873
0.0588844	173.371
0.0592243	173.871
0.0595662	174.372
0.0599101	174.875
0.060256	175.379
0.0606038	175.884
0.0609537	176.391
0.0613056	176.9
0.0616595	177.41
0.0620155	177.921
0.0623735	178.434
0.0627336	178.948
0.0630957	179.464
0.06346	179.981
0.0638263	180.5
0.0641948	181.02
0.0645654	181.542
0.0649382	182.065
0.0653131	182.59
0.0656901	183.116
0.0660693	183.644
0.0664508	184.173
0.0668344	184.704
0.0672202	185.237
0.0676083	185.771
0.0679986	186.306
0.0683912	186.843
0.068786	187.382
0.0691831	187.922
0.0695825	188.463
0.0699842	189.007
0.0703882	189.551
0.0707946	190.098
0.0712033	190.646
0.0716143	191.195
0.0720278	191.746
0.0724436	192.299
0.0728618	192.853
0.0732825	193.409
0.0737055	193.967
0.074131	194.526
0.074559	195.086
0.0749894	195.649
0.0754223	196.213
0.0758578	196.778
0.0762957	197.345
0.0767361	197.914
0.0771792	198.485
0.0776247	199.057
0.0780728	199.631
0.0785236	200.206
0.0789769	200.783
0.0794328	201.362
0.0798914	201.942
0.0803526	202.524
0.0808165	203.108
0.0812831	203.693
0.0817523	204.281
0.0822243	204.869
0.082699	205.46
0.0831764	206.052
0.0836566	206.646
0.0841395	207.242
0.0846253	207.839
0.0851138	208.438
0.0856052	209.039
0.0860994	209.641
0.0865964	210.246
0.0870964	210.852
0.0875992	211.459
0.0881049	212.069
0.0886135	212.68
0.0891251	213.293
0.0896396	213.908
0.0901571	214.525
0.0906776	215.143
0.0912011	215.763
0.0917276	216.385
0.0922571	217.009
0.0927897	217.634
0.0933254	218.261
0.0938642	218.891
0.0944061	219.521
0.0949511	220.154
0.0954993	220.789
0.0960506	221.425
0.0966051	222.063
0.0971628	222.703
0.0977237	223.345
0.0982879	223.989
0.0988553	224.635
0.099426	225.282
0.1	225.932
0.100577	226.583
0.101158	227.236
0.101742	227.891
0.102329	228.548
0.10292	229.207
0.103514	229.867
0.104112	230.53
0.104713	231.194
0.105317	231.861
0.105925	232.529
0.106537	233.199
0.107152	233.871
0.107771	234.545
0.108393	235.221
0.109018	235.899
0.109648	236.579
0.110281	237.261
0.110917	237.945
0.111558	238.631
0.112202	239.319
0.11285	240.009
0.113501	240.7
0.114156	241.394
0.114815	242.09
0.115478	242.788
0.116145	243.488
0.116815	244.189
0.11749	244.893
0.118168	245.599
0.11885	246.307
0.119536	247.017
0.120226	247.729
0.120921	248.443
0.121619	249.159
0.122321	249.877
0.123027	250.598
0.123737	251.32
0.124451	252.044
0.12517	252.771
0.125893	253.499
0.126619	254.23
0.12735	254.963
0.128086	255.698
0.128825	256.435
0.129569	257.174
0.130317	257.915
0.131069	258.659
0.131826	259.404
0.132587	260.152
0.133352	260.902
0.134122	261.654
0.134896	262.408
0.135675	263.164
0.136458	263.923
0.137246	264.684
0.138038	265.446
0.138835	266.212
0.139637	266.979
0.140443	267.748
0.141254	268.52
0.142069	269.294
0.142889	270.07
0.143714	270.849
0.144544	271.63
0.145378	272.412
0.146218	273.198
0.147062	273.985
0.147911	274.775
0.148765	275.567
0.149624	276.361
0.150487	277.158
0.151356	277.957
0.15223	278.758
0.153109	279.561
0.153993	280.367
0.154882	281.175
0.155776	281.986
0.156675	282.798
0.15758	283.614
0.158489	284.431
0.159404	285.251
0.160325	286.073
0.16125	286.898
0.162181	287.725
0.163117	288.554
0.164059	289.386
0.165006	290.22
0.165959	291.056
0.166917	291.895
0.16788	292.737
0.16885	293.58
0.169824	294.427
0.170805	295.275
0.171791	296.126
0.172783	296.98
0.17378	297.836
0.174783	298.694
0.175792	299.555
0.176807	300.419
0.177828	301.285
0.178855	302.153
0.179887	303.024
0.180926	303.897
0.18197	304.773
0.183021	305.652
0.184077	306.533
0.18514	307.416
0.186209	308.302
0.187284	309.191
0.188365	310.082
0.189452	310.976
0.190546	311.872
0.191646	312.771
0.192752	313.673
0.193865	314.577
0.194984	315.484
0.19611	316.393
0.197242	317.305
0.198381	318.22
0.199526	319.137
0.200678	320.057
0.201837	320.979
0.203002	321.904
0.204174	322.832
0.205353	323.763
0.206538	324.696
0.20773	325.632
0.20893	326.571
0.210136	327.512
0.211349	328.456
0.212569	329.403
0.213796	330.352
0.21503	331.304
0.216272	332.259
0.21752	333.217
0.218776	334.177
0.220039	335.141
0.221309	336.107
0.222587	337.075
0.223872	338.047
0.225165	339.021
0.226464	339.998
0.227772	340.978
0.229087	341.961
0.230409	342.947
0.231739	343.935
0.233077	344.927
0.234423	345.921
0.235776	346.918
0.237137	347.918
0.238506	348.921
0.239883	349.927
0.241268	350.935
0.242661	351.947
0.244062	352.961
0.245471	353.979
0.246888	354.999
0.248313	356.022
0.249747	357.048
0.251189	358.077
0.252639	359.11
0.254097	360.145
0.255564	361.183
0.25704	362.224
0.258523	363.268
0.260016	364.315
0.261517	365.365
0.263027	366.418
0.264545	367.474
0.266073	368.533
0.267609	369.596
0.269153	370.661
0.270707	371.729
0.27227	372.801
0.273842	373.875
0.275423	374.953
0.277013	376.034
0.278612	377.118
0.280221	378.205
0.281838	379.295
0.283465	380.388
0.285102	381.485
0.286748	382.584
0.288403	383.687
0.290068	384.793
0.291743	385.902
0.293427	387.014
0.295121	388.13
0.296825	389.249
0.298538	390.37
0.300262	391.496
0.301995	392.624
0.303739	393.756
0.305492	394.891
0.307256	396.029
0.30903	397.17
0.310814	398.315
0.312608	399.463
0.314413	400.615
0.316228	401.769
0.318053	402.928
0.31989	404.089
0.321736	405.254
0.323594	406.422
0.325462	407.593
0.327341	408.768
0.32923	409.946
0.331131	411.128
0.333043	412.313
0.334965	413.501
0.336899	414.693
0.338844	415.889
0.3408	417.087
0.342768	418.289
0.344747	419.495
0.346737	420.704
0.348739	421.917
0.350752	423.133
0.352777	424.353
0.354813	425.576
0.356862	426.803
0.358922	428.033
0.360994	429.266
0.363078	430.504
0.365174	431.745
0.367282	432.989
0.369403	434.237
0.371535	435.489
0.37368	436.744
0.375837	438.003
0.378007	439.265
0.380189	440.531
0.382384	441.801
0.384592	443.075
0.386812	444.352
0.389045	445.633
0.391291	446.917
0.39355	448.205
0.395822	449.497
0.398107	450.793
0.400405	452.092
0.402717	453.395
0.405042	454.702
0.40738	456.013
0.409732	457.327
0.412098	458.645
0.414477	459.967
0.416869	461.293
0.419276	462.623
0.421697	463.956
0.424131	465.293
0.42658	466.635
0.429042	467.98
0.431519	469.329
0.43401	470.681
0.436516	472.038
0.439036	473.399
0.44157	474.763
0.44412	476.132
0.446684	477.504
0.449262	478.88
0.451856	480.261
0.454465	481.645
0.457088	483.033
0.459727	484.425
0.462381	485.822
0.46505	487.222
0.467735	488.626
0.470435	490.035
0.473151	491.447
0.475883	492.864
0.47863	494.284
0.481393	495.709
0.484172	497.138
0.486968	498.571
0.489779	500.008
0.492606	501.449
0.49545	502.895
0.49831	504.344
0.501187	505.798
0.504081	507.256
0.506991	508.718
0.509918	510.184
0.512861	511.655
0.515822	513.129
0.5188	514.609
0.521795	516.092
0.524807	517.579
0.527837	519.071
0.530884	520.567
0.533949	522.068
0.537032	523.573
0.540132	525.082
0.54325	526.595
0.546387	528.113
0.549541	529.635
0.552713	531.162
0.555904	532.693
0.559114	534.228
0.562341	535.768
0.565588	537.313
0.568853	538.861
0.572137	540.414
0.57544	541.972
0.578762	543.534
0.582103	545.101
0.585464	546.672
0.588844	548.248
0.592243	549.828
0.595662	551.413
0.599101	553.002
0.60256	554.596
0.606038	556.195
0.609537	557.798
0.613056	559.406
0.616595	561.018
0.620155	562.635
0.623735	564.257
0.627336	565.883
0.630957	567.514
0.6346	569.15
0.638263	570.791
0.641948	572.436
0.645654	574.086
0.649382	575.741
0.653131	577.4
0.656901	579.065
0.660693	580.734
0.664508	582.407
0.668344	584.086
0.672202	585.77
0.676083	587.458
0.679986	589.151
0.683912	590.85
0.68786	592.553
0.691831	594.261
0.695825	595.974
0.699842	597.691
0.703882	599.414
0.707946	601.142
0.712033	602.875
0.716143	604.612
0.720278	606.355
0.724436	608.103
0.728618	609.856
0.732825	611.613
0.737055	613.376
0.74131	615.144
0.74559	616.917
0.749894	618.695
0.754223	620.479
0.758578	622.267
0.762957	624.061
0.767361	625.86
0.771792	627.664
0.776247	629.513
0.780728	631.477
0.785236	633.45
0.789769	635.435
0.794328	637.429
0.798914	639.435
0.803526	641.451
0.808165	643.478
0.812831	645.516
0.817523	647.564
0.822243	649.624
0.82699	651.694
0.831764	653.776
0.836566	655.868
0.841395	657.971
0.846253	660.086
0.851138	662.211
0.856052	664.348
0.860994	666.496
0.865964	668.655
0.870964	670.826
0.875992	673.008
0.881049	675.201
0.886135	677.406
0.891251	679.622
0.896396	681.849
0.901571	684.089
0.906776	686.339
0.912011	688.602
0.917276	690.876
0.922571	693.162
0.927897	695.459
0.933254	697.726
0.938642	699.976
0.944061	702.238
0.949511	704.512
0.954993	706.797
0.960506	709.093
0.966051	711.401
0.971628	713.721
0.977237	716.053
0.982879	718.396
0.988553	720.751
0.99426	723.117
1	725.495
1.00577	727.886
1.01158	730.288
1.01742	732.701
1.02329	735.127
1.0292	737.565
1.03514	740.015
1.04112	742.476
1.04713	744.95
1.05317	747.435
1.05925	749.933
1.06537	752.443
1.07152	754.965
1.07771	757.499
1.08393	760.045
1.09018	762.604
1.09648	765.174
1.10281	767.757
1.10917	770.352
1.11558	772.959
1.12202	775.579
1.1285	778.211
1.13501	780.855
1.14156	783.511
1.14815	786.18
1.15478	788.861
1.16145	791.555
1.16815	794.261
1.1749	796.979
1.18168	799.71
1.1885	802.453
1.19536	805.208
1.20226	807.976
1.20921	810.757
1.21619	813.549
1.22321	816.355
1.23027	819.172
1.23737	822.002
1.24451	824.833
1.2517	827.668
1.25893	830.517
1.26619	833.377
1.2735	836.251
1.28086	839.136
1.28825	842.034
1.29569	844.945
1.30317	847.868
1.31069	850.804
1.31826	853.753
1.32587	856.714
1.33352	859.688
1.34122	862.675
1.34896	865.674
1.35675	868.687
1.36458	871.712
1.37246	874.75
1.38038	877.802
1.38835	880.866
1.39637	883.943
1.40443	887.034
1.41254	890.137
1.42069	893.254
1.42889	896.384
1.43714	899.527
1.44544	902.683
1.45378	905.853
1.46218	909.036
1.47062	912.232
1.47911	915.442
1.48765	918.665
1.49624	921.902
1.50487	925.153
1.51356	928.416
1.5223	931.694
1.53109	934.985
1.53993	938.29
1.54882	941.609
1.55776	944.941
1.56675	948.286
1.5758	951.646
1.58489	955.019
1.59404	958.406
1.60325	961.807
1.6125	965.221
1.62181	968.65
1.63117	972.092
1.64059	975.549
1.65006	979.019
1.65959	982.503
1.66917	986.001
1.6788	989.513
1.6885	993.039
1.69824	996.579
1.70805	1000.13
1.71791	1003.7
1.72783	1007.28
1.7378	1010.88
1.74783	1014.49
1.75792	1018.11
1.76807	1021.75
1.77828	1025.4
1.78855	1029.06
1.79887	1032.74
1.80926	1036.43
1.8197	1040.14
1.83021	1043.86
1.84077	1047.6
1.8514	1051.34
1.86209	1055.11
1.87284	1058.88
1.88365	1062.67
1.89452	1066.47
1.90546	1070.29
1.91646	1074.12
1.92752	1077.97
1.93865	1081.83
1.94984	1085.7
1.9611	1089.58
1.97242	1093.48
1.98381	1097.39
1.99526	1101.32
2.00678	1105.26
2.01837	1109.21
2.03002	1113.18
2.04174	1117.16
2.05353	1121.15
2.06538	1125.16
2.0773	1129.18
2.0893	1133.21
2.10136	1137.26
2.11349	1141.32
2.12569	1145.39
2.13796	1149.48
2.1503	1153.57
2.16272	1157.69
2.1752	1161.81
2.18776	1165.95
2.20039	1170.1
2.21309	1174.26
2.22587	1178.44
2.23872	1182.62
2.25165	1186.83
2.26464	1191.04
2.27772	1195.27
2.29087	1199.5
2.30409	1203.76
2.31739	1208.02
2.33077	1212.3
2.34423	1216.59
2.35776	1220.89
2.37137	1225.2
2.38506	1229.53
2.39883	1233.87
2.41268	1238.22
2.42661	1242.59
2.44062	1246.96
2.45471	1251.35
2.46888	1255.75
2.48313	1260.16
2.49747	1264.59
2.51189	1269.03
2.52639	1273.48
2.54097	1277.94
2.55564	1282.41
2.5704	1286.9
2.58523	1291.39
2.60016	1295.9
2.61517	1300.42
2.63027	1304.95
2.64545	1309.49
2.66073	1314.05
2.67609	1318.61
2.69153	1323.18
2.70707	1327.77
2.7227	1332.37
2.73842	1336.97
2.75423	1341.59
2.77013	1346.22
2.78612	1350.85
2.80221	1355.5
2.81838	1360.16
2.83465	1364.82
2.85102	1369.5
2.86748	1374.18
2.88403	1378.88
2.90068	1383.58
2.91743	1388.3
2.93427	1393.02
2.95121	1397.75
2.96825	1402.49
2.98538	1407.24
3.00262	1412
3.01995	1416.77
3.03739	1421.55
3.05492	1426.33
3.07256	1431.13
3.0903	1435.93
3.10814	1440.74
3.12608	1445.56
3.14413	1450.39
3.16228	1455.23
3.18053	1460.08
3.1989	1464.93
3.21736	1469.79
3.23594	1474.66
3.25462	1479.53
3.27341	1484.42
3.2923	1489.31
3.31131	1494.2
3.33043	1499.11
3.34965	1504.02
3.36899	1508.94
3.38844	1513.86
3.408	1518.79
3.42768	1523.72
3.44747	1528.67
3.46737	1533.61
3.48739	1538.57
3.50752	1543.53
3.52777	1548.49
3.54813	1553.46
3.56862	1558.43
3.58922	1563.41
3.60994	1568.4
3.63078	1573.39
3.65174	1578.38
3.67282	1583.38
3.69403	1588.38
3.71535	1593.39
3.7368	1598.4
3.75837	1603.41
3.78007	1608.43
3.80189	1613.45
3.82384	1618.47
3.84592	1623.5
3.86812	1628.53
3.89045	1633.56
3.91291	1638.6
3.9355	1643.63
3.95822	1648.67
3.98107	1653.71
4.00405	1658.76
4.02717	1663.8
4.05042	1668.85
4.0738	1673.9
4.09732	1678.94
4.12098	1683.99
4.14477	1689.04
4.16869	1694.1
4.19276	1699.15
4.21697	1704.2
4.24131	1709.25
4.2658	1714.3
4.29042	1719.35
4.31519	1724.4
4.3401	1729.45
4.36516	1734.5
4.39036	1739.55
4.4157	1744.6
4.4412	1749.64
4.46684	1754.68
4.49262	1759.73
4.51856	1764.77
4.54465	1769.8
4.57088	1774.84
4.59727	1779.87
4.62381	1784.9
4.6505	1789.93
4.67735	1794.9
4.70435	1799.87
4.73151	1804.83
4.75883	1809.79
4.7863	1814.74
4.81393	1819.69
4.84172	1824.64
4.86968	1829.58
4.89779	1834.51
4.92606	1839.44
4.9545	1844.36
4.9831	1849.28
5.01187	1854.18
5.04081	1859.08
5.06991	1863.98
5.09918	1868.86
5.12861	1873.74
5.15822	1878.61
5.188	1883.46
5.21795	1888.31
5.24807	1893.15
5.27837	1897.98
5.30884	1902.8
5.33949	1907.61
5.37032	1912.41
5.40132	1917.2
5.4325	1921.97
5.46387	1926.74
5.49541	1931.49
5.52713	1936.22
5.55904	1940.95
5.59114	1945.66
5.62341	1950.36
5.65588	1955.04
5.68853	1959.71
5.72137	1964.36
5.7544	1969
5.78762	1973.63
5.82103	1978.23
5.85464	1982.82
5.88844	1987.4
5.92243	1991.95
5.95662	1996.49
5.99101	2001.01
6.0256	2005.52
6.06038	2010
6.09537	2014.47
6.13056	2018.91
6.16595	2023.34
6.20155	2027.74
6.23735	2032.15
6.27336	2036.53
6.30957	2040.89
6.346	2045.23
6.38263	2049.55
6.41948	2053.85
6.45654	2058.13
6.49382	2062.38
6.53131	2066.61
6.56901	2070.82
6.60693	2075
6.64508	2079.16
6.68344	2083.3
6.72202	2087.41
6.76083	2091.5
6.79986	2095.57
6.83912	2099.61
6.8786	2103.63
6.91831	2107.62
6.95825	2111.58
6.99842	2115.52
7.03882	2119.44
7.07946	2123.33
7.12033	2127.2
7.16143	2131.04
7.20278	2134.85
7.24436	2138.64
7.28618	2142.4
7.32825	2146.13
7.37055	2149.84
7.4131	2153.53
7.4559	2157.18
7.49894	2160.81
7.54223	2164.42
7.58578	2167.99
7.62957	2171.54
7.67361	2175.07
7.71792	2178.56
7.76247	2182.03
7.80728	2185.48
7.85236	2188.9
7.89769	2192.29
7.94328	2195.66
7.98914	2198.99
8.03526	2202.3
8.08165	2205.59
8.12831	2208.84
8.17523	2212.07
8.22243	2215.27
8.2699	2218.44
8.31764	2221.58
8.36566	2224.69
8.41395	2227.78
8.46253	2230.84
8.51138	2233.86
8.56052	2236.86
8.60994	2239.83
8.65964	2242.78
8.70964	2245.69
8.75992	2248.57
8.81049	2251.43
8.86135	2254.26
8.91251	2257.06
8.96396	2259.83
9.01571	2262.57
9.06776	2265.28
9.12011	2267.96
9.17276	2270.62
9.22571	2273.25
9.27897	2275.85
9.33254	2278.42
9.38642	2280.98
9.44061	2283.5
9.49511	2286
9.54993	2288.46
9.60506	2290.9
9.66051	2293.32
9.71628	2295.7
9.77237	2298.05
9.82879	2300.37
9.88553	2302.67
9.9426	2304.93
10	2307.17
10.0577	2309.37
10.1158	2311.55
10.1742	2313.7
10.2329	2315.81
10.292	2317.9
10.3514	2319.95
10.4112	2321.98
10.4713	2323.98
10.5317	2325.94
10.5925	2327.88
10.6537	2329.79
10.7152	2331.66
10.7771	2333.51
10.8393	2335.32
10.9018	2337.11
10.9648	2338.87
11.0281	2340.6
11.0917	2342.29
11.1558	2343.96
11.2202	2345.6
11.285	2347.21
11.3501	2348.79
11.4156	2350.35
11.4815	2351.87
11.5478	2353.37
11.6145	2354.84
11.6815	2356.28
11.749	2357.69
11.8168	2359.08
11.885	2360.44
11.9536	2361.77
12.0226	2363.08
12.0921	2364.37
12.1619	2365.62
12.2321	2366.86
12.3027	2368.07
12.3737	2369.26
12.4451	2370.4
12.517	2371.52
12.5893	2372.61
12.6619	2373.68
12.735	2374.72
12.8086	2375.74
12.8825	2376.74
12.9569	2377.72
13.0317	2378.67
13.1069	2379.6
13.1826	2380.5
13.2587	2381.38
13.3352	2382.24
13.4122	2383.07
13.4896	2383.88
13.5675	2384.66
13.6458	2385.42
13.7246	2386.16
13.8038	2386.87
13.8835	2387.56
13.9637	2388.22
14.0443	2388.86
14.1254	2389.48
14.2069	2390.07
14.2889	2390.63
14.3714	2391.17
14.4544	2391.69
14.5378	2392.18
14.6218	2392.65
14.7062	2393.09
14.7911	2393.51
14.8765	2393.91
14.9624	2394.28
15.0487	2394.63
15.1356	2394.96
15.223	2395.26
15.3109	2395.53
15.3993	2395.79
15.4882	2396.02
15.5776	2396.23
15.6675	2396.43
15.758	2396.6
15.8489	2396.74
15.9404	2396.87
16.0325	2396.97
16.125	2397.04
16.2181	2397.1
16.3117	2397.13
16.4059	2397.14
16.5006	2397.12
16.5959	2397.09
16.6917	2397.03
16.788	2396.94
16.885	2396.84
16.9824	2396.71
17.0805	2396.56
17.1791	2396.39
17.2783	2396.19
17.378	2395.97
17.4783	2395.73
17.5792	2395.47
17.6807	2395.19
17.7828	2394.88
17.8855	2394.56
17.9887	2394.21
18.0926	2393.84
18.197	2393.45
18.3021	2393.04
18.4077	2392.61
18.514	2392.16
18.6209	2391.68
18.7284	2391.19
18.8365	2390.68
18.9452	2390.16
19.0546	2389.61
19.1646	2389.04
19.2752	2388.45
19.3865	2387.84
19.4984	2387.21
19.611	2386.56
19.7242	2385.9
19.8381	2385.21
19.9526	2384.5
20.0678	2383.78
20.1837	2383.03
20.3002	2382.26
20.4174	2381.48
20.5353	2380.67
20.6538	2379.85
20.773	2379
20.893	2378.14
21.0136	2377.26
21.1349	2376.36
21.2569	2375.44
21.3796	2374.5
21.503	2373.54
21.6272	2372.56
21.752	2371.57
21.8776	2370.56
22.0039	2369.53
22.1309	2368.48
22.2587	2367.41
22.3872	2366.32
22.5165	2365.22
22.6464	2364.09
22.7772	2362.95
22.9087	2361.79
23.0409	2360.61
23.1739	2359.41
23.3077	2358.2
23.4423	2356.96
23.5776	2355.71
23.7137	2354.44
23.8506	2353.15
23.9883	2351.85
24.1268	2350.52
24.2661	2349.18
24.4062	2347.82
24.5471	2346.44
24.6888	2345.04
24.8313	2343.63
24.9747	2342.19
25.1189	2340.74
25.2639	2339.28
25.4097	2337.79
25.5564	2336.29
25.704	2334.77
25.8523	2333.23
26.0016	2331.68
26.1517	2330.11
26.3027	2328.52
26.4545	2326.91
26.6073	2325.29
26.7609	2323.65
26.9153	2321.99
27.0707	2320.32
27.227	2318.63
27.3842	2316.92
27.5423	2315.2
27.7013	2313.46
27.8612	2311.71
28.0221	2309.94
28.1838	2308.16
28.3465	2306.36
28.5102	2304.54
28.6748	2302.71
28.8403	2300.86
29.0068	2299
29.1743	2297.12
29.3427	2295.23
29.5121	2293.32
29.6825	2291.4
29.8538	2289.46
30.0262	2287.51
30.1995	2285.54
30.3739	2283.56
30.5492	2281.57
30.7256	2279.56
30.903	2277.54
31.0814	2275.51
31.2608	2273.46
31.4413	2271.4
31.6228	2269.32
31.8053	2267.23
31.989	2265.13
32.1736	2263.01
32.3594	2260.88
32.5462	2258.74
32.7341	2256.58
32.923	2254.41
33.1131	2252.23
33.3043	2250.03
33.4965	2247.82
33.6899	2245.59
33.8844	2243.35
34.08	2241.1
34.2768	2238.83
34.4747	2236.55
34.6737	2234.25
34.8739	2231.94
35.0752	2229.62
35.2777	2227.28
35.4813	2224.93
35.6862	2222.56
35.8922	2220.18
36.0994	2217.79
36.3078	2215.38
36.5174	2212.96
36.7282	2210.53
36.9403	2208.08
37.1535	2205.61
37.368	2203.14
37.5837	2200.65
37.8007	2198.14
38.0189	2195.62
38.2384	2193.09
38.4592	2190.55
38.6812	2187.99
38.9045	2185.41
39.1291	2182.83
39.355	2180.23
39.5822	2177.61
39.8107	2174.99
40.0405	2172.35
40.2717	2169.69
40.5042	2167.03
40.738	2164.35
40.9732	2161.65
41.2098	2158.95
41.4477	2156.23
41.6869	2153.5
41.9276	2150.76
42.1697	2148
42.4131	2145.23
42.658	2142.45
42.9042	2139.66
43.1519	2136.85
43.401	2134.04
43.6516	2131.21
43.9036	2128.37
44.157	2125.52
44.412	2122.65
44.6684	2119.78
44.9262	2116.89
45.1856	2114
45.4465	2111.09
45.7088	2108.17
45.9727	2105.25
46.2381	2102.31
46.505	2099.36
46.7735	2096.41
47.0435	2093.44
47.3151	2090.46
47.5883	2087.48
47.863	2084.48
48.1393	2081.48
48.4172	2078.46
48.6968	2075.44
48.9779	2072.41
49.2606	2069.37
49.545	2066.32
49.831	2063.25
50.1187	2060.18
50.4081	2057.1
50.6991	2054.02
50.9918	2050.92
51.2861	2047.81
51.5822	2044.7
51.88	2041.57
52.1795	2038.44
52.4807	2035.29
52.7837	2032.14
53.0884	2028.98
53.3949	2025.81
53.7032	2022.63
54.0132	2019.44
54.325	2016.24
54.6387	2013.04
54.9541	2009.82
55.2713	2006.6
55.5904	2003.37
55.9114	2000.13
56.2341	1996.88
56.5588	1993.62
56.8853	1990.35
57.2137	1987.08
57.544	1983.79
57.8762	1980.5
58.2103	1977.2
58.5464	1973.89
58.8844	1970.58
59.2243	1967.25
59.5662	1963.92
59.9101	1960.58
60.256	1957.23
60.6038	1953.87
60.9537	1950.51
61.3056	1947.13
61.6595	1943.75
62.0155	1940.36
62.3735	1936.96
62.7336	1933.55
63.0957	1930.14
63.46	1926.71
63.8263	1923.28
64.1948	1919.84
64.5654	1916.4
64.9382	1912.94
65.3131	1909.48
65.6901	1906.01
66.0693	1902.54
66.4508	1899.05
66.8344	1895.56
67.2202	1892.07
67.6083	1888.56
67.9986	1885.05
68.3912	1881.53
68.786	1878.01
69.1831	1874.48
69.5825	1870.94
69.9842	1867.39
70.3882	1863.84
70.7946	1860.28
71.2033	1856.72
71.6143	1853.15
72.0278	1849.57
72.4436	1845.99
72.8618	1842.4
73.2825	1838.8
73.7055	1835.2
74.131	1831.59
74.559	1827.97
74.9894	1824.35
75.4223	1820.72
75.8578	1817.09
76.2957	1813.45
76.7361	1809.81
77.1792	1806.16
77.6247	1802.5
78.0728	1798.84
78.5236	1795.17
78.9769	1791.5
79.4328	1787.82
79.8914	1784.14
80.3526	1780.45
80.8165	1776.76
81.2831	1773.06
81.7523	1769.35
82.2243	1765.64
82.699	1761.93
83.1764	1758.21
83.6566	1754.49
84.1395	1750.76
84.6253	1747.03
85.1138	1743.29
85.6052	1739.55
86.0994	1735.8
86.5964	1732.05
87.0964	1728.3
87.5992	1724.54
88.1049	1720.78
88.6135	1717.01
89.1251	1713.24
89.6396	1709.46
90.1571	1705.68
90.6776	1701.9
91.2011	1698.12
91.7276	1694.33
92.2571	1690.54
92.7897	1686.74
93.3254	1682.94
93.8642	1679.13
94.4061	1675.32
94.9511	1671.51
95.4993	1667.7
96.0506	1663.88
96.6051	1660.06
97.1628	1656.23
97.7237	1652.4
98.2879	1648.57
98.8553	1644.74
99.426	1640.91
100	1637.07
100.577	1633.23
101.158	1629.39
101.742	1625.54
102.329	1621.7
102.92	1617.85
103.514	1614
104.112	1610.14
104.713	1606.29
105.317	1602.43
105.925	1598.57
106.537	1594.71
107.152	1590.85
107.771	1586.99
108.393	1583.12
109.018	1579.25
109.648	1575.38
110.281	1571.51
110.917	1567.64
111.558	1563.77
112.202	1559.89
112.85	1556.02
113.501	1552.14
114.156	1548.26
114.815	1544.38
115.478	1540.5
116.145	1536.61
116.815	1532.73
117.49	1528.84
118.168	1524.96
118.85	1521.07
119.536	1517.18
120.226	1513.29
120.921	1509.4
121.619	1505.5
122.321	1501.61
123.027	1497.71
123.737	1493.81
124.451	1489.92
125.17	1486.04
125.893	1482.15
126.619	1478.26
127.35	1474.37
128.086	1470.48
128.825	1466.58
129.569	1462.69
130.317	1458.8
131.069	1454.9
131.826	1451.01
132.587	1447.12
133.352	1443.22
134.122	1439.33
134.896	1435.43
135.675	1431.54
136.458	1427.64
137.246	1423.75
138.038	1419.85
138.835	1415.96
139.637	1412.07
140.443	1408.18
141.254	1404.28
142.069	1400.39
142.889	1396.5
143.714	1392.62
144.544	1388.73
145.378	1384.84
146.218	1380.96
147.062	1377.07
147.911	1373.19
148.765	1369.31
149.624	1365.43
150.487	1361.55
151.356	1357.68
152.23	1353.8
153.109	1349.93
153.993	1346.06
154.882	1342.19
155.776	1338.32
156.675	1334.45
157.58	1330.58
158.489	1326.72
159.404	1322.85
160.325	1318.99
161.25	1315.13
162.181	1311.28
163.117	1307.42
164.059	1303.57
165.006	1299.72
165.959	1295.88
166.917	1292.03
167.88	1288.19
168.85	1284.35
169.824	1280.52
170.805	1276.69
171.791	1272.86
172.783	1269.03
173.78	1265.21
174.783	1261.39
175.792	1257.57
176.807	1253.76
177.828	1249.95
178.855	1246.14
179.887	1242.33
180.926	1238.53
181.97	1234.73
183.021	1230.94
184.077	1227.15
185.14	1223.36
186.209	1219.57
187.284	1215.78
188.365	1212
189.452	1208.23
190.546	1204.45
191.646	1200.68
192.752	1196.91
193.865	1193.15
194.984	1189.38
196.11	1185.63
197.242	1181.87
198.381	1178.12
199.526	1174.38
200.678	1170.64
201.837	1166.9
203.002	1163.16
204.174	1159.44
205.353	1155.71
206.538	1151.99
207.73	1148.27
208.93	1144.56
210.136	1140.86
211.349	1137.15
212.569	1133.45
213.796	1129.76
215.03	1126.07
216.272	1122.39
217.52	1118.71
218.776	1115.04
220.039	1111.37
221.309	1107.7
222.587	1104.04
223.872	1100.39
225.165	1096.74
226.464	1093.1
227.772	1089.46
229.087	1085.82
230.409	1082.19
231.739	1078.57
233.077	1074.95
234.423	1071.34
235.776	1067.73
237.137	1064.13
238.506	1060.54
239.883	1056.94
241.268	1053.36
242.661	1049.78
244.062	1046.2
245.471	1042.63
246.888	1039.07
248.313	1035.51
249.747	1031.95
251.189	1028.4
252.639	1024.86
254.097	1021.32
255.564	1017.78
257.04	1014.25
258.523	1010.73
260.016	1007.21
261.517	1003.7
263.027	1000.2
264.545	996.697
266.073	993.203
267.609	989.716
269.153	986.234
270.707	982.759
272.27	979.29
273.842	975.827
275.423	972.371
277.013	968.92
278.612	965.477
280.221	962.039
281.838	958.608
283.465	955.183
285.102	951.765
286.748	948.354
288.403	944.948
290.068	941.55
291.743	938.157
293.427	934.772
295.121	931.392
296.825	928.019
298.538	924.652
300.262	921.292
301.995	917.938
303.739	914.59
305.492	911.249
307.256	907.913
309.03	904.583
310.814	901.257
312.608	897.934
314.413	894.617
316.228	891.306
318.053	888.002
319.89	884.703
321.736	881.412
323.594	878.127
325.462	874.848
327.341	871.577
329.23	868.313
331.131	865.056
333.043	861.806
334.965	858.563
336.899	855.328
338.844	852.101
340.8	848.881
342.768	845.669
344.747	842.465
346.737	839.269
348.739	836.081
350.752	832.902
352.777	829.73
354.813	826.567
356.862	823.413
358.922	820.267
360.994	817.129
363.078	814.001
365.174	810.881
367.282	807.769
369.403	804.667
371.535	801.573
373.68	798.489
375.837	795.413
378.007	792.346
380.189	789.289
382.384	786.24
384.592	783.201
386.812	780.17
389.045	777.149
391.291	774.136
393.55	771.133
395.822	768.139
398.107	765.154
400.405	762.177
402.717	759.21
405.042	756.252
407.38	753.302
409.732	750.361
412.098	747.429
414.477	744.505
416.869	741.59
419.276	738.683
421.697	735.785
424.131	732.894
426.58	730.012
429.042	727.137
431.519	724.271
434.01	721.411
436.516	718.559
439.036	715.714
441.57	712.876
444.12	710.045
446.684	707.22
449.262	704.402
451.856	701.589
454.465	698.782
457.088	695.98
459.727	693.183
462.381	690.392
465.05	687.605
467.735	684.881
470.435	682.161
473.151	679.446
475.883	676.735
478.63	674.029
481.393	671.329
484.172	668.633
486.968	665.943
489.779	663.258
492.606	660.579
495.45	657.905
498.31	655.237
501.187	652.575
504.081	649.919
506.991	647.268
509.918	644.625
512.861	641.987
515.822	639.356
518.8	636.732
521.795	634.114
524.807	631.503
527.837	628.899
530.884	626.302
533.949	623.712
537.032	621.129
540.132	618.554
543.25	615.986
546.387	613.425
549.541	610.873
552.713	608.327
555.904	605.79
559.114	603.261
562.341	600.739
565.588	598.226
568.853	595.721
572.137	593.224
575.44	590.735
578.762	588.255
582.103	585.783
585.464	583.319
588.844	580.864
592.243	578.418
595.662	575.98
599.101	573.551
602.56	571.131
606.038	568.719
609.537	566.316
613.056	563.922
616.595	561.537
620.155	559.161
623.735	556.781
627.336	554.411
630.957	552.049
634.6	549.697
638.263	547.353
641.948	545.019
645.654	542.694
649.382	540.377
653.131	538.07
656.901	535.773
660.693	533.484
664.508	531.205
668.344	528.935
672.202	526.675
676.083	524.423
679.986	522.181
683.912	519.949
687.86	517.725
691.831	515.511
695.825	513.306
699.842	511.11
703.882	508.923
707.946	506.746
712.033	504.577
716.143	502.417
720.278	500.266
724.436	498.124
728.618	495.991
732.825	493.866
737.055	491.75
741.31	489.642
745.59	487.543
749.894	485.451
754.223	483.368
758.578	481.292
762.957	479.224
767.361	477.163
771.792	475.109
776.247	473.062
780.728	471.022
785.236	468.989
789.769	466.962
794.328	464.943
798.914	462.931
803.526	460.926
808.165	458.928
812.831	456.937
817.523	454.954
822.243	452.978
826.99	451.009
831.764	449.048
836.566	447.094
841.395	445.147
846.253	443.208
851.138	441.277
856.052	439.353
860.994	437.436
865.964	435.527
870.964	433.626
875.992	431.731
881.049	429.845
886.135	427.965
891.251	426.093
896.396	424.229
901.571	422.371
906.776	420.521
912.011	418.679
917.276	416.843
922.571	415.014
927.897	413.193
933.254	411.376
938.642	409.564
944.061	407.76
949.511	405.963
954.993	404.173
960.506	402.389
966.051	400.614
971.628	398.845
977.237	397.084
982.879	395.33
988.553	393.583
994.26	391.844
1000	390.113
1005.77	388.389
1011.58	386.672
1017.42	384.963
1023.29	383.262
1029.2	381.568
1035.14	379.882
1041.12	378.204
1047.13	376.533
1053.17	374.87
1059.25	373.215
1065.37	371.567
1071.52	369.927
1077.71	368.294
1083.93	366.67
1090.18	365.052
1096.48	363.443
1102.81	361.84
1109.17	360.246
1115.58	358.658
1122.02	357.078
1128.5	355.505
1135.01	353.94
1141.56	352.381
1148.15	350.83
1154.78	349.285
1161.45	347.748
1168.15	346.217
1174.9	344.692
1181.68	343.175
1188.5	341.663
1195.36	340.158
1202.26	338.659
1209.21	337.165
1216.19	335.678
1223.21	334.196
1230.27	332.719
1237.37	331.248
1244.51	329.788
1251.7	328.339
1258.93	326.894
1266.19	325.455
1273.5	324.02
1280.86	322.591
1288.25	321.167
1295.69	319.749
1303.17	318.335
1310.69	316.928
1318.26	315.525
1325.87	314.128
1333.52	312.737
1341.22	311.352
1348.96	309.972
1356.75	308.597
1364.58	307.229
1372.46	305.866
1380.38	304.509
1388.35	303.158
1396.37	301.813
1404.43	300.473
1412.54	299.14
1420.69	297.812
1428.89	296.49
1437.14	295.175
1445.44	293.865
1453.78	292.561
1462.18	291.263
1470.62	289.971
1479.11	288.685
1487.65	287.405
1496.24	286.131
1504.87	284.863
1513.56	283.601
1522.3	282.345
1531.09	281.094
1539.93	279.849
1548.82	278.61
1557.76	277.375
1566.75	276.144
1575.8	274.92
1584.89	273.701
1594.04	272.488
1603.25	271.28
1612.5	270.079
1621.81	268.883
1631.17	267.693
1640.59	266.509
1650.06	265.33
1659.59	264.158
1669.17	262.991
1678.8	261.83
1688.5	260.675
1698.24	259.525
1708.05	258.381
1717.91	257.243
1727.83	256.11
1737.8	254.983
1747.83	253.862
1757.92	252.746
1768.07	251.635
1778.28	250.53
1788.55	249.43
1798.87	248.335
1809.26	247.245
1819.7	246.161
1830.21	245.081
1840.77	244.006
1851.4	242.936
1862.09	241.871
1872.84	240.81
1883.65	239.754
1894.52	238.702
1905.46	237.655
1916.46	236.613
1927.52	235.575
1938.65	234.542
1949.84	233.514
1961.1	232.49
1972.42	231.471
1983.81	230.457
1995.26	229.448
2006.78	228.443
2018.37	227.444
2030.02	226.448
2041.74	225.458
2053.53	224.472
2065.38	223.492
2077.3	222.515
2089.3	221.544
2101.36	220.577
2113.49	219.614
2125.69	218.657
2137.96	217.704
2150.3	216.755
2162.72	215.811
2175.2	214.871
2187.76	213.936
2200.39	213.005
2213.09	212.078
2225.87	211.156
2238.72	210.238
2251.65	209.325
2264.64	208.416
2277.72	207.511
2290.87	206.611
2304.09	205.716
2317.39	204.824
2330.77	203.937
2344.23	203.055
2357.76	202.177
2371.37	201.303
2385.06	200.433
2398.83	199.568
2412.68	198.707
2426.61	197.85
2440.62	196.997
2454.71	196.148
2468.88	195.303
2483.13	194.462
2497.47	193.625
2511.89	192.792
2526.39	191.963
2540.97	191.138
2555.64	190.317
2570.4	189.5
2585.23	188.687
2600.16	187.878
2615.17	187.073
2630.27	186.272
2645.45	185.475
2660.73	184.681
2676.09	183.892
2691.53	183.107
2707.07	182.325
2722.7	181.548
2738.42	180.774
2754.23	180.004
2770.13	179.239
2786.12	178.476
2802.21	177.718
2818.38	176.963
2834.65	176.213
2851.02	175.465
2867.48	174.722
2884.03	173.982
2900.68	173.246
2917.43	172.513
2934.27	171.784
2951.21	171.058
2968.25	170.336
2985.38	169.617
3002.62	168.861
3019.95	168.096
3037.39	167.335
3054.92	166.578
3072.56	165.824
3090.3	165.074
3108.14	164.326
3126.08	163.581
3144.13	162.84
3162.28	162.102
3180.53	161.367
3198.9	160.636
3217.36	159.908
3235.94	159.184
3254.62	158.464
3273.41	157.747
3292.3	157.034
3311.31	156.324
3330.43	155.618
3349.65	154.916
3368.99	154.218
3388.44	153.523
3408	152.832
3427.68	152.145
3447.47	151.461
3467.37	150.782
3487.39	150.106
3507.52	149.435
3527.77	148.767
3548.13	148.103
3568.62	147.442
3589.22	146.786
3609.94	146.134
3630.78	145.485
3651.74	144.841
3672.82	144.2
3694.03	143.564
3715.35	142.931
3736.8	142.302
3758.37	141.677
3780.07	141.056
3801.89	140.439
3823.84	139.826
3845.92	139.216
3868.12	138.611
3890.45	138.009
3912.91	137.411
3935.5	136.817
3958.22	136.226
3981.07	135.64
4004.05	135.057
4027.17	134.478
4050.42	133.902
4073.8	133.33
4097.32	132.761
4120.98	132.196
4144.77	131.635
4168.69	131.077
4192.76	130.522
4216.97	129.97
4241.31	129.422
4265.8	128.877
4290.42	128.335
4315.19	127.795
4340.1	127.259
4365.16	126.726
4390.36	126.195
4415.7	125.667
4441.2	125.142
4466.84	124.619
4492.62	124.098
4518.56	123.579
4544.65	123.063
4570.88	122.549
4597.27	122.036
4623.81	121.526
4650.5	121.017
4677.35	120.525
4704.35	120.034
4731.51	119.545
4758.83	119.058
4786.3	118.572
4813.93	118.088
4841.72	117.606
4869.68	117.125
4897.79	116.646
4926.06	116.169
4954.5	115.694
4983.1	115.22
5011.87	114.749
5040.81	114.279
5069.91	113.811
5099.18	113.345
5128.61	112.88
5158.22	112.418
5188	111.958
5217.95	111.499
5248.07	111.043
5278.37	110.589
5308.84	110.137
5339.49	109.686
5370.32	109.238
5401.32	108.792
5432.5	108.349
5463.87	107.907
5495.41	107.467
5527.13	107.03
5559.04	106.595
5591.14	106.162
5623.41	105.731
5655.88	105.303
5688.53	104.877
5721.37	104.453
5754.4	104.031
5787.62	103.612
5821.03	103.195
5854.64	102.781
5888.44	102.368
5922.43	101.958
5956.62	101.551
5991.01	101.146
6025.6	100.743
6060.38	100.343
6095.37	99.9445
6130.56	99.5489
6165.95	99.1557
6201.55	98.7649
6237.35	98.3741
6273.36	97.9858
6309.57	97.5998
6346	97.2163
6382.63	96.8352
6419.48	96.4565
6456.54	96.0802
6493.82	95.7063
6531.31	95.3348
6569.01	94.9657
6606.93	94.5991
6645.08	94.2348
6683.44	93.8729
6722.02	93.5134
6760.83	93.1562
6799.86	92.8014
6839.12	92.449
6878.6	92.0988
6918.31	91.751
6958.25	91.4054
6998.42	91.0621
7038.82	90.7211
7079.46	90.3823
7120.33	90.0456
7161.43	89.7112
7202.78	89.3788
7244.36	89.0486
7286.18	88.7204
7328.25	88.3943
7370.55	88.0701
7413.1	87.7479
7455.9	87.4276
7498.94	87.1091
7542.23	86.7924
7585.78	86.4775
7629.57	86.1643
7673.61	85.8527
7717.92	85.5427
7762.47	85.2342
7807.28	84.9271
7852.36	84.6214
7897.69	84.3172
7943.28	84.0145
7989.14	83.7133
8035.26	83.4137
8081.65	83.1155
8128.31	82.8189
8175.23	82.5238
8222.43	82.2302
8269.9	81.9382
8317.64	81.6477
8365.66	81.3588
8413.95	81.0714
8462.53	80.7855
8511.38	80.5013
8560.52	80.2185
8609.94	79.9373
8659.64	79.6577
8709.64	79.3796
8759.92	79.103
8810.49	78.828
8861.35	78.5545
8912.51	78.2826
8963.96	78.0122
9015.71	77.7432
9067.76	77.4758
9120.11	77.2099
9172.76	76.9454
9225.71	76.6825
9278.97	76.4209
9332.54	76.1605
9386.42	75.9012
9440.61	75.6434
9495.11	75.3871
9549.93	75.1322
9605.06	74.8787
9660.51	74.6268
9716.28	74.3763
9772.37	74.1273
9828.79	73.8798
9885.53	73.6338
9942.6	73.3893
10000	73.1463
10057.7	72.9048
10115.8	72.6648
10174.2	72.4263
10232.9	72.1893
10292	71.9539
10351.4	71.7199
10411.2	71.4875
10471.3	71.2565
10531.7	71.0271
10592.5	70.7991
10653.7	70.5727
10715.2	70.3477
10777.1	70.1242
10839.3	69.9022
10901.8	69.6817
10964.8	69.4626
11028.1	69.2449
11091.7	69.0287
11155.8	68.8139
11220.2	68.6004
11285	68.3884
11350.1	68.1777
11415.6	67.9684
11481.5	67.7604
11547.8	67.5537
11614.5	67.3483
11681.5	67.1442
11749	66.9412
11816.8	66.7395
11885	66.539
11953.6	66.3396
12022.6	66.1414
12092.1	65.9442
12161.9	65.748
12232.1	65.5529
12302.7	65.3587
12373.7	65.1655
12445.1	64.9743
12517	64.7848
12589.3	64.5962
12661.9	64.4084
12735	64.2216
12808.6	64.0357
12882.5	63.8507
12956.9	63.6666
13031.7	63.4835
13106.9	63.3013
13182.6	63.1201
13258.7	62.9399
13335.2	62.7606
13412.2	62.5823
13489.6	62.405
13567.5	62.2287
13645.8	62.0533
13724.6	61.879
13803.8	61.7056
13883.5	61.5333
13963.7	61.362
14044.3	61.1917
14125.4	61.0224
14206.9	60.8541
14288.9	60.6869
14371.4	60.5207
14454.4	60.3555
14537.8	60.1913
14621.8	60.0281
14706.2	59.866
14791.1	59.7049
14876.5	59.5448
14962.4	59.3857
15048.7	59.2277
15135.6	59.0707
15223	58.9146
15310.9	58.7596
15399.3	58.6056
15488.2	58.4525
15577.6	58.3001
15667.5	58.1486
15758	57.9982
15848.9	57.8486
15940.4	57.7001
16032.5	57.5526
16125	57.4061
16218.1	57.2605
16311.7	57.116
16405.9	56.9724
16500.6	56.8298
16595.9	56.6882
16691.7	56.5476
16788	56.4079
16885	56.2693
16982.4	56.1316
17080.5	55.9948
17179.1	55.8591
17278.3	55.7242
17378	55.5903
17478.3	55.4574
17579.2	55.3253
17680.7	55.1942
17782.8	55.064
17885.5	54.9347
17988.7	54.8062
18092.6	54.6787
18197	54.5519
18302.1	54.426
18407.7	54.301
18514	54.1767
18620.9	54.0532
18728.4	53.9305
18836.5	53.8085
18945.2	53.6873
19054.6	53.5669
19164.6	53.4472
19275.2	53.3283
19386.5	53.2102
19498.4	53.0929
19611	52.9763
19724.2	52.8605
19838.1	52.7455
19952.6	52.6313
20067.8	52.5178
20183.7	52.405
20300.2	52.293
20417.4	52.1818
20535.3	52.0713
20653.8	51.9616
20773	51.8526
20893	51.7443
21013.6	51.6367
21134.9	51.5299
21256.9	51.4237
21379.6	51.3183
21503	51.2135
21627.2	51.1094
21752	51.006
21877.6	50.9032
22003.9	50.8011
22130.9	50.6997
22258.7	50.5989
22387.2	50.4987
22516.5	50.3993
22646.4	50.3005
22777.2	50.2024
22908.7	50.105
23040.9	50.0082
23173.9	49.9121
23307.7	49.8167
23442.3	49.722
23577.6	49.628
23713.7	49.5346
23850.6	49.4419
23988.3	49.3499
24126.8	49.2585
24266.1	49.1679
24406.2	49.0778
24547.1	48.9885
24688.8	48.8998
24831.3	48.8118
24974.7	48.7244
25118.9	48.6377
25263.9	48.5516
25409.7	48.4662
25556.4	48.3814
25704	48.2973
25852.3	48.2138
26001.6	48.131
26151.7	48.0488
26302.7	47.9672
26454.5	47.8862
26607.3	47.8059
26760.9	47.7262
26915.3	47.6472
27070.7	47.5687
27227	47.4908
27384.2	47.4136
27542.3	47.3369
27701.3	47.2608
27861.2	47.1853
28022.1	47.1103
28183.8	47.0359
28346.5	46.962
28510.2	46.8887
28674.8	46.8158
28840.3	46.7435
29006.8	46.6717
29174.3	46.6003
29342.7	46.5294
29512.1	46.4589
29682.5	46.3889
29853.8	46.3193
30026.2	46.2501
30199.5	46.1812
30373.9	46.1127
30549.2	46.0446
30725.6	45.9767
30903	45.9091
31081.4	45.8401
31260.8	45.7695
31441.3	45.6994
31622.8	45.6298
31805.3	45.5607
31989	45.4921
32173.6	45.4241
32359.4	45.3565
32546.2	45.2895
32734.1	45.2229
32923	45.1569
33113.1	45.0913
33304.3	45.0263
33496.5	44.9617
33689.9	44.8977
33884.4	44.8341
34080	44.771
34276.8	44.7083
34474.7	44.6462
34673.7	44.5845
34873.9	44.5233
35075.2	44.4626
35277.7	44.4023
35481.3	44.3425
35686.2	44.2832
35892.2	44.2243
36099.4	44.1659
36307.8	44.1079
36517.4	44.0504
36728.2	43.9933
36940.3	43.9367
37153.5	43.8805
37368	43.8247
37583.7	43.7694
37800.7	43.7145
38018.9	43.6601
38238.4	43.6061
38459.2	43.5525
38681.2	43.4993
38904.5	43.4466
39129.1	43.3943
39355	43.3424
39582.2	43.2909
39810.7	43.2399
40040.5	43.1892
40271.7	43.1389
40504.2	43.0891
40738	43.0397
40973.2	42.9906
41209.8	42.942
41447.7	42.8937
41686.9	42.8459
41927.6	42.7984
42169.7	42.7514
42413.1	42.7047
42658	42.6584
42904.2	42.6125
43151.9	42.567
43401	42.5218
43651.6	42.477
43903.6	42.4326
44157	42.3886
44412	42.3449
44668.4	42.3016
44926.2	42.2587
45185.6	42.2161
45446.5	42.1739
45708.8	42.1321
45972.7	42.0906
46238.1	42.0494
46505	42.0087
46773.5	41.9682
47043.5	41.9281
47315.1	41.8884
47588.3	41.849
47863	41.8099
48139.3	41.7712
48417.2	41.7328
48696.8	41.6948
48977.9	41.657
49260.6	41.6197
49545	41.5826
49831	41.5459
50118.7	41.5095
50408.1	41.4734
50699.1	41.4376
50991.8	41.4022
51286.1	41.367
51582.2	41.3322
51880	41.2977
52179.5	41.2635
52480.7	41.2297
52783.7	41.1961
53088.4	41.1628
53394.9	41.1299
53703.2	41.0972
54013.2	41.0648
54325	41.0328
54638.7	41.001
54954.1	40.9695
55271.3	40.9383
55590.4	40.9074
55911.4	40.8768
56234.1	40.8465
56558.8	40.8165
56885.3	40.7867
57213.7	40.7572
57544	40.728
57876.2	40.6991
58210.3	40.6705
58546.4	40.6421
58884.4	40.614
59224.3	40.5862
59566.2	40.5586
59910.1	40.5313
60256	40.5043
60603.8	40.4775
60953.7	40.451
61305.6	40.4248
61659.5	40.3988
62015.5	40.373
62373.5	40.3476
62733.6	40.3223
63095.7	40.2974
63460	40.2726
63826.3	40.2481
64194.8	40.2239
64565.4	40.1999
64938.2	40.1762
65313.1	40.1527
65690.1	40.1294
66069.3	40.1064
66450.8	40.0836
66834.4	40.061
67220.2	40.0387
67608.3	40.0166
67998.6	39.9947
68391.2	39.9731
68786	39.9517
69183.1	39.9305
69582.5	39.9095
69984.2	39.8888
70388.2	39.8682
70794.6	39.8479
71203.3	39.8278
71614.3	39.808
72027.8	39.7883
72443.6	39.7688
72861.8	39.7496
73282.5	39.7306
73705.5	39.7118
74131	39.6931
74559	39.6747
74989.4	39.6565
75422.3	39.6385
75857.8	39.6207
76295.7	39.6031
76736.1	39.5857
77179.2	39.5685
77624.7	39.5515
78072.8	39.5347
78523.6	39.518
78976.9	39.5016
79432.8	39.4853
79891.4	39.4693
80352.6	39.4534
80816.5	39.4377
81283.1	39.4222
81752.3	39.4068
82224.3	39.3917
82699	39.3767
83176.4	39.3619
83656.6	39.3473
84139.5	39.3329
84625.3	39.3186
85113.8	39.3045
85605.2	39.2906
86099.4	39.2769
86596.4	39.2633
87096.4	39.2499
87599.2	39.2366
88104.9	39.2235
88613.5	39.2106
89125.1	39.1978
89639.6	39.1852
90157.1	39.1728
90677.6	39.1605
91201.1	39.1484
91727.6	39.1364
92257.1	39.1246
92789.7	39.113
93325.4	39.1015
93864.2	39.0901
94406.1	39.0789
94951.1	39.0678
95499.3	39.0569
96050.6	39.0462
96605.1	39.0356
97162.8	39.0251
97723.7	39.0148
98287.9	39.0046
98855.3	38.9945
99426	38.9846
100000	38.9748
100577	38.9652
101158	38.9557
101742	38.9463
102329	38.9371
102920	38.928
103514	38.919
104112	38.9102
104713	38.9015
105317	38.8929
105925	38.8844
106537	38.8761
107152	38.8679
107771	38.8598
108393	38.8519
109018	38.844
109648	38.8363
110281	38.8287
110917	38.8213
111558	38.8139
112202	38.8067
112850	38.7995
113501	38.7925
114156	38.7856
114815	38.7788
115478	38.7721
116145	38.7656
116815	38.7591
117490	38.7528
118168	38.7465
118850	38.7404
119536	38.7344
120226	38.7284
120921	38.7226
121619	38.7169
122321	38.7113
123027	38.7057
123737	38.7003
124451	38.695
125170	38.6898
125893	38.6847
126619	38.6796
127350	38.6747
128086	38.6699
128825	38.6651
129569	38.6605
130317	38.6559
131069	38.6514
131826	38.647
132587	38.6427
133352	38.6385
134122	38.6344
134896	38.6304
135675	38.6264
136458	38.6226
137246	38.6188
138038	38.6151
138835	38.6115
139637	38.608
140443	38.6045
141254	38.6011
142069	38.5978
142889	38.5946
143714	38.5915
144544	38.5884
145378	38.5854
146218	38.5825
147062	38.5797
147911	38.5769
148765	38.5742
149624	38.5716
150487	38.5691
151356	38.5666
152230	38.5642
153109	38.5618
153993	38.5596
154882	38.5574
155776	38.5552
156675	38.5531
157580	38.5511
158489	38.5492
159404	38.5473
160325	38.5455
161250	38.5438
162181	38.5421
163117	38.5404
164059	38.5389
165006	38.5374
165959	38.5359
166917	38.5345
167880	38.5332
168850	38.5319
169824	38.5307
170805	38.5295
171791	38.5284
172783	38.5273
173780	38.5263
174783	38.5254
175792	38.5245
176807	38.5236
177828	38.5228
178855	38.5221
179887	38.5214
180926	38.5208
181970	38.5202
183021	38.5196
184077	38.5191
185140	38.5187
186209	38.5183
187284	38.5179
188365	38.5176
189452	38.5173
190546	38.5171
191646	38.5169
192752	38.5168
193865	38.5167
194984	38.5166
196110	38.5166
197242	38.5166
198381	38.5167
199526	38.5168
200678	38.5169
201837	38.5171
203002	38.5173
204174	38.5176
205353	38.5179
206538	38.5182
207730	38.5186
208930	38.519
210136	38.5194
211349	38.5199
212569	38.5204
213796	38.521
215030	38.5216
216272	38.5222
217520	38.5228
218776	38.5235
220039	38.5242
221309	38.5249
222587	38.5257
223872	38.5265
225165	38.5273
226464	38.5282
227772	38.529
229087	38.5299
230409	38.5309
231739	38.5318
233077	38.5328
234423	38.5339
235776	38.5349
237137	38.536
238506	38.5371
239883	38.5382
241268	38.5393
242661	38.5405
244062	38.5417
245471	38.5429
246888	38.5441
248313	38.5454
249747	38.5467
251189	38.548
252639	38.5493
254097	38.5507
255564	38.552
257040	38.5534
258523	38.5548
260016	38.5562
261517	38.5577
263027	38.5591
264545	38.5606
266073	38.5621
267609	38.5636
269153	38.5652
270707	38.5667
272270	38.5683
273842	38.5699
275423	38.5715
277013	38.5731
278612	38.5747
280221	38.5763
281838	38.578
283465	38.5797
285102	38.5814
286748	38.5831
288403	38.5848
290068	38.5865
291743	38.5882
293427	38.59
295121	38.5918
296825	38.5935
298538	38.5953
300262	38.5971
301995	38.5989
303739	38.6007
305492	38.6026
307256	38.6044
309030	38.6063
310814	38.6081
312608	38.61
314413	38.6119
316228	38.6137
318053	38.6156
319890	38.6175
321736	38.6194
323594	38.6214
325462	38.6233
327341	38.6252
329230	38.6272
331131	38.6291
333043	38.631
334965	38.633
336899	38.635
338844	38.6369
340800	38.6389
342768	38.6409
344747	38.6429
346737	38.6449
348739	38.6469
350752	38.6489
352777	38.6509
354813	38.6529
356862	38.6549
358922	38.6569
360994	38.6589
363078	38.6609
365174	38.663
367282	38.665
369403	38.667
371535	38.669
373680	38.6711
375837	38.6731
378007	38.6751
380189	38.6772
382384	38.6792
384592	38.6813
386812	38.6833
389045	38.6853
391291	38.6874
393550	38.6894
395822	38.6915
398107	38.6935
400405	38.6956
402717	38.6976
405042	38.6996
407380	38.7017
409732	38.7037
412098	38.7058
414477	38.7078
416869	38.7098
419276	38.7119
421697	38.7139
424131	38.716
426580	38.718
429042	38.72
431519	38.722
434010	38.7241
436516	38.7261
439036	38.7281
441570	38.7301
444120	38.7321
446684	38.7342
449262	38.7362
451856	38.7382
454465	38.7402
457088	38.7422
459727	38.7442
462381	38.7462
465050	38.7481
467735	38.7501
470435	38.7521
473151	38.7541
475883	38.7561
478630	38.758
481393	38.76
484172	38.7619
486968	38.7639
489779	38.7658
492606	38.7678
495450	38.7697
498310	38.7717
501187	38.7736
504081	38.7755
506991	38.7774
509918	38.7793
512861	38.7812
515822	38.7831
518800	38.785
521795	38.7869
524807	38.7888
527837	38.7907
530884	38.7925
533949	38.7944
537032	38.7963
540132	38.7981
543250	38.8
546387	38.8018
549541	38.8036
552713	38.8055
555904	38.8073
559114	38.8091
562341	38.8109
565588	38.8127
568853	38.8145
572137	38.8163
575440	38.818
578762	38.8198
582103	38.8216
585464	38.8233
588844	38.8251
592243	38.8268
595662	38.8285
599101	38.8302
602560	38.832
606038	38.8337
609537	38.8354
613056	38.8371
616595	38.8387
620155	38.8404
623735	38.8421
627336	38.8437
630957	38.8454
634600	38.847
638263	38.8487
641948	38.8503
645654	38.8519
649382	38.8535
653131	38.8551
656901	38.8567
660693	38.8583
664508	38.8599
668344	38.8614
672202	38.863
676083	38.8645
679986	38.8661
683912	38.8676
687860	38.8691
691831	38.8707
695825	38.8722
699842	38.8737
703882	38.8751
707946	38.8766
712033	38.8781
716143	38.8796
720278	38.881
724436	38.8825
728618	38.8839
732825	38.8853
737055	38.8867
741310	38.8881
745590	38.8895
749894	38.8909
754223	38.8923
758578	38.8937
762957	38.895
767361	38.8964
771792	38.8977
776247	38.8991
780728	38.9004
785236	38.9017
789769	38.903
794328	38.9043
798914	38.9056
803526	38.9069
808165	38.9081
812831	38.9094
817523	38.9107
822243	38.9119
826990	38.9131
831764	38.9143
836566	38.9156
841395	38.9168
846253	38.918
851138	38.9191
856052	38.9203
860994	38.9215
865964	38.9226
870964	38.9238
875992	38.9249
881049	38.9261
886135	38.9272
891251	38.9283
896396	38.9294
901571	38.9305
906776	38.9316
912011	38.9326
917276	38.9337
922571	38.9348
927897	38.9358
933254	38.9368
938642	38.9379
944061	38.9389
949511	38.9399
954993	38.9409
960506	38.9419
966051	38.9429
971628	38.9438
977237	38.9448
982879	38.9457
988553	38.9467
994260	38.9476
1e+06	38.9486
1.00577e+06	38.9495
1.01158e+06	38.9504
1.01742e+06	38.9513
1.02329e+06	38.9522
1.0292e+06	38.953
1.03514e+06	38.9539
1.04112e+06	38.9548
1.04713e+06	38.9556
1.05317e+06	38.9565
1.05925e+06	38.9573
1.06537e+06	38.9581
1.07152e+06	38.959
1.07771e+06	38.9598
1.08393e+06	38.9606
1.09018e+06	38.9614
1.09648e+06	38.9621
1.10281e+06	38.9629
1.10917e+06	38.9637
1.11558e+06	38.9644
1.12202e+06	38.9652
1.1285e+06	38.9659
1.13501e+06	38.9667
1.14156e+06	38.9674
1.14815e+06	38.9681
1.15478e+06	38.9688
1.16145e+06	38.9695
1.16815e+06	38.9702
1.1749e+06	38.9709
1.18168e+06	38.9715
1.1885e+06	38.9722
1.19536e+06	38.9729
1.20226e+06	38.9735
1.20921e+06	38.9741
1.21619e+06	38.9748
1.22321e+06	38.9754
1.23027e+06	38.976
1.23737e+06	38.9766
1.24451e+06	38.9772
1.2517e+06	38.9778
1.25893e+06	38.9784
1.26619e+06	38.979
1.2735e+06	38.9795
1.28086e+06	38.9801
1.28825e+06	38.9806
1.29569e+06	38.9812
1.30317e+06	38.9817
1.31069e+06	38.9822
1.31826e+06	38.9827
1.32587e+06	38.9832
1.33352e+06	38.9838
1.34122e+06	38.9842
1.34896e+06	38.9847
1.35675e+06	38.9852
1.36458e+06	38.9857
1.37246e+06	38.9862
1.38038e+06	38.9866
1.38835e+06	38.9871
1.39637e+06	38.9875
1.40443e+06	38.9879
1.41254e+06	38.9884
1.42069e+06	38.9888
1.42889e+06	38.9892
1.43714e+06	38.9896
1.44544e+06	38.99
1.45378e+06	38.9904
1.46218e+06	38.9908
1.47062e+06	38.9912
1.47911e+06	38.9915
1.48765e+06	38.9919
1.49624e+06	38.9923
1.50487e+06	38.9926
1.51356e+06	38.9929
1.5223e+06	38.9933
1.53109e+06	38.9936
1.53993e+06	38.9939
1.54882e+06	38.9943
1.55776e+06	38.9946
1.56675e+06	38.9949
1.5758e+06	38.9952
1.58489e+06	38.9955
1.59404e+06	38.9957
1.60325e+06	38.996
1.6125e+06	38.9963
1.62181e+06	38.9966
1.63117e+06	38.9968
1.64059e+06	38.9971
1.65006e+06	38.9973
1.65959e+06	38.9976
1.66917e+06	38.9978
1.6788e+06	38.998
1.6885e+06	38.9983
1.69824e+06	38.9985
1.70805e+06	38.9987
1.71791e+06	38.9989
1.72783e+06	38.9991
1.7378e+06	38.9993
1.74783e+06	38.9995
1.75792e+06	38.9997
1.76807e+06	38.9999
1.77828e+06	39
1.78855e+06	39.0002
1.79887e+06	39.0004
1.80926e+06	39.0005
1.8197e+06	39.0007
1.83021e+06	39.0008
1.84077e+06	39.001
1.8514e+06	39.0011
1.86209e+06	39.0013
1.87284e+06	39.0014
1.88365e+06	39.0015
1.89452e+06	39.0016
1.90546e+06	39.0017
1.91646e+06	39.0019
1.92752e+06	39.002
1.93865e+06	39.0021
1.94984e+06	39.0022
1.9611e+06	39.0023
1.97242e+06	39.0023
1.98381e+06	39.0024
1.99526e+06	39.0025
2.00678e+06	39.0026
2.01837e+06	39.0026
2.03002e+06	39.0027
2.04174e+06	39.0028
2.05353e+06	39.0028
2.06538e+06	39.0029
2.0773e+06	39.0029
2.0893e+06	39.003
2.10136e+06	39.003
2.11349e+06	39.0031
2.12569e+06	39.0031
2.13796e+06	39.0031
2.1503e+06	39.0032
2.16272e+06	39.0032
2.1752e+06	39.0032
2.18776e+06	39.0032
2.20039e+06	39.0033
2.21309e+06	39.0033
2.22587e+06	39.0033
2.23872e+06	39.0033
2.25165e+06	39.0033
2.26464e+06	39.0033
2.27772e+06	39.0033
2.29087e+06	39.0033
2.30409e+06	39.0033
2.31739e+06	39.0033
2.33077e+06	39.0032
2.34423e+06	39.0032
2.35776e+06	39.0032
2.37137e+06	39.0032
2.38506e+06	39.0032
2.39883e+06	39.0031
2.41268e+06	39.0031
2.42661e+06	39.0031
2.44062e+06	39.003
2.45471e+06	39.003
2.46888e+06	39.003
2.48313e+06	39.0029
2.49747e+06	39.0029
2.51189e+06	39.0029
2.52639e+06	39.0028
2.54097e+06	39.0028
2.55564e+06	39.0027
2.5704e+06	39.0027
2.58523e+06	39.0026
2.60016e+06	39.0026
2.61517e+06	39.0025
2.63027e+06	39.0025
2.64545e+06	39.0024
2.66073e+06	39.0023
2.67609e+06	39.0023
2.69153e+06	39.0022
2.70707e+06	39.0022
2.7227e+06	39.0021
2.73842e+06	39.002
2.75423e+06	39.002
2.77013e+06	39.0019
2.78612e+06	39.0018
2.80221e+06	39.0018
2.81838e+06	39.0017
2.83465e+06	39.0016
2.85102e+06	39.0016
2.86748e+06	39.0015
2.88403e+06	39.0014
2.90068e+06	39.0014
2.91743e+06	39.0013
2.93427e+06	39.0012
2.95121e+06	39.0012
2.96825e+06	39.0011
2.98538e+06	39.001
3.00262e+06	39.001
3.01995e+06	39.0009
3.03739e+06	39.0008
3.05492e+06	39.0008
3.07256e+06	39.0007
3.0903e+06	39.0006
3.10814e+06	39.0006
3.12608e+06	39.0005
3.14413e+06	39.0004
3.16228e+06	39.0004
3.18053e+06	39.0003
3.1989e+06	39.0002
3.21736e+06	39.0002
3.23594e+06	39.0001
3.25462e+06	39
3.27341e+06	39
3.2923e+06	38.9999
3.31131e+06	38.9999
3.33043e+06	38.9998
3.34965e+06	38.9997
3.36899e+06	38.9997
3.38844e+06	38.9996
3.408e+06	38.9996
3.42768e+06	38.9995
3.44747e+06	38.9995
3.46737e+06	38.9994
3.48739e+06	38.9994
3.50752e+06	38.9993
3.52777e+06	38.9992
3.54813e+06	38.9992
3.56862e+06	38.9991
3.58922e+06	38.9991
3.60994e+06	38.999
3.63078e+06	38.999
3.65174e+06	38.9989
3.67282e+06	38.9989
3.69403e+06	38.9988
3.71535e+06	38.9988
3.7368e+06	38.9987
3.75837e+06	38.9987
3.78007e+06	38.9986
3.80189e+06	38.9986
3.82384e+06	38.9985
3.84592e+06	38.9985
3.86812e+06	38.9984
3.89045e+06	38.9984
3.91291e+06	38.9983
3.9355e+06	38.9983
3.95822e+06	38.9983
3.98107e+06	38.9982
4.00405e+06	38.9982
4.02717e+06	38.9981
4.05042e+06	38.9981
4.0738e+06	38.998
4.09732e+06	38.998
4.12098e+06	38.9979
4.14477e+06	38.9979
4.16869e+06	38.9979
4.19276e+06	38.9978
4.21697e+06	38.9978
4.24131e+06	38.9977
4.2658e+06	38.9977
4.29042e+06	38.9977
4.31519e+06	38.9976
4.3401e+06	38.9976
4.36516e+06	38.9975
4.39036e+06	38.9975
4.4157e+06	38.9975
4.4412e+06	38.9974
4.46684e+06	38.9974
4.49262e+06	38.9973
4.51856e+06	38.9973
4.54465e+06	38.9973
4.57088e+06	38.9972
4.59727e+06	38.9972
4.62381e+06	38.9972
4.6505e+06	38.9971
4.67735e+06	38.9971
4.70435e+06	38.9971
4.73151e+06	38.997
4.75883e+06	38.997
4.7863e+06	38.9969
4.81393e+06	38.9969
4.84172e+06	38.9969
4.86968e+06	38.9968
4.89779e+06	38.9968
4.92606e+06	38.9968
4.9545e+06	38.9967
4.9831e+06	38.9967
5.01187e+06	38.9967
5.04081e+06	38.9967
5.06991e+06	38.9966
5.09918e+06	38.9966
5.12861e+06	38.9966
5.15822e+06	38.9965
5.188e+06	38.9965
5.21795e+06	38.9965
5.24807e+06	38.9964
5.27837e+06	38.9964
5.30884e+06	38.9964
5.33949e+06	38.9963
5.37032e+06	38.9963
5.40132e+06	38.9963
5.4325e+06	38.9963
5.46387e+06	38.9962
5.49541e+06	38.9962
5.52713e+06	38.9962
5.55904e+06	38.9961
5.59114e+06	38.9961
5.62341e+06	38.9961
5.65588e+06	38.9961
5.68853e+06	38.996
5.72137e+06	38.996
5.7544e+06	38.996
5.78762e+06	38.996
5.82103e+06	38.9959
5.85464e+06	38.9959
5.88844e+06	38.9959
5.92243e+06	38.9959
5.95662e+06	38.9958
5.99101e+06	38.9958
6.0256e+06	38.9958
6.06038e+06	38.9958
6.09537e+06	38.9957
6.13056e+06	38.9957
6.16595e+06	38.9957
6.20155e+06	38.9957
6.23735e+06	38.9956
6.27336e+06	38.9956
6.30957e+06	38.9956
6.346e+06	38.9956
6.38263e+06	38.9956
6.41948e+06	38.9955
6.45654e+06	38.9955
6.49382e+06	38.9955
6.53131e+06	38.9955
6.56901e+06	38.9954
6.60693e+06	38.9954
6.64508e+06	38.9954
6.68344e+06	38.9954
6.72202e+06	38.9954
6.76083e+06	38.9953
6.79986e+06	38.9953
6.83912e+06	38.9953
6.8786e+06	38.9953
6.91831e+06	38.9953
6.95825e+06	38.9952
6.99842e+06	38.9952
7.03882e+06	38.9952
7.07946e+06	38.9952
7.12033e+06	38.9952
7.16143e+06	38.9951
7.20278e+06	38.9951
7.24436e+06	38.9951
7.28618e+06	38.9951
7.32825e+06	38.9951
7.37055e+06	38.995
7.4131e+06	38.995
7.4559e+06	38.995
7.49894e+06	38.995
7.54223e+06	38.995
7.58578e+06	38.9949
7.62957e+06	38.9949
7.67361e+06	38.9949
7.71792e+06	38.9949
7.76247e+06	38.9949
7.80728e+06	38.9949
7.85236e+06	38.9948
7.89769e+06	38.9948
7.94328e+06	38.9948
7.98914e+06	38.9948
8.03526e+06	38.9948
8.08165e+06	38.9948
8.12831e+06	38.9947
8.17523e+06	38.9947
8.22243e+06	38.9947
8.2699e+06	38.9947
8.31764e+06	38.9947
8.36566e+06	38.9947
8.41395e+06	38.9947
8.46253e+06	38.9946
8.51138e+06	38.9946
8.56052e+06	38.9946
8.60994e+06	38.9946
8.65964e+06	38.9946
8.70964e+06	38.9946
8.75992e+06	38.9945
8.81049e+06	38.9945
8.86135e+06	38.9945
8.91251e+06	38.9945
8.96396e+06	38.9945
9.01571e+06	38.9945
9.06776e+06	38.9945
9.12011e+06	38.9944
9.17276e+06	38.9944
9.22571e+06	38.9944
9.27897e+06	38.9944
9.33254e+06	38.9944
9.38642e+06	38.9944
9.44061e+06	38.9944
9.49511e+06	38.9944
9.54993e+06	38.9943
9.60506e+06	38.9943
9.66051e+06	38.9943
9.71628e+06	38.9943
9.77237e+06	38.9943
9.82879e+06	38.9943
9.88553e+06	38.9943
9.9426e+06	38.9942
1e+07	38.9942
