Stopping power dEdx from Ionisation for pi+ Z = 0 in G4_TISSUE_SOFT_ICRP, process name: hIoni
E [MeV]	dEdx [MeV/mm]
0.001	44.7922
0.00100577	44.9213
0.00101158	45.0508
0.00101742	45.1806
0.00102329	45.3109
0.0010292	45.4415
0.00103514	45.5724
0.00104112	45.7038
0.00104713	45.8355
0.00105317	45.9676
0.00105925	46.1001
0.00106537	46.233
0.00107152	46.3663
0.00107771	46.4999
0.00108393	46.634
0.00109018	46.7684
0.00109648	46.9032
0.00110281	47.0384
0.00110917	47.1739
0.00111558	47.3099
0.00112202	47.4463
0.0011285	47.583
0.00113501	47.7202
0.00114156	47.8577
0.00114815	47.9957
0.00115478	48.134
0.00116145	48.2728
0.00116815	48.4119
0.0011749	48.5515
0.00118168	48.6914
0.0011885	48.8317
0.00119536	48.9725
0.00120226	49.1137
0.00120921	49.2552
0.00121619	49.3972
0.00122321	49.5396
0.00123027	49.6824
0.00123737	49.8256
0.00124451	49.9692
0.0012517	50.1132
0.00125893	50.2577
0.00126619	50.4025
0.0012735	50.5478
0.00128086	50.6935
0.00128825	50.8396
0.00129569	50.9862
0.00130317	51.1331
0.00131069	51.2805
0.00131826	51.4283
0.00132587	51.5765
0.00133352	51.7252
0.00134122	51.8743
0.00134896	52.0238
0.00135675	52.1738
0.00136458	52.3242
0.00137246	52.475
0.00138038	52.6262
0.00138835	52.7779
0.00139637	52.93
0.00140443	53.0826
0.00141254	53.2356
0.00142069	53.3891
0.00142889	53.5429
0.00143714	53.6973
0.00144544	53.852
0.00145378	54.0073
0.00146218	54.1629
0.00147062	54.3191
0.00147911	54.4756
0.00148765	54.6326
0.00149624	54.7901
0.00150487	54.9326
0.00151356	55.0703
0.0015223	55.2083
0.00153109	55.3465
0.00153993	55.4851
0.00154882	55.6239
0.00155776	55.763
0.00156675	55.9024
0.0015758	56.0421
0.00158489	56.1821
0.00159404	56.3223
0.00160325	56.4628
0.0016125	56.6036
0.00162181	56.7447
0.00163117	56.886
0.00164059	57.0276
0.00165006	57.1696
0.00165959	57.3117
0.00166917	57.4542
0.0016788	57.5969
0.0016885	57.7399
0.00169824	57.8832
0.00170805	58.0268
0.00171791	58.1706
0.00172783	58.3147
0.0017378	58.4591
0.00174783	58.6037
0.00175792	58.7487
0.00176807	58.8939
0.00177828	59.0393
0.00178855	59.1851
0.00179887	59.3311
0.00180926	59.4774
0.0018197	59.6239
0.00183021	59.7707
0.00184077	59.9178
0.0018514	60.0652
0.00186209	60.2128
0.00187284	60.3607
0.00188365	60.5088
0.00189452	60.6573
0.00190546	60.8059
0.00191646	60.9549
0.00192752	61.1041
0.00193865	61.2536
0.00194984	61.4033
0.0019611	61.5533
0.00197242	61.7035
0.00198381	61.854
0.00199526	62.0048
0.00200678	62.1558
0.00201837	62.3071
0.00203002	62.4586
0.00204174	62.6104
0.00205353	62.7625
0.00206538	62.9148
0.0020773	63.0673
0.0020893	63.2201
0.00210136	63.3732
0.00211349	63.5265
0.00212569	63.68
0.00213796	63.8338
0.0021503	63.9878
0.00216272	64.1421
0.0021752	64.2966
0.00218776	64.4514
0.00220039	64.6064
0.00221309	64.7616
0.00222587	64.9171
0.00223872	65.0728
0.00225165	65.2288
0.00226464	65.3849
0.00227772	65.5414
0.00229087	65.698
0.00230409	65.8549
0.00231739	66.012
0.00233077	66.1693
0.00234423	66.3269
0.00235776	66.4847
0.00237137	66.6427
0.00238506	66.8009
0.00239883	66.9594
0.00241268	67.1181
0.00242661	67.2769
0.00244062	67.436
0.00245471	67.5954
0.00246888	67.7549
0.00248313	67.9146
0.00249747	68.0746
0.00251189	68.2347
0.00252639	68.3951
0.00254097	68.5556
0.00255564	68.7164
0.0025704	68.8774
0.00258523	69.0385
0.00260016	69.1999
0.00261517	69.3614
0.00263027	69.5232
0.00264545	69.6851
0.00266073	69.8472
0.00267609	70.0096
0.00269153	70.172
0.00270707	70.3347
0.0027227	70.4976
0.00273842	70.6606
0.00275423	70.8238
0.00277013	70.9872
0.00278612	71.1507
0.00280221	71.3145
0.00281838	71.4784
0.00283465	71.6424
0.00285102	71.8066
0.00286748	71.971
0.00288403	72.1355
0.00290068	72.3002
0.00291743	72.465
0.00293427	72.63
0.00295121	72.7952
0.00296825	72.9604
0.00298538	73.1258
0.00300262	73.2914
0.00301995	73.4571
0.00303739	73.6229
0.00305492	73.7889
0.00307256	73.955
0.0030903	74.1212
0.00310814	74.2875
0.00312608	74.454
0.00314413	74.6205
0.00316228	74.7872
0.00318053	74.954
0.0031989	75.1209
0.00321736	75.2879
0.00323594	75.455
0.00325462	75.6222
0.00327341	75.7895
0.0032923	75.9569
0.00331131	76.1244
0.00333043	76.292
0.00334965	76.4596
0.00336899	76.6273
0.00338844	76.7951
0.003408	76.963
0.00342768	77.1309
0.00344747	77.2989
0.00346737	77.467
0.00348739	77.6351
0.00350752	77.8033
0.00352777	77.9715
0.00354813	78.1398
0.00356862	78.3081
0.00358922	78.4765
0.00360994	78.6449
0.00363078	78.8133
0.00365174	78.9817
0.00367282	79.1502
0.00369403	79.3187
0.00371535	79.4872
0.0037368	79.6557
0.00375837	79.8243
0.00378007	79.9928
0.00380189	80.1613
0.00382384	80.3298
0.00384592	80.4983
0.00386812	80.6668
0.00389045	80.8353
0.00391291	81.0038
0.0039355	81.1722
0.00395822	81.3406
0.00398107	81.5089
0.00400405	81.6773
0.00402717	81.8455
0.00405042	82.0137
0.0040738	82.1819
0.00409732	82.35
0.00412098	82.5181
0.00414477	82.686
0.00416869	82.8539
0.00419276	83.0217
0.00421697	83.1895
0.00424131	83.3571
0.0042658	83.5247
0.00429042	83.6921
0.00431519	83.8595
0.0043401	84.0267
0.00436516	84.1938
0.00439036	84.3608
0.0044157	84.5277
0.0044412	84.6944
0.00446684	84.861
0.00449262	85.0275
0.00451856	85.1938
0.00454465	85.36
0.00457088	85.526
0.00459727	85.6918
0.00462381	85.8575
0.0046505	86.023
0.00467735	86.1883
0.00470435	86.3534
0.00473151	86.5183
0.00475883	86.6831
0.0047863	86.8476
0.00481393	87.0119
0.00484172	87.176
0.00486968	87.3399
0.00489779	87.5036
0.00492606	87.667
0.0049545	87.8302
0.0049831	87.9931
0.00501187	88.1558
0.00504081	88.3182
0.00506991	88.4803
0.00509918	88.6422
0.00512861	88.8038
0.00515822	88.9651
0.005188	89.1261
0.00521795	89.2868
0.00524807	89.4473
0.00527837	89.6074
0.00530884	89.7671
0.00533949	89.9266
0.00537032	90.0857
0.00540132	90.2445
0.0054325	90.403
0.00546387	90.5611
0.00549541	90.7188
0.00552713	90.8762
0.00555904	91.0332
0.00559114	91.1898
0.00562341	91.346
0.00565588	91.5018
0.00568853	91.6573
0.00572137	91.8123
0.0057544	91.9669
0.00578762	92.1211
0.00582103	92.2749
0.00585464	92.4282
0.00588844	92.5811
0.00592243	92.7335
0.00595662	92.8855
0.00599101	93.037
0.0060256	93.1707
0.00606038	93.3025
0.00609537	93.4335
0.00613056	93.5639
0.00616595	93.6935
0.00620155	93.8224
0.00623735	93.9505
0.00627336	94.0779
0.00630957	94.2045
0.006346	94.3304
0.00638263	94.4555
0.00641948	94.5798
0.00645654	94.7033
0.00649382	94.826
0.00653131	94.9478
0.00656901	95.0688
0.00660693	95.189
0.00664508	95.3084
0.00668344	95.4268
0.00672202	95.5444
0.00676083	95.6612
0.00679986	95.777
0.00683912	95.8919
0.0068786	96.006
0.00691831	96.1191
0.00695825	96.2312
0.00699842	96.3425
0.00703882	96.4527
0.00707946	96.562
0.00712033	96.6704
0.00716143	96.7777
0.00720278	96.8841
0.00724436	96.9895
0.00728618	97.0938
0.00732825	97.1971
0.00737055	97.2994
0.0074131	97.4007
0.0074559	97.5008
0.00749894	97.6
0.00754223	97.698
0.00758578	97.795
0.00762957	97.8908
0.00767361	97.9856
0.00771792	98.0792
0.00776247	98.1717
0.00780728	98.2631
0.00785236	98.3533
0.00789769	98.4424
0.00794328	98.5303
0.00798914	98.617
0.00803526	98.7025
0.00808165	98.7868
0.00812831	98.8699
0.00817523	98.9518
0.00822243	99.0325
0.0082699	99.1119
0.00831764	99.1901
0.00836566	99.267
0.00841395	99.3426
0.00846253	99.4169
0.00851138	99.49
0.00856052	99.5617
0.00860994	99.6322
0.00865964	99.7013
0.00870964	99.7691
0.00875992	99.8355
0.00881049	99.9006
0.00886135	99.9643
0.00891251	100.027
0.00896396	100.088
0.00901571	100.147
0.00906776	100.205
0.00912011	100.262
0.00917276	100.318
0.00922571	100.371
0.00927897	100.424
0.00933254	100.475
0.00938642	100.524
0.00944061	100.573
0.00949511	100.619
0.00954993	100.664
0.00960506	100.708
0.00966051	100.75
0.00971628	100.791
0.00977237	100.83
0.00982879	100.867
0.00988553	100.903
0.0099426	100.938
0.01	100.971
0.0100577	101.002
0.0101158	101.032
0.0101742	101.06
0.0102329	101.087
0.010292	101.112
0.0103514	101.135
0.0104112	101.157
0.0104713	101.177
0.0105317	101.196
0.0105925	101.213
0.0106537	101.228
0.0107152	101.242
0.0107771	101.254
0.0108393	101.264
0.0109018	101.273
0.0109648	101.28
0.0110281	101.285
0.0110917	101.288
0.0111558	101.29
0.0112202	101.29
0.011285	101.289
0.0113501	101.286
0.0114156	101.281
0.0114815	101.274
0.0115478	101.266
0.0116145	101.255
0.0116815	101.243
0.011749	101.23
0.0118168	101.214
0.011885	101.197
0.0119536	101.178
0.0120226	101.157
0.0120921	101.135
0.0121619	101.111
0.0122321	101.085
0.0123027	101.057
0.0123737	101.027
0.0124451	100.996
0.012517	100.962
0.0125893	100.927
0.0126619	100.89
0.012735	100.852
0.0128086	100.811
0.0128825	100.769
0.0129569	100.725
0.0130317	100.679
0.0131069	100.631
0.0131826	100.582
0.0132587	100.53
0.0133352	100.477
0.0134122	100.422
0.0134896	100.365
0.0135675	100.307
0.0136458	100.246
0.0137246	100.184
0.0138038	100.12
0.0138835	100.054
0.0139637	99.9857
0.0140443	99.916
0.0141254	99.8445
0.0142069	99.7711
0.0142889	99.696
0.0143714	99.619
0.0144544	99.5402
0.0145378	99.4595
0.0146218	99.377
0.0147062	99.2928
0.0147911	99.2066
0.0148765	99.1187
0.0149624	99.029
0.0150487	98.9374
0.0151356	98.844
0.015223	98.7488
0.0153109	98.6519
0.0153993	98.5531
0.0154882	98.4525
0.0155776	98.3501
0.0156675	98.246
0.015758	98.14
0.0158489	98.0323
0.0159404	97.9228
0.0160325	97.8115
0.016125	97.6985
0.0162181	97.5837
0.0163117	97.4671
0.0164059	97.3489
0.0165006	97.2288
0.0165959	97.107
0.0166917	96.9835
0.016788	96.8583
0.016885	96.7314
0.0169824	96.6027
0.0170805	96.4724
0.0171791	96.3403
0.0172783	96.2066
0.017378	96.0712
0.0174783	95.9341
0.0175792	95.7953
0.0176807	95.6549
0.0177828	95.5129
0.0178855	95.3692
0.0179887	95.2239
0.0180926	95.077
0.018197	94.9285
0.0183021	94.7784
0.0184077	94.6266
0.018514	94.4734
0.0186209	94.3185
0.0187284	94.1621
0.0188365	94.0041
0.0189452	93.8446
0.0190546	93.6836
0.0191646	93.5211
0.0192752	93.357
0.0193865	93.1915
0.0194984	93.0245
0.019611	92.8561
0.0197242	92.6861
0.0198381	92.5148
0.0199526	92.342
0.0200678	92.1678
0.0201837	91.9922
0.0203002	91.8152
0.0204174	91.6368
0.0205353	91.4571
0.0206538	91.276
0.020773	91.0935
0.020893	90.9098
0.0210136	90.7247
0.0211349	90.5384
0.0212569	90.3508
0.0213796	90.1619
0.021503	89.9717
0.0216272	89.7803
0.021752	89.5877
0.0218776	89.3939
0.0220039	89.1989
0.0221309	89.0027
0.0222587	88.8054
0.0223872	88.6069
0.0225165	88.4072
0.0226464	88.2065
0.0227772	88.0047
0.0229087	87.8017
0.0230409	87.5977
0.0231739	87.3927
0.0233077	87.1866
0.0234423	86.9795
0.0235776	86.7714
0.0237137	86.5623
0.0238506	86.3523
0.0239883	86.1412
0.0241268	85.9293
0.0242661	85.7164
0.0244062	85.5026
0.0245471	85.288
0.0246888	85.0724
0.0248313	84.856
0.0249747	84.6388
0.0251189	84.4207
0.0252639	84.2019
0.0254097	83.9822
0.0255564	83.7618
0.025704	83.5406
0.0258523	83.3187
0.0260016	83.0961
0.0261517	82.8728
0.0263027	82.6488
0.0264545	82.4241
0.0266073	82.1988
0.0267609	81.9728
0.0269153	81.7462
0.0270707	81.519
0.027227	81.2913
0.0273842	81.0629
0.0275423	80.834
0.0277013	80.6046
0.0278612	80.3747
0.0280221	80.1443
0.0281838	79.9134
0.0283465	79.682
0.0285102	79.4502
0.0286748	79.2179
0.0288403	78.9853
0.0290068	78.7522
0.0291743	78.5188
0.0293427	78.285
0.0295121	78.0508
0.0296825	77.8163
0.0298538	77.5815
0.0300262	77.3464
0.0301995	77.111
0.0303739	76.8754
0.0305492	76.6395
0.0307256	76.4033
0.030903	76.167
0.0310814	75.9304
0.0312608	75.6937
0.0314413	75.4567
0.0316228	75.2197
0.0318053	74.9825
0.031989	74.7451
0.0321736	74.5077
0.0323594	74.2701
0.0325462	74.0325
0.0327341	73.7948
0.032923	73.557
0.0331131	73.3192
0.0333043	73.0814
0.0334965	72.8436
0.0336899	72.6058
0.0338844	72.368
0.03408	72.1302
0.0342768	71.8925
0.0344747	71.6549
0.0346737	71.4173
0.0348739	71.1798
0.0350752	70.9424
0.0352777	70.7052
0.0354813	70.468
0.0356862	70.231
0.0358922	69.9942
0.0360994	69.7575
0.0363078	69.521
0.0365174	69.2846
0.0367282	69.0485
0.0369403	68.8126
0.0371535	68.5769
0.037368	68.3415
0.0375837	68.1063
0.0378007	67.8714
0.0380189	67.6367
0.0382384	67.4023
0.0384592	67.1682
0.0386812	66.9344
0.0389045	66.7009
0.0391291	66.4678
0.039355	66.235
0.0395822	66.0025
0.0398107	65.7704
0.0400405	65.5386
0.0402717	65.3072
0.0405042	65.0762
0.040738	64.8456
0.0409732	64.6154
0.0412098	64.3856
0.0414477	64.1562
0.0416869	63.9272
0.0419276	63.6987
0.0421697	63.4706
0.0424131	63.2429
0.042658	63.0157
0.0429042	62.789
0.0431519	62.5628
0.043401	62.337
0.0436516	62.1117
0.0439036	61.8869
0.044157	61.6626
0.044412	61.4389
0.0446684	61.2156
0.0449262	60.9929
0.0451856	60.7706
0.0454465	60.549
0.0457088	60.3278
0.0459727	60.1072
0.0462381	59.8872
0.046505	59.6677
0.0467735	59.4487
0.0470435	59.2304
0.0473151	59.0126
0.0475883	58.7953
0.047863	58.5787
0.0481393	58.3626
0.0484172	58.1472
0.0486968	57.9323
0.0489779	57.718
0.0492606	57.5043
0.049545	57.2912
0.049831	57.0788
0.0501187	56.8669
0.0504081	56.6557
0.0506991	56.4451
0.0509918	56.2351
0.0512861	56.0257
0.0515822	55.817
0.05188	55.6088
0.0521795	55.4014
0.0524807	55.1945
0.0527837	54.9883
0.0530884	54.7828
0.0533949	54.5778
0.0537032	54.3736
0.0540132	54.1699
0.054325	53.9669
0.0546387	53.7646
0.0549541	53.5629
0.0552713	53.3619
0.0555904	53.1615
0.0559114	52.9618
0.0562341	52.7627
0.0565588	52.5643
0.0568853	52.3666
0.0572137	52.1695
0.057544	51.9731
0.0578762	51.7773
0.0582103	51.5822
0.0585464	51.3878
0.0588844	51.194
0.0592243	51.0009
0.0595662	50.8084
0.0599101	50.6167
0.060256	50.4255
0.0606038	50.2351
0.0609537	50.0453
0.0613056	49.8561
0.0616595	49.6676
0.0620155	49.4798
0.0623735	49.2927
0.0627336	49.1062
0.0630957	48.9204
0.06346	48.7352
0.0638263	48.5507
0.0641948	48.3668
0.0645654	48.1836
0.0649382	48.0011
0.0653131	47.8192
0.0656901	47.638
0.0660693	47.4574
0.0664508	47.2775
0.0668344	47.0982
0.0672202	46.9196
0.0676083	46.7416
0.0679986	46.5643
0.0683912	46.3876
0.068786	46.2116
0.0691831	46.0362
0.0695825	45.8614
0.0699842	45.6873
0.0703882	45.5138
0.0707946	45.341
0.0712033	45.1688
0.0716143	44.9972
0.0720278	44.8263
0.0724436	44.656
0.0728618	44.4863
0.0732825	44.3172
0.0737055	44.1488
0.074131	43.981
0.074559	43.8138
0.0749894	43.6472
0.0754223	43.4812
0.0758578	43.3159
0.0762957	43.1512
0.0767361	42.987
0.0771792	42.8235
0.0776247	42.6606
0.0780728	42.4983
0.0785236	42.3366
0.0789769	42.1755
0.0794328	42.015
0.0798914	41.8551
0.0803526	41.6957
0.0808165	41.537
0.0812831	41.3789
0.0817523	41.2213
0.0822243	41.0643
0.082699	40.9079
0.0831764	40.7521
0.0836566	40.5969
0.0841395	40.4422
0.0846253	40.2881
0.0851138	40.1346
0.0856052	39.9816
0.0860994	39.8292
0.0865964	39.6774
0.0870964	39.5261
0.0875992	39.3754
0.0881049	39.2252
0.0886135	39.0756
0.0891251	38.9266
0.0896396	38.778
0.0901571	38.6301
0.0906776	38.4827
0.0912011	38.3358
0.0917276	38.1894
0.0922571	38.0436
0.0927897	37.8983
0.0933254	37.7536
0.0938642	37.6094
0.0944061	37.4657
0.0949511	37.3225
0.0954993	37.1799
0.0960506	37.0378
0.0966051	36.8962
0.0971628	36.7551
0.0977237	36.6145
0.0982879	36.4745
0.0988553	36.3349
0.099426	36.1959
0.1	36.0573
0.100577	35.9193
0.101158	35.7817
0.101742	35.6447
0.102329	35.5081
0.10292	35.3721
0.103514	35.2365
0.104112	35.1014
0.104713	34.9668
0.105317	34.8327
0.105925	34.6991
0.106537	34.5659
0.107152	34.4332
0.107771	34.301
0.108393	34.1693
0.109018	34.038
0.109648	33.9073
0.110281	33.7769
0.110917	33.6471
0.111558	33.5177
0.112202	33.3887
0.11285	33.2603
0.113501	33.1322
0.114156	33.0047
0.114815	32.8776
0.115478	32.7509
0.116145	32.6247
0.116815	32.4989
0.11749	32.3736
0.118168	32.2487
0.11885	32.1243
0.119536	32.0002
0.120226	31.8767
0.120921	31.7535
0.121619	31.6308
0.122321	31.5086
0.123027	31.3867
0.123737	31.2653
0.124451	31.1443
0.12517	31.0238
0.125893	30.9036
0.126619	30.7839
0.12735	30.6646
0.128086	30.5457
0.128825	30.4272
0.129569	30.3092
0.130317	30.1915
0.131069	30.0743
0.131826	29.9575
0.132587	29.841
0.133352	29.725
0.134122	29.6094
0.134896	29.4942
0.135675	29.3794
0.136458	29.265
0.137246	29.1509
0.138038	29.0373
0.138835	28.9241
0.139637	28.8112
0.140443	28.6988
0.141254	28.5867
0.142069	28.4751
0.142889	28.3638
0.143714	28.2529
0.144544	28.1423
0.145378	28.0322
0.146218	27.9224
0.147062	27.8131
0.147911	27.7041
0.148765	27.5954
0.149624	27.4872
0.150487	27.3793
0.151356	27.2718
0.15223	27.1647
0.153109	27.0579
0.153993	26.9515
0.154882	26.8454
0.155776	26.7398
0.156675	26.6345
0.15758	26.5295
0.158489	26.4249
0.159404	26.3207
0.160325	26.2168
0.16125	26.1133
0.162181	26.0102
0.163117	25.9074
0.164059	25.8049
0.165006	25.7028
0.165959	25.6011
0.166917	25.4997
0.16788	25.3986
0.16885	25.2979
0.169824	25.1976
0.170805	25.0976
0.171791	24.9979
0.172783	24.8986
0.17378	24.7996
0.174783	24.701
0.175792	24.6027
0.176807	24.5047
0.177828	24.4071
0.178855	24.3098
0.179887	24.2128
0.180926	24.1162
0.18197	24.0199
0.183021	23.9239
0.184077	23.8283
0.18514	23.733
0.186209	23.638
0.187284	23.5434
0.188365	23.4491
0.189452	23.3551
0.190546	23.2614
0.191646	23.1681
0.192752	23.0751
0.193865	22.9823
0.194984	22.89
0.19611	22.7979
0.197242	22.7062
0.198381	22.6147
0.199526	22.5236
0.200678	22.4328
0.201837	22.3423
0.203002	22.2522
0.204174	22.1623
0.205353	22.0728
0.206538	21.9835
0.20773	21.8946
0.20893	21.806
0.210136	21.7177
0.211349	21.6297
0.212569	21.542
0.213796	21.4546
0.21503	21.3675
0.216272	21.2807
0.21752	21.1942
0.218776	21.1081
0.220039	21.0222
0.221309	20.9366
0.222587	20.8513
0.223872	20.7663
0.225165	20.6817
0.226464	20.5973
0.227772	20.5132
0.229087	20.4294
0.230409	20.3459
0.231739	20.2627
0.233077	20.1797
0.234423	20.0971
0.235776	20.0148
0.237137	19.9327
0.238506	19.851
0.239883	19.7695
0.241268	19.6883
0.242661	19.6074
0.244062	19.5268
0.245471	19.4465
0.246888	19.3664
0.248313	19.2867
0.249747	19.2072
0.251189	19.128
0.252639	19.0491
0.254097	18.9704
0.255564	18.8921
0.25704	18.814
0.258523	18.7362
0.260016	18.6587
0.261517	18.5814
0.263027	18.5044
0.264545	18.4277
0.266073	18.3513
0.267609	18.2752
0.269153	18.1993
0.270707	18.1237
0.27227	18.0483
0.273842	17.9733
0.275423	17.8985
0.277013	17.824
0.278612	17.7497
0.280221	17.6757
0.281838	17.602
0.283465	17.5285
0.285102	17.4553
0.286748	17.3824
0.288403	17.3097
0.290068	17.2373
0.291743	17.1652
0.293427	17.0933
0.295121	17.0217
0.296825	16.9503
0.298538	16.8771
0.300262	16.8028
0.301995	16.7288
0.303739	16.6552
0.305492	16.5818
0.307256	16.5087
0.30903	16.436
0.310814	16.3645
0.312608	16.2923
0.314413	16.2205
0.316228	16.1489
0.318053	16.0776
0.31989	16.0066
0.321736	15.9359
0.323594	15.8655
0.325462	15.7954
0.327341	15.7256
0.32923	15.6561
0.331131	15.5868
0.333043	15.5199
0.334965	15.4519
0.336899	15.3835
0.338844	15.3153
0.3408	15.2475
0.342768	15.1799
0.344747	15.1127
0.346737	15.0457
0.348739	14.979
0.350752	14.9125
0.352777	14.8464
0.354813	14.7805
0.356862	14.7149
0.358922	14.6495
0.360994	14.5845
0.363078	14.5197
0.365174	14.4636
0.367282	14.3993
0.369403	14.3351
0.371535	14.2713
0.37368	14.1793
0.375837	14.1156
0.378007	14.0548
0.380189	13.9916
0.382384	13.9287
0.384592	13.866
0.386812	13.8037
0.389045	13.7417
0.391291	13.6799
0.39355	13.6184
0.395822	13.5571
0.398107	13.4961
0.400405	13.4354
0.402717	13.3749
0.405042	13.3146
0.40738	13.2546
0.409732	13.1949
0.412098	13.1354
0.414477	13.0762
0.416869	13.0172
0.419276	12.9585
0.421697	12.9
0.424131	12.8418
0.42658	12.7838
0.429042	12.726
0.431519	12.6685
0.43401	12.6113
0.436516	12.5542
0.439036	12.4975
0.44157	12.4409
0.44412	12.3924
0.446684	12.3363
0.449262	12.2805
0.451856	12.2248
0.454465	12.1694
0.457088	12.1143
0.459727	12.0594
0.462381	12.0047
0.46505	11.9502
0.467735	11.896
0.470435	11.842
0.473151	11.7882
0.475883	11.7347
0.47863	11.6814
0.481393	11.6283
0.484172	11.5754
0.486968	11.5228
0.489779	11.4704
0.492606	11.4182
0.49545	11.3663
0.49831	11.3145
0.501187	11.263
0.504081	11.2122
0.506991	11.1611
0.509918	11.1103
0.512861	11.0596
0.515822	11.0092
0.5188	10.959
0.521795	10.909
0.524807	10.8601
0.527837	10.8116
0.530884	10.7634
0.533949	10.7153
0.537032	10.6675
0.540132	10.6198
0.54325	10.5723
0.546387	10.5251
0.549541	10.478
0.552713	10.4311
0.555904	10.3844
0.559114	10.3379
0.562341	10.2916
0.565588	10.2454
0.568853	10.1995
0.572137	10.1537
0.57544	10.1082
0.578762	10.0628
0.582103	10.0176
0.585464	9.97257
0.588844	9.92775
0.592243	9.88312
0.595662	9.83867
0.599101	9.7944
0.60256	9.75032
0.606038	9.70641
0.609537	9.66537
0.613056	9.62178
0.616595	9.57838
0.620155	9.53517
0.623735	9.49212
0.627336	9.44926
0.630957	9.40659
0.6346	9.36408
0.638263	9.32176
0.641948	9.27961
0.645654	9.23764
0.649382	9.19584
0.653131	9.15422
0.656901	9.11278
0.660693	9.07152
0.664508	9.03043
0.668344	8.99561
0.672202	8.95479
0.676083	8.91415
0.679986	8.87368
0.683912	8.83338
0.68786	8.79325
0.691831	8.75329
0.695825	8.7135
0.699842	8.67389
0.703882	8.63444
0.707946	8.59516
0.712033	8.55605
0.716143	8.5171
0.720278	8.47833
0.724436	8.43972
0.728618	8.40127
0.732825	8.36299
0.737055	8.32488
0.74131	8.28693
0.74559	8.24915
0.749894	8.21153
0.754223	8.17406
0.758578	8.13676
0.762957	8.09962
0.767361	8.06264
0.771792	8.02582
0.776247	7.98916
0.780728	7.95265
0.785236	7.91631
0.789769	7.88013
0.794328	7.8441
0.798914	7.80822
0.803526	7.7725
0.808165	7.73694
0.812831	7.70153
0.817523	7.66628
0.822243	7.63118
0.82699	7.59623
0.831764	7.56144
0.836566	7.5268
0.841395	7.4923
0.846253	7.45811
0.851138	7.42392
0.856052	7.39145
0.860994	7.35753
0.865964	7.32376
0.870964	7.29014
0.875992	7.25666
0.881049	7.22331
0.886135	7.19013
0.891251	7.15709
0.896396	7.1242
0.901571	7.09145
0.906776	7.05885
0.912011	7.02638
0.917276	6.99406
0.922571	6.96189
0.927897	6.92985
0.933254	6.89796
0.938642	6.8662
0.944061	6.83459
0.949511	6.80311
0.954993	6.77178
0.960506	6.74058
0.966051	6.70952
0.971628	6.6786
0.977237	6.64782
0.982879	6.61717
0.988553	6.58665
0.99426	6.55628
1	6.52604
1.00577	6.49593
1.01158	6.46595
1.01742	6.43611
1.02329	6.4064
1.0292	6.37682
1.03514	6.34738
1.04112	6.31806
1.04713	6.28888
1.05317	6.25982
1.05925	6.2309
1.06537	6.20211
1.07152	6.17344
1.07771	6.1449
1.08393	6.11648
1.09018	6.0882
1.09648	6.06004
1.10281	6.03201
1.10917	6.0041
1.11558	5.97826
1.12202	5.95056
1.1285	5.92299
1.13501	5.89554
1.14156	5.86822
1.14815	5.84102
1.15478	5.81394
1.16145	5.78698
1.16815	5.76014
1.1749	5.73342
1.18168	5.70683
1.1885	5.68044
1.19536	5.65408
1.20226	5.62783
1.20921	5.60171
1.21619	5.5757
1.22321	5.54981
1.23027	5.52405
1.23737	5.4984
1.24451	5.47287
1.2517	5.44745
1.25893	5.42214
1.26619	5.39695
1.2735	5.37187
1.28086	5.34691
1.28825	5.32205
1.29569	5.29732
1.30317	5.27269
1.31069	5.24817
1.31826	5.22376
1.32587	5.19946
1.33352	5.17528
1.34122	5.1512
1.34896	5.12723
1.35675	5.10337
1.36458	5.07962
1.37246	5.05597
1.38038	5.03244
1.38835	5.00901
1.39637	4.98568
1.40443	4.96246
1.41254	4.93935
1.42069	4.91634
1.42889	4.89343
1.43714	4.87063
1.44544	4.84793
1.45378	4.82534
1.46218	4.80285
1.47062	4.78046
1.47911	4.75817
1.48765	4.73598
1.49624	4.7139
1.50487	4.69191
1.51356	4.67003
1.5223	4.64824
1.53109	4.62655
1.53993	4.60497
1.54882	4.58348
1.55776	4.56209
1.56675	4.54079
1.5758	4.52074
1.58489	4.49962
1.59404	4.4786
1.60325	4.45768
1.6125	4.43685
1.62181	4.41611
1.63117	4.39547
1.64059	4.37493
1.65006	4.35448
1.65959	4.33412
1.66917	4.31386
1.6788	4.29369
1.6885	4.27361
1.69824	4.25362
1.70805	4.23373
1.71791	4.21393
1.72783	4.19421
1.7378	4.17459
1.74783	4.15506
1.75792	4.13562
1.76807	4.11627
1.77828	4.09701
1.78855	4.07783
1.79887	4.05874
1.80926	4.03975
1.8197	4.02084
1.83021	4.00201
1.84077	3.98327
1.8514	3.96462
1.86209	3.94606
1.87284	3.92758
1.88365	3.90919
1.89452	3.89088
1.90546	3.87266
1.91646	3.85452
1.92752	3.83646
1.93865	3.81849
1.94984	3.8006
1.9611	3.78279
1.97242	3.76507
1.98381	3.74743
1.99526	3.72986
2.00678	3.71239
2.01837	3.69499
2.03002	3.67767
2.04174	3.66043
2.05353	3.64327
2.06538	3.6262
2.0773	3.6092
2.0893	3.59228
2.10136	3.57544
2.11349	3.55867
2.12569	3.54199
2.13796	3.52538
2.1503	3.50885
2.16272	3.4924
2.1752	3.47602
2.18776	3.45972
2.20039	3.44349
2.21309	3.42734
2.22587	3.41127
2.23872	3.39527
2.25165	3.37934
2.26464	3.36349
2.27772	3.34772
2.29087	3.33202
2.30409	3.31639
2.31739	3.30084
2.33077	3.28536
2.34423	3.26995
2.35776	3.25461
2.37137	3.23935
2.38506	3.22415
2.39883	3.20903
2.41268	3.19398
2.42661	3.179
2.44062	3.16408
2.45471	3.14924
2.46888	3.13447
2.48313	3.11976
2.49747	3.10513
2.51189	3.09056
2.52639	3.07606
2.54097	3.06163
2.55564	3.04727
2.5704	3.03297
2.58523	3.01874
2.60016	3.00458
2.61517	2.99048
2.63027	2.97645
2.64545	2.96249
2.66073	2.94859
2.67609	2.93475
2.69153	2.92098
2.70707	2.90728
2.7227	2.89364
2.73842	2.88006
2.75423	2.86655
2.77013	2.8531
2.78612	2.83971
2.80221	2.82639
2.81838	2.81313
2.83465	2.79993
2.85102	2.78679
2.86748	2.77372
2.88403	2.76071
2.90068	2.74776
2.91743	2.73486
2.93427	2.72203
2.95121	2.70926
2.96825	2.69656
2.98538	2.68391
3.00262	2.67132
3.01995	2.65879
3.03739	2.64631
3.05492	2.6339
3.07256	2.62155
3.0903	2.60925
3.10814	2.59701
3.12608	2.58483
3.14413	2.57271
3.16228	2.56065
3.18053	2.54864
3.1989	2.53669
3.21736	2.52479
3.23594	2.51296
3.25462	2.50117
3.27341	2.48945
3.2923	2.47778
3.31131	2.46616
3.33043	2.4546
3.34965	2.44309
3.36899	2.43164
3.38844	2.42025
3.408	2.4089
3.42768	2.39761
3.44747	2.38638
3.46737	2.3752
3.48739	2.36407
3.50752	2.35299
3.52777	2.34197
3.54813	2.33099
3.56862	2.32007
3.58922	2.30921
3.60994	2.29839
3.63078	2.28763
3.65174	2.27691
3.67282	2.26625
3.69403	2.25564
3.71535	2.24508
3.7368	2.23457
3.75837	2.22411
3.78007	2.2137
3.80189	2.20334
3.82384	2.19302
3.84592	2.18276
3.86812	2.17255
3.89045	2.16238
3.91291	2.15227
3.9355	2.1422
3.95822	2.13218
3.98107	2.12221
4.00405	2.11228
4.02717	2.1024
4.05042	2.09258
4.0738	2.08279
4.09732	2.07306
4.12098	2.06337
4.14477	2.05373
4.16869	2.04413
4.19276	2.03458
4.21697	2.02507
4.24131	2.01561
4.2658	2.0062
4.29042	1.99683
4.31519	1.9875
4.3401	1.97823
4.36516	1.96899
4.39036	1.9598
4.4157	1.95065
4.4412	1.94155
4.46684	1.93249
4.49262	1.92348
4.51856	1.9145
4.54465	1.90557
4.57088	1.89669
4.59727	1.88784
4.62381	1.87904
4.6505	1.87028
4.67735	1.86157
4.70435	1.85289
4.73151	1.84426
4.75883	1.83567
4.7863	1.82712
4.81393	1.81861
4.84172	1.81014
4.86968	1.80172
4.89779	1.79333
4.92606	1.78498
4.9545	1.77668
4.9831	1.76841
5.01187	1.76019
5.04081	1.752
5.06991	1.74385
5.09918	1.73575
5.12861	1.72768
5.15822	1.71965
5.188	1.71166
5.21795	1.70371
5.24807	1.69579
5.27837	1.68792
5.30884	1.68008
5.33949	1.67228
5.37032	1.66452
5.40132	1.6568
5.4325	1.64911
5.46387	1.64146
5.49541	1.63385
5.52713	1.62628
5.55904	1.61874
5.59114	1.61124
5.62341	1.60377
5.65588	1.59634
5.68853	1.58895
5.72137	1.58159
5.7544	1.57427
5.78762	1.56698
5.82103	1.55973
5.85464	1.55252
5.88844	1.54534
5.92243	1.53819
5.95662	1.53108
5.99101	1.52401
6.0256	1.51696
6.06038	1.50996
6.09537	1.50298
6.13056	1.49604
6.16595	1.48914
6.20155	1.48227
6.23735	1.47543
6.27336	1.46862
6.30957	1.46185
6.346	1.45511
6.38263	1.44841
6.41948	1.44173
6.45654	1.43509
6.49382	1.42848
6.53131	1.42191
6.56901	1.41536
6.60693	1.40885
6.64508	1.40237
6.68344	1.39592
6.72202	1.3895
6.76083	1.38312
6.79986	1.37676
6.83912	1.37044
6.8786	1.36415
6.91831	1.35789
6.95825	1.35165
6.99842	1.34545
7.03882	1.33928
7.07946	1.33314
7.12033	1.32703
7.16143	1.32095
7.20278	1.3149
7.24436	1.30888
7.28618	1.30289
7.32825	1.29693
7.37055	1.291
7.4131	1.2851
7.4559	1.27922
7.49894	1.27338
7.54223	1.26756
7.58578	1.26177
7.62957	1.25601
7.67361	1.25028
7.71792	1.24458
7.76247	1.2389
7.80728	1.23325
7.85236	1.22763
7.89769	1.22204
7.94328	1.21648
7.98914	1.21094
8.03526	1.20543
8.08165	1.19995
8.12831	1.19449
8.17523	1.18907
8.22243	1.18366
8.2699	1.17829
8.31764	1.17294
8.36566	1.16762
8.41395	1.16232
8.46253	1.15705
8.51138	1.15181
8.56052	1.14659
8.60994	1.1414
8.65964	1.13623
8.70964	1.13109
8.75992	1.12598
8.81049	1.12089
8.86135	1.11582
8.91251	1.11078
8.96396	1.10577
9.01571	1.10078
9.06776	1.09581
9.12011	1.09087
9.17276	1.08596
9.22571	1.08106
9.27897	1.0762
9.33254	1.07135
9.38642	1.06653
9.44061	1.06174
9.49511	1.05697
9.54993	1.05222
9.60506	1.04749
9.66051	1.04279
9.71628	1.03812
9.77237	1.03346
9.82879	1.02883
9.88553	1.02422
9.9426	1.01964
10	1.01507
10.0577	1.01053
10.1158	1.00602
10.1742	1.00152
10.2329	0.997051
10.292	0.992601
10.3514	0.988174
10.4112	0.983768
10.4713	0.979385
10.5317	0.975023
10.5925	0.970683
10.6537	0.966365
10.7152	0.962068
10.7771	0.957793
10.8393	0.953539
10.9018	0.949306
10.9648	0.945095
11.0281	0.940905
11.0917	0.936735
11.1558	0.932587
11.2202	0.928459
11.285	0.924352
11.3501	0.920265
11.4156	0.916199
11.4815	0.912154
11.5478	0.908128
11.6145	0.904123
11.6815	0.900138
11.749	0.896173
11.8168	0.892228
11.885	0.888302
11.9536	0.884397
12.0226	0.880511
12.0921	0.876644
12.1619	0.872797
12.2321	0.868969
12.3027	0.865161
12.3737	0.861371
12.4451	0.857601
12.517	0.85385
12.5893	0.850118
12.6619	0.846404
12.735	0.842709
12.8086	0.839033
12.8825	0.835375
12.9569	0.831736
13.0317	0.828115
13.1069	0.824513
13.1826	0.820928
13.2587	0.817362
13.3352	0.813814
13.4122	0.810283
13.4896	0.806771
13.5675	0.803276
13.6458	0.799799
13.7246	0.79634
13.8038	0.792898
13.8835	0.789473
13.9637	0.786066
14.0443	0.782676
14.1254	0.779304
14.2069	0.775948
14.2889	0.77261
14.3714	0.769288
14.4544	0.765983
14.5378	0.762695
14.6218	0.759424
14.7062	0.756169
14.7911	0.752931
14.8765	0.74971
14.9624	0.746504
15.0487	0.743315
15.1356	0.740143
15.223	0.736986
15.3109	0.733846
15.3993	0.730721
15.4882	0.727613
15.5776	0.72452
15.6675	0.721443
15.758	0.718382
15.8489	0.715336
15.9404	0.712306
16.0325	0.709292
16.125	0.706293
16.2181	0.703309
16.3117	0.70034
16.4059	0.697387
16.5006	0.694449
16.5959	0.691525
16.6917	0.688617
16.788	0.685724
16.885	0.682845
16.9824	0.679982
17.0805	0.677133
17.1791	0.674298
17.2783	0.671478
17.378	0.668673
17.4783	0.665882
17.5792	0.663105
17.6807	0.660343
17.7828	0.657595
17.8855	0.654861
17.9887	0.652141
18.0926	0.649435
18.197	0.646743
18.3021	0.644065
18.4077	0.6414
18.514	0.63875
18.6209	0.636113
18.7284	0.63349
18.8365	0.63088
18.9452	0.628284
19.0546	0.625701
19.1646	0.623132
19.2752	0.620575
19.3865	0.618032
19.4984	0.615503
19.611	0.612986
19.7242	0.610482
19.8381	0.607992
19.9526	0.605514
20.0678	0.603049
20.1837	0.600597
20.3002	0.598158
20.4174	0.595731
20.5353	0.593317
20.6538	0.590916
20.773	0.588527
20.893	0.58615
21.0136	0.583786
21.1349	0.581434
21.2569	0.579094
21.3796	0.576767
21.503	0.574452
21.6272	0.572149
21.752	0.569857
21.8776	0.567578
22.0039	0.565311
22.1309	0.563055
22.2587	0.560812
22.3872	0.55858
22.5165	0.55636
22.6464	0.554151
22.7772	0.551954
22.9087	0.549769
23.0409	0.547595
23.1739	0.545432
23.3077	0.543281
23.4423	0.541141
23.5776	0.539013
23.7137	0.536895
23.8506	0.534789
23.9883	0.532694
24.1268	0.530609
24.2661	0.528536
24.4062	0.526474
24.5471	0.524423
24.6888	0.522382
24.8313	0.520352
24.9747	0.518333
25.1189	0.516325
25.2639	0.514327
25.4097	0.51234
25.5564	0.510363
25.704	0.508397
25.8523	0.506442
26.0016	0.504496
26.1517	0.502561
26.3027	0.500636
26.4545	0.498722
26.6073	0.496818
26.7609	0.494923
26.9153	0.493039
27.0707	0.491165
27.227	0.489301
27.3842	0.487447
27.5423	0.485603
27.7013	0.483768
27.8612	0.481944
28.0221	0.480129
28.1838	0.478324
28.3465	0.476528
28.5102	0.474742
28.6748	0.472966
28.8403	0.471199
29.0068	0.469442
29.1743	0.467694
29.3427	0.465956
29.5121	0.464227
29.6825	0.462507
29.8538	0.460796
30.0262	0.459095
30.1995	0.457403
30.3739	0.45572
30.5492	0.454046
30.7256	0.452381
30.903	0.450725
31.0814	0.449078
31.2608	0.44744
31.4413	0.445811
31.6228	0.444191
31.8053	0.442579
31.989	0.440976
32.1736	0.439382
32.3594	0.437797
32.5462	0.43622
32.7341	0.434652
32.923	0.433092
33.1131	0.431541
33.3043	0.429998
33.4965	0.428464
33.6899	0.426938
33.8844	0.42542
34.08	0.423911
34.2768	0.42241
34.4747	0.420917
34.6737	0.419432
34.8739	0.417956
35.0752	0.416488
35.2777	0.415027
35.4813	0.413575
35.6862	0.412131
35.8922	0.410695
36.0994	0.409266
36.3078	0.407846
36.5174	0.406433
36.7282	0.405028
36.9403	0.403631
37.1535	0.402242
37.368	0.40086
37.5837	0.399486
37.8007	0.39812
38.0189	0.396761
38.2384	0.39541
38.4592	0.394066
38.6812	0.39273
38.9045	0.391401
39.1291	0.390079
39.355	0.388765
39.5822	0.387459
39.8107	0.386159
40.0405	0.384867
40.2717	0.383583
40.5042	0.382305
40.738	0.381034
40.9732	0.379771
41.2098	0.378515
41.4477	0.377266
41.6869	0.376024
41.9276	0.374789
42.1697	0.37356
42.4131	0.372339
42.658	0.371125
42.9042	0.369918
43.1519	0.368717
43.401	0.367523
43.6516	0.366336
43.9036	0.365156
44.157	0.363982
44.412	0.362816
44.6684	0.361655
44.9262	0.360502
45.1856	0.359355
45.4465	0.358215
45.7088	0.357081
45.9727	0.355953
46.2381	0.354832
46.505	0.353718
46.7735	0.35261
47.0435	0.351508
47.3151	0.350413
47.5883	0.349324
47.863	0.348241
48.1393	0.347165
48.4172	0.346094
48.6968	0.34503
48.9779	0.343972
49.2606	0.342921
49.545	0.341875
49.831	0.340836
50.1187	0.339802
50.4081	0.338775
50.6991	0.337753
50.9918	0.336738
51.2861	0.335728
51.5822	0.334725
51.88	0.333727
52.1795	0.332735
52.4807	0.331749
52.7837	0.330769
53.0884	0.329795
53.3949	0.328826
53.7032	0.327863
54.0132	0.326906
54.325	0.325954
54.6387	0.325008
54.9541	0.324068
55.2713	0.323133
55.5904	0.322204
55.9114	0.321281
56.2341	0.320363
56.5588	0.31945
56.8853	0.318543
57.2137	0.317642
57.544	0.316745
57.8762	0.315855
58.2103	0.314969
58.5464	0.314089
58.8844	0.313214
59.2243	0.312345
59.5662	0.311481
59.9101	0.310622
60.256	0.309768
60.6038	0.308919
60.9537	0.308076
61.3056	0.307238
61.6595	0.306405
62.0155	0.305577
62.3735	0.304754
62.7336	0.303936
63.0957	0.303123
63.46	0.302315
63.8263	0.301512
64.1948	0.300715
64.5654	0.299922
64.9382	0.299134
65.3131	0.298351
65.6901	0.297572
66.0693	0.296799
66.4508	0.29603
66.8344	0.295267
67.2202	0.294508
67.6083	0.293753
67.9986	0.293004
68.3912	0.292259
68.786	0.291519
69.1831	0.290784
69.5825	0.290053
69.9842	0.289327
70.3882	0.288606
70.7946	0.287889
71.2033	0.287176
71.6143	0.286469
72.0278	0.285765
72.4436	0.285067
72.8618	0.284373
73.2825	0.283683
73.7055	0.282997
74.131	0.282317
74.559	0.28164
74.9894	0.280968
75.4223	0.2803
75.8578	0.279637
76.2957	0.278978
76.7361	0.278323
77.1792	0.277673
77.6247	0.277026
78.0728	0.276384
78.5236	0.275747
78.9769	0.275113
79.4328	0.274484
79.8914	0.273859
80.3526	0.273238
80.8165	0.272621
81.2831	0.272008
81.7523	0.271399
82.2243	0.270795
82.699	0.270194
83.1764	0.269598
83.6566	0.269005
84.1395	0.268417
84.6253	0.267832
85.1138	0.267252
85.6052	0.266675
86.0994	0.266103
86.5964	0.265534
87.0964	0.264969
87.5992	0.264408
88.1049	0.263851
88.6135	0.263298
89.1251	0.262748
89.6396	0.262203
90.1571	0.261661
90.6776	0.261123
91.2011	0.260589
91.7276	0.260058
92.2571	0.259531
92.7897	0.259008
93.3254	0.258489
93.8642	0.257973
94.4061	0.257461
94.9511	0.256952
95.4993	0.256448
96.0506	0.255946
96.6051	0.255449
97.1628	0.254955
97.7237	0.254464
98.2879	0.253977
98.8553	0.253494
99.426	0.253014
100	0.252538
100.577	0.252065
101.158	0.251595
101.742	0.251129
102.329	0.250667
102.92	0.250207
103.514	0.249752
104.112	0.249299
104.713	0.24885
105.317	0.248404
105.925	0.247962
106.537	0.247523
107.152	0.247087
107.771	0.246655
108.393	0.246226
109.018	0.2458
109.648	0.245377
110.281	0.244958
110.917	0.244542
111.558	0.244129
112.202	0.243719
112.85	0.243313
113.501	0.242909
114.156	0.242509
114.815	0.242112
115.478	0.241718
116.145	0.241327
116.815	0.240939
117.49	0.240555
118.168	0.240173
118.85	0.239794
119.536	0.239419
120.226	0.239046
120.921	0.238677
121.619	0.23831
122.321	0.237947
123.027	0.237586
123.737	0.237229
124.451	0.236874
125.17	0.236522
125.893	0.236173
126.619	0.235827
127.35	0.235484
128.086	0.235144
128.825	0.234807
129.569	0.234473
130.317	0.234141
131.069	0.233812
131.826	0.233486
132.587	0.233163
133.352	0.232843
134.122	0.232525
134.896	0.23221
135.675	0.231898
136.458	0.231589
137.246	0.231282
138.038	0.230979
138.835	0.230677
139.637	0.230379
140.443	0.230083
141.254	0.22979
142.069	0.229499
142.889	0.229212
143.714	0.228926
144.544	0.228644
145.378	0.228342
146.218	0.22804
147.062	0.22774
147.911	0.227443
148.765	0.227148
149.624	0.226856
150.487	0.226566
151.356	0.226279
152.23	0.225994
153.109	0.225712
153.993	0.225432
154.882	0.225155
155.776	0.22488
156.675	0.224607
157.58	0.224337
158.489	0.224069
159.404	0.223804
160.325	0.223541
161.25	0.22328
162.181	0.223022
163.117	0.222766
164.059	0.222512
165.006	0.222261
165.959	0.222012
166.917	0.221765
167.88	0.22152
168.85	0.221278
169.824	0.221038
170.805	0.2208
171.791	0.220565
172.783	0.220332
173.78	0.2201
174.783	0.219872
175.792	0.219645
176.807	0.21942
177.828	0.219198
178.855	0.218978
179.887	0.21876
180.926	0.218544
181.97	0.21833
183.021	0.218118
184.077	0.217909
185.14	0.217701
186.209	0.217496
187.284	0.217292
188.365	0.217091
189.452	0.216892
190.546	0.216695
191.646	0.216499
192.752	0.216306
193.865	0.216115
194.984	0.215926
196.11	0.215739
197.242	0.215554
198.381	0.21537
199.526	0.215189
200.678	0.21501
201.837	0.214832
203.002	0.214657
204.174	0.214484
205.353	0.214312
206.538	0.214142
207.73	0.213974
208.93	0.213808
210.136	0.213644
211.349	0.213482
212.569	0.213322
213.796	0.213163
215.03	0.213007
216.272	0.212852
217.52	0.212699
218.776	0.212547
220.039	0.212398
221.309	0.21225
222.587	0.212104
223.872	0.21196
225.165	0.211818
226.464	0.211677
227.772	0.211538
229.087	0.211401
230.409	0.211266
231.739	0.211132
233.077	0.211
234.423	0.21087
235.776	0.210741
237.137	0.210614
238.506	0.210489
239.883	0.210365
241.268	0.210243
242.661	0.210123
244.062	0.210004
245.471	0.209887
246.888	0.209771
248.313	0.209658
249.747	0.209545
251.189	0.209435
252.639	0.209325
254.097	0.209218
255.564	0.209112
257.04	0.209007
258.523	0.208905
260.016	0.208803
261.517	0.208703
263.027	0.208605
264.545	0.208508
266.073	0.208413
267.609	0.208319
269.153	0.208227
270.707	0.208136
272.27	0.208047
273.842	0.207959
275.423	0.207872
277.013	0.207787
278.612	0.207704
280.221	0.207621
281.838	0.207541
283.465	0.207461
285.102	0.207383
286.748	0.207307
288.403	0.207232
290.068	0.207158
291.743	0.207086
293.427	0.207015
295.121	0.206945
296.825	0.206877
298.538	0.20681
300.262	0.206744
301.995	0.20668
303.739	0.206617
305.492	0.206555
307.256	0.206495
309.03	0.206436
310.814	0.206378
312.608	0.206321
314.413	0.206266
316.228	0.206212
318.053	0.206159
319.89	0.206108
321.736	0.206058
323.594	0.206009
325.462	0.205961
327.341	0.205915
329.23	0.205869
331.131	0.205825
333.043	0.205782
334.965	0.205741
336.899	0.2057
338.844	0.205661
340.8	0.205622
342.768	0.205585
344.747	0.20555
346.737	0.205515
348.739	0.205481
350.752	0.205449
352.777	0.205418
354.813	0.205387
356.862	0.205358
358.922	0.20533
360.994	0.205304
363.078	0.205278
365.174	0.205253
367.282	0.20523
369.403	0.205207
371.535	0.205186
373.68	0.205165
375.837	0.205146
378.007	0.205128
380.189	0.20511
382.384	0.205094
384.592	0.205079
386.812	0.205065
389.045	0.205052
391.291	0.20504
393.55	0.205028
395.822	0.205018
398.107	0.205009
400.405	0.205001
402.717	0.204994
405.042	0.204988
407.38	0.204982
409.732	0.204978
412.098	0.204975
414.477	0.204972
416.869	0.204971
419.276	0.20497
421.697	0.204971
424.131	0.204972
426.58	0.204974
429.042	0.204978
431.519	0.204982
434.01	0.204987
436.516	0.204992
439.036	0.204999
441.57	0.205007
444.12	0.205015
446.684	0.205025
449.262	0.205035
451.856	0.205046
454.465	0.205058
457.088	0.20507
459.727	0.205084
462.381	0.205098
465.05	0.205114
467.735	0.20513
470.435	0.205147
473.151	0.205164
475.883	0.205183
478.63	0.205202
481.393	0.205222
484.172	0.205243
486.968	0.205265
489.779	0.205287
492.606	0.20531
495.45	0.205334
498.31	0.205359
501.187	0.205385
504.081	0.205411
506.991	0.205438
509.918	0.205466
512.861	0.205494
515.822	0.205523
518.8	0.205553
521.795	0.205584
524.807	0.205615
527.837	0.205647
530.884	0.20568
533.949	0.205713
537.032	0.205747
540.132	0.205782
543.25	0.205818
546.387	0.205854
549.541	0.205891
552.713	0.205928
555.904	0.205966
559.114	0.206005
562.341	0.206045
565.588	0.206085
568.853	0.206126
572.137	0.206167
575.44	0.206209
578.762	0.206252
582.103	0.206295
585.464	0.206339
588.844	0.206383
592.243	0.206429
595.662	0.206474
599.101	0.206521
602.56	0.206568
606.038	0.206615
609.537	0.206663
613.056	0.206712
616.595	0.206761
620.155	0.206811
623.735	0.206861
627.336	0.206912
630.957	0.206964
634.6	0.207016
638.263	0.207068
641.948	0.207122
645.654	0.207175
649.382	0.20723
653.131	0.207284
656.901	0.20734
660.693	0.207396
664.508	0.207452
668.344	0.207509
672.202	0.207566
676.083	0.207624
679.986	0.207682
683.912	0.207741
687.86	0.207801
691.831	0.20786
695.825	0.207921
699.842	0.207982
703.882	0.208043
707.946	0.208105
712.033	0.208167
716.143	0.20823
720.278	0.208293
724.436	0.208357
728.618	0.208421
732.825	0.208485
737.055	0.20855
741.31	0.208616
745.59	0.208682
749.894	0.208748
754.223	0.208815
758.578	0.208882
762.957	0.208949
767.361	0.209017
771.792	0.209086
776.247	0.209155
780.728	0.209224
785.236	0.209294
789.769	0.209364
794.328	0.209434
798.914	0.209505
803.526	0.209576
808.165	0.209648
812.831	0.20972
817.523	0.209792
822.243	0.209865
826.99	0.209938
831.764	0.210012
836.566	0.210086
841.395	0.21016
846.253	0.210235
851.138	0.21031
856.052	0.210385
860.994	0.210461
865.964	0.210537
870.964	0.210613
875.992	0.21069
881.049	0.210767
886.135	0.210844
891.251	0.210922
896.396	0.211
901.571	0.211078
906.776	0.211157
912.011	0.211236
917.276	0.211315
922.571	0.211395
927.897	0.211475
933.254	0.211555
938.642	0.211636
944.061	0.211717
949.511	0.211798
954.993	0.211879
960.506	0.211961
966.051	0.212043
971.628	0.212125
977.237	0.212208
982.879	0.212291
988.553	0.212374
994.26	0.212457
1000	0.212541
1005.77	0.212625
1011.58	0.212709
1017.42	0.212794
1023.29	0.212879
1029.2	0.212964
1035.14	0.213049
1041.12	0.213135
1047.13	0.21322
1053.17	0.213306
1059.25	0.213393
1065.37	0.213479
1071.52	0.213566
1077.71	0.213653
1083.93	0.21374
1090.18	0.213828
1096.48	0.213915
1102.81	0.214003
1109.17	0.214091
1115.58	0.21418
1122.02	0.214268
1128.5	0.214357
1135.01	0.214446
1141.56	0.214535
1148.15	0.214625
1154.78	0.214714
1161.45	0.214804
1168.15	0.214894
1174.9	0.214984
1181.68	0.215075
1188.5	0.215165
1195.36	0.215256
1202.26	0.215347
1209.21	0.215439
1216.19	0.21553
1223.21	0.215621
1230.27	0.215713
1237.37	0.215805
1244.51	0.215897
1251.7	0.21599
1258.93	0.216082
1266.19	0.216175
1273.5	0.216267
1280.86	0.21636
1288.25	0.216454
1295.69	0.216547
1303.17	0.21664
1310.69	0.216734
1318.26	0.216828
1325.87	0.216922
1333.52	0.217016
1341.22	0.21711
1348.96	0.217204
1356.75	0.217299
1364.58	0.217394
1372.46	0.217488
1380.38	0.217583
1388.35	0.217678
1396.37	0.217774
1404.43	0.217869
1412.54	0.217964
1420.69	0.21806
1428.89	0.218156
1437.14	0.218252
1445.44	0.218348
1453.78	0.218444
1462.18	0.21854
1470.62	0.218636
1479.11	0.218733
1487.65	0.21883
1496.24	0.218926
1504.87	0.219023
1513.56	0.21912
1522.3	0.219217
1531.09	0.219314
1539.93	0.219412
1548.82	0.219509
1557.76	0.219606
1566.75	0.219704
1575.8	0.219802
1584.89	0.219899
1594.04	0.219997
1603.25	0.220095
1612.5	0.220193
1621.81	0.220291
1631.17	0.22039
1640.59	0.220488
1650.06	0.220586
1659.59	0.220685
1669.17	0.220784
1678.8	0.220882
1688.5	0.220981
1698.24	0.22108
1708.05	0.221179
1717.91	0.221278
1727.83	0.221377
1737.8	0.221476
1747.83	0.221575
1757.92	0.221674
1768.07	0.221774
1778.28	0.221873
1788.55	0.221973
1798.87	0.222072
1809.26	0.222172
1819.7	0.222271
1830.21	0.222371
1840.77	0.222471
1851.4	0.222571
1862.09	0.222671
1872.84	0.222771
1883.65	0.222871
1894.52	0.222971
1905.46	0.223071
1916.46	0.223171
1927.52	0.223271
1938.65	0.223372
1949.84	0.223472
1961.1	0.223572
1972.42	0.223673
1983.81	0.223773
1995.26	0.223874
2006.78	0.223974
2018.37	0.224075
2030.02	0.224175
2041.74	0.224276
2053.53	0.224377
2065.38	0.224477
2077.3	0.224578
2089.3	0.224679
2101.36	0.22478
2113.49	0.224881
2125.69	0.224982
2137.96	0.225083
2150.3	0.225183
2162.72	0.225284
2175.2	0.225385
2187.76	0.225486
2200.39	0.225588
2213.09	0.225689
2225.87	0.22579
2238.72	0.225891
2251.65	0.225992
2264.64	0.226093
2277.72	0.226194
2290.87	0.226295
2304.09	0.226397
2317.39	0.226498
2330.77	0.226599
2344.23	0.2267
2357.76	0.226802
2371.37	0.226903
2385.06	0.227004
2398.83	0.227105
2412.68	0.227207
2426.61	0.227308
2440.62	0.227409
2454.71	0.22751
2468.88	0.227612
2483.13	0.227713
2497.47	0.227814
2511.89	0.227916
2526.39	0.228017
2540.97	0.228118
2555.64	0.22822
2570.4	0.228321
2585.23	0.228422
2600.16	0.228524
2615.17	0.228625
2630.27	0.228726
2645.45	0.228827
2660.73	0.228929
2676.09	0.22903
2691.53	0.229131
2707.07	0.229232
2722.7	0.229334
2738.42	0.229435
2754.23	0.229536
2770.13	0.229637
2786.12	0.229739
2802.21	0.22984
2818.38	0.229941
2834.65	0.230042
2851.02	0.230143
2867.48	0.230244
2884.03	0.230345
2900.68	0.230447
2917.43	0.230548
2934.27	0.230649
2951.21	0.23075
2968.25	0.230851
2985.38	0.230952
3002.62	0.231053
3019.95	0.231153
3037.39	0.231254
3054.92	0.231355
3072.56	0.231456
3090.3	0.231557
3108.14	0.231658
3126.08	0.231759
3144.13	0.231859
3162.28	0.23196
3180.53	0.232061
3198.9	0.232161
3217.36	0.232262
3235.94	0.232363
3254.62	0.232463
3273.41	0.232564
3292.3	0.232664
3311.31	0.232765
3330.43	0.232865
3349.65	0.232966
3368.99	0.233066
3388.44	0.233166
3408	0.233267
3427.68	0.233367
3447.47	0.233467
3467.37	0.233567
3487.39	0.233667
3507.52	0.233767
3527.77	0.233868
3548.13	0.233968
3568.62	0.234068
3589.22	0.234168
3609.94	0.234267
3630.78	0.234367
3651.74	0.234467
3672.82	0.234567
3694.03	0.234667
3715.35	0.234766
3736.8	0.234866
3758.37	0.234966
3780.07	0.235065
3801.89	0.235165
3823.84	0.235264
3845.92	0.235363
3868.12	0.235463
3890.45	0.235562
3912.91	0.235661
3935.5	0.235761
3958.22	0.23586
3981.07	0.235959
4004.05	0.236058
4027.17	0.236157
4050.42	0.236256
4073.8	0.236355
4097.32	0.236454
4120.98	0.236553
4144.77	0.236651
4168.69	0.23675
4192.76	0.236849
4216.97	0.236947
4241.31	0.237046
4265.8	0.237144
4290.42	0.237243
4315.19	0.237341
4340.1	0.237439
4365.16	0.237538
4390.36	0.237636
4415.7	0.237734
4441.2	0.237832
4466.84	0.23793
4492.62	0.238028
4518.56	0.238126
4544.65	0.238224
4570.88	0.238322
4597.27	0.238419
4623.81	0.238517
4650.5	0.238615
4677.35	0.238712
4704.35	0.23881
4731.51	0.238907
4758.83	0.239005
4786.3	0.239102
4813.93	0.239199
4841.72	0.239296
4869.68	0.239393
4897.79	0.23949
4926.06	0.239587
4954.5	0.239684
4983.1	0.239781
5011.87	0.239878
5040.81	0.239975
5069.91	0.240071
5099.18	0.240168
5128.61	0.240264
5158.22	0.240361
5188	0.240457
5217.95	0.240554
5248.07	0.24065
5278.37	0.240746
5308.84	0.240842
5339.49	0.240938
5370.32	0.241034
5401.32	0.24113
5432.5	0.241226
5463.87	0.241322
5495.41	0.241417
5527.13	0.241513
5559.04	0.241608
5591.14	0.241704
5623.41	0.241799
5655.88	0.241895
5688.53	0.24199
5721.37	0.242085
5754.4	0.24218
5787.62	0.242275
5821.03	0.24237
5854.64	0.242465
5888.44	0.24256
5922.43	0.242655
5956.62	0.242749
5991.01	0.242844
6025.6	0.242939
6060.38	0.243033
6095.37	0.243127
6130.56	0.243222
6165.95	0.243316
6201.55	0.24341
6237.35	0.243504
6273.36	0.243598
6309.57	0.243692
6346	0.243786
6382.63	0.24388
6419.48	0.243973
6456.54	0.244067
6493.82	0.24416
6531.31	0.244254
6569.01	0.244347
6606.93	0.244441
6645.08	0.244534
6683.44	0.244627
6722.02	0.24472
6760.83	0.244813
6799.86	0.244906
6839.12	0.244999
6878.6	0.245091
6918.31	0.245184
6958.25	0.245277
6998.42	0.245369
7038.82	0.245462
7079.46	0.245554
7120.33	0.245646
7161.43	0.245738
7202.78	0.24583
7244.36	0.245922
7286.18	0.246014
7328.25	0.246106
7370.55	0.246198
7413.1	0.24629
7455.9	0.246381
7498.94	0.246473
7542.23	0.246564
7585.78	0.246656
7629.57	0.246747
7673.61	0.246838
7717.92	0.246929
7762.47	0.24702
7807.28	0.247111
7852.36	0.247202
7897.69	0.247293
7943.28	0.247383
7989.14	0.247474
8035.26	0.247565
8081.65	0.247655
8128.31	0.247745
8175.23	0.247836
8222.43	0.247926
8269.9	0.248016
8317.64	0.248106
8365.66	0.248196
8413.95	0.248286
8462.53	0.248375
8511.38	0.248465
8560.52	0.248555
8609.94	0.248644
8659.64	0.248733
8709.64	0.248823
8759.92	0.248912
8810.49	0.249001
8861.35	0.24909
8912.51	0.249179
8963.96	0.249268
9015.71	0.249357
9067.76	0.249446
9120.11	0.249534
9172.76	0.249623
9225.71	0.249711
9278.97	0.249799
9332.54	0.249888
9386.42	0.249976
9440.61	0.250064
9495.11	0.250152
9549.93	0.25024
9605.06	0.250328
9660.51	0.250415
9716.28	0.250503
9772.37	0.250591
9828.79	0.250678
9885.53	0.250766
9942.6	0.250853
10000	0.25094
10057.7	0.251027
10115.8	0.251114
10174.2	0.251201
10232.9	0.251288
10292	0.251375
10351.4	0.251461
10411.2	0.251548
10471.3	0.251634
10531.7	0.251721
10592.5	0.251807
10653.7	0.251893
10715.2	0.251979
10777.1	0.252065
10839.3	0.252151
10901.8	0.252237
10964.8	0.252323
11028.1	0.252409
11091.7	0.252494
11155.8	0.25258
11220.2	0.252665
11285	0.25275
11350.1	0.252836
11415.6	0.252921
11481.5	0.253006
11547.8	0.253091
11614.5	0.253176
11681.5	0.25326
11749	0.253345
11816.8	0.25343
11885	0.253514
11953.6	0.253599
12022.6	0.253683
12092.1	0.253767
12161.9	0.253851
12232.1	0.253935
12302.7	0.254019
12373.7	0.254103
12445.1	0.254187
12517	0.254271
12589.3	0.254354
12661.9	0.254438
12735	0.254521
12808.6	0.254604
12882.5	0.254687
12956.9	0.254771
13031.7	0.254854
13106.9	0.254937
13182.6	0.255019
13258.7	0.255102
13335.2	0.255185
13412.2	0.255267
13489.6	0.25535
13567.5	0.255432
13645.8	0.255515
13724.6	0.255597
13803.8	0.255679
13883.5	0.255761
13963.7	0.255843
14044.3	0.255925
14125.4	0.256006
14206.9	0.256088
14288.9	0.25617
14371.4	0.256251
14454.4	0.256333
14537.8	0.256414
14621.8	0.256495
14706.2	0.256576
14791.1	0.256657
14876.5	0.256738
14962.4	0.256819
15048.7	0.2569
15135.6	0.25698
15223	0.257061
15310.9	0.257141
15399.3	0.257222
15488.2	0.257302
15577.6	0.257382
15667.5	0.257462
15758	0.257542
15848.9	0.257622
15940.4	0.257702
16032.5	0.257782
16125	0.257861
16218.1	0.257941
16311.7	0.25802
16405.9	0.2581
16500.6	0.258179
16595.9	0.258258
16691.7	0.258337
16788	0.258416
16885	0.258495
16982.4	0.258574
17080.5	0.258653
17179.1	0.258731
17278.3	0.25881
17378	0.258889
17478.3	0.258967
17579.2	0.259045
17680.7	0.259123
17782.8	0.259201
17885.5	0.259279
17988.7	0.259357
18092.6	0.259435
18197	0.259513
18302.1	0.259591
18407.7	0.259668
18514	0.259746
18620.9	0.259823
18728.4	0.2599
18836.5	0.259978
18945.2	0.260055
19054.6	0.260132
19164.6	0.260209
19275.2	0.260285
19386.5	0.260362
19498.4	0.260439
19611	0.260516
19724.2	0.260592
19838.1	0.260668
19952.6	0.260745
20067.8	0.260821
20183.7	0.260897
20300.2	0.260973
20417.4	0.261049
20535.3	0.261125
20653.8	0.261201
20773	0.261276
20893	0.261352
21013.6	0.261428
21134.9	0.261503
21256.9	0.261578
21379.6	0.261654
21503	0.261729
21627.2	0.261804
21752	0.261879
21877.6	0.261954
22003.9	0.262029
22130.9	0.262103
22258.7	0.262178
22387.2	0.262253
22516.5	0.262327
22646.4	0.262401
22777.2	0.262476
22908.7	0.26255
23040.9	0.262624
23173.9	0.262698
23307.7	0.262772
23442.3	0.262846
23577.6	0.26292
23713.7	0.262993
23850.6	0.263067
23988.3	0.263141
24126.8	0.263214
24266.1	0.263287
24406.2	0.263361
24547.1	0.263434
24688.8	0.263507
24831.3	0.26358
24974.7	0.263653
25118.9	0.263726
25263.9	0.263799
25409.7	0.263871
25556.4	0.263944
25704	0.264016
25852.3	0.264089
26001.6	0.264161
26151.7	0.264233
26302.7	0.264306
26454.5	0.264378
26607.3	0.26445
26760.9	0.264522
26915.3	0.264594
27070.7	0.264665
27227	0.264737
27384.2	0.264809
27542.3	0.26488
27701.3	0.264952
27861.2	0.265023
28022.1	0.265094
28183.8	0.265166
28346.5	0.265237
28510.2	0.265308
28674.8	0.265379
28840.3	0.26545
29006.8	0.26552
29174.3	0.265591
29342.7	0.265662
29512.1	0.265732
29682.5	0.265803
29853.8	0.265873
30026.2	0.265944
30199.5	0.266014
30373.9	0.266084
30549.2	0.266154
30725.6	0.266224
30903	0.266294
31081.4	0.266364
31260.8	0.266434
31441.3	0.266503
31622.8	0.266573
31805.3	0.266642
31989	0.266712
32173.6	0.266781
32359.4	0.266851
32546.2	0.26692
32734.1	0.266989
32923	0.267058
33113.1	0.267127
33304.3	0.267196
33496.5	0.267265
33689.9	0.267334
33884.4	0.267402
34080	0.267471
34276.8	0.26754
34474.7	0.267608
34673.7	0.267676
34873.9	0.267745
35075.2	0.267813
35277.7	0.267881
35481.3	0.267949
35686.2	0.268017
35892.2	0.268085
36099.4	0.268153
36307.8	0.268221
36517.4	0.268289
36728.2	0.268356
36940.3	0.268424
37153.5	0.268492
37368	0.268559
37583.7	0.268626
37800.7	0.268694
38018.9	0.268761
38238.4	0.268828
38459.2	0.268895
38681.2	0.268962
38904.5	0.269029
39129.1	0.269096
39355	0.269163
39582.2	0.26923
39810.7	0.269296
40040.5	0.269363
40271.7	0.269429
40504.2	0.269496
40738	0.269562
40973.2	0.269629
41209.8	0.269695
41447.7	0.269761
41686.9	0.269827
41927.6	0.269893
42169.7	0.269959
42413.1	0.270025
42658	0.270091
42904.2	0.270157
43151.9	0.270222
43401	0.270288
43651.6	0.270354
43903.6	0.270419
44157	0.270485
44412	0.27055
44668.4	0.270615
44926.2	0.270681
45185.6	0.270746
45446.5	0.270811
45708.8	0.270876
45972.7	0.270941
46238.1	0.271006
46505	0.271071
46773.5	0.271136
47043.5	0.2712
47315.1	0.271265
47588.3	0.27133
47863	0.271394
48139.3	0.271459
48417.2	0.271523
48696.8	0.271587
48977.9	0.271652
49260.6	0.271716
49545	0.27178
49831	0.271844
50118.7	0.271908
50408.1	0.271972
50699.1	0.272036
50991.8	0.2721
51286.1	0.272164
51582.2	0.272227
51880	0.272291
52179.5	0.272355
52480.7	0.272418
52783.7	0.272482
53088.4	0.272545
53394.9	0.272609
53703.2	0.272672
54013.2	0.272735
54325	0.272798
54638.7	0.272862
54954.1	0.272925
55271.3	0.272988
55590.4	0.273051
55911.4	0.273114
56234.1	0.273176
56558.8	0.273239
56885.3	0.273302
57213.7	0.273365
57544	0.273427
57876.2	0.27349
58210.3	0.273552
58546.4	0.273615
58884.4	0.273677
59224.3	0.27374
59566.2	0.273802
59910.1	0.273864
60256	0.273926
60603.8	0.273989
60953.7	0.274051
61305.6	0.274113
61659.5	0.274175
62015.5	0.274237
62373.5	0.274298
62733.6	0.27436
63095.7	0.274422
63460	0.274484
63826.3	0.274545
64194.8	0.274607
64565.4	0.274669
64938.2	0.27473
65313.1	0.274791
65690.1	0.274853
66069.3	0.274914
66450.8	0.274975
66834.4	0.275037
67220.2	0.275098
67608.3	0.275159
67998.6	0.27522
68391.2	0.275281
68786	0.275342
69183.1	0.275403
69582.5	0.275464
69984.2	0.275525
70388.2	0.275586
70794.6	0.275646
71203.3	0.275707
71614.3	0.275768
72027.8	0.275828
72443.6	0.275889
72861.8	0.275949
73282.5	0.27601
73705.5	0.27607
74131	0.276131
74559	0.276191
74989.4	0.276251
75422.3	0.276311
75857.8	0.276372
76295.7	0.276432
76736.1	0.276492
77179.2	0.276552
77624.7	0.276612
78072.8	0.276672
78523.6	0.276732
78976.9	0.276792
79432.8	0.276851
79891.4	0.276911
80352.6	0.276971
80816.5	0.277031
81283.1	0.27709
81752.3	0.27715
82224.3	0.277209
82699	0.277269
83176.4	0.277328
83656.6	0.277388
84139.5	0.277447
84625.3	0.277506
85113.8	0.277566
85605.2	0.277625
86099.4	0.277684
86596.4	0.277743
87096.4	0.277802
87599.2	0.277862
88104.9	0.277921
88613.5	0.27798
89125.1	0.278039
89639.6	0.278097
90157.1	0.278156
90677.6	0.278215
91201.1	0.278274
91727.6	0.278333
92257.1	0.278391
92789.7	0.27845
93325.4	0.278509
93864.2	0.278567
94406.1	0.278626
94951.1	0.278684
95499.3	0.278743
96050.6	0.278801
96605.1	0.27886
97162.8	0.278918
97723.7	0.278976
98287.9	0.279035
98855.3	0.279093
99426	0.279151
100000	0.279209
100577	0.279267
101158	0.279325
101742	0.279383
102329	0.279441
102920	0.279499
103514	0.279557
104112	0.279615
104713	0.279673
105317	0.279731
105925	0.279789
106537	0.279846
107152	0.279904
107771	0.279962
108393	0.280019
109018	0.280077
109648	0.280135
110281	0.280192
110917	0.28025
111558	0.280307
112202	0.280365
112850	0.280422
113501	0.280479
114156	0.280537
114815	0.280594
115478	0.280651
116145	0.280708
116815	0.280765
117490	0.280823
118168	0.28088
118850	0.280937
119536	0.280994
120226	0.281051
120921	0.281108
121619	0.281165
122321	0.281222
123027	0.281279
123737	0.281335
124451	0.281392
125170	0.281449
125893	0.281506
126619	0.281562
127350	0.281619
128086	0.281676
128825	0.281732
129569	0.281789
130317	0.281846
131069	0.281902
131826	0.281959
132587	0.282015
133352	0.282071
134122	0.282128
134896	0.282184
135675	0.282241
136458	0.282297
137246	0.282353
138038	0.282409
138835	0.282466
139637	0.282522
140443	0.282578
141254	0.282634
142069	0.28269
142889	0.282746
143714	0.282802
144544	0.282858
145378	0.282914
146218	0.28297
147062	0.283026
147911	0.283082
148765	0.283138
149624	0.283194
150487	0.283249
151356	0.283305
152230	0.283361
153109	0.283417
153993	0.283472
154882	0.283528
155776	0.283584
156675	0.283639
157580	0.283695
158489	0.28375
159404	0.283806
160325	0.283861
161250	0.283917
162181	0.283972
163117	0.284028
164059	0.284083
165006	0.284138
165959	0.284194
166917	0.284249
167880	0.284304
168850	0.28436
169824	0.284415
170805	0.28447
171791	0.284525
172783	0.28458
173780	0.284635
174783	0.28469
175792	0.284746
176807	0.284801
177828	0.284856
178855	0.284911
179887	0.284966
180926	0.285021
181970	0.285075
183021	0.28513
184077	0.285185
185140	0.28524
186209	0.285295
187284	0.28535
188365	0.285405
189452	0.285459
190546	0.285514
191646	0.285569
192752	0.285623
193865	0.285678
194984	0.285733
196110	0.285787
197242	0.285842
198381	0.285896
199526	0.285951
200678	0.286006
201837	0.28606
203002	0.286115
204174	0.286169
205353	0.286223
206538	0.286278
207730	0.286332
208930	0.286387
210136	0.286441
211349	0.286495
212569	0.28655
213796	0.286604
215030	0.286658
216272	0.286712
217520	0.286767
218776	0.286821
220039	0.286875
221309	0.286929
222587	0.286983
223872	0.287037
225165	0.287091
226464	0.287145
227772	0.2872
229087	0.287254
230409	0.287308
231739	0.287362
233077	0.287416
234423	0.287469
235776	0.287523
237137	0.287577
238506	0.287631
239883	0.287685
241268	0.287739
242661	0.287793
244062	0.287847
245471	0.2879
246888	0.287954
248313	0.288008
249747	0.288062
251189	0.288115
252639	0.288169
254097	0.288223
255564	0.288276
257040	0.28833
258523	0.288384
260016	0.288437
261517	0.288491
263027	0.288544
264545	0.288598
266073	0.288652
267609	0.288705
269153	0.288759
270707	0.288812
272270	0.288865
273842	0.288919
275423	0.288972
277013	0.289026
278612	0.289079
280221	0.289133
281838	0.289186
283465	0.289239
285102	0.289293
286748	0.289346
288403	0.289399
290068	0.289452
291743	0.289506
293427	0.289559
295121	0.289612
296825	0.289665
298538	0.289719
300262	0.289772
301995	0.289825
303739	0.289878
305492	0.289931
307256	0.289984
309030	0.290037
310814	0.29009
312608	0.290144
314413	0.290197
316228	0.29025
318053	0.290303
319890	0.290356
321736	0.290409
323594	0.290462
325462	0.290515
327341	0.290568
329230	0.29062
331131	0.290673
333043	0.290726
334965	0.290779
336899	0.290832
338844	0.290885
340800	0.290938
342768	0.290991
344747	0.291043
346737	0.291096
348739	0.291149
350752	0.291202
352777	0.291254
354813	0.291307
356862	0.29136
358922	0.291413
360994	0.291465
363078	0.291518
365174	0.291571
367282	0.291623
369403	0.291676
371535	0.291729
373680	0.291781
375837	0.291834
378007	0.291887
380189	0.291939
382384	0.291992
384592	0.292044
386812	0.292097
389045	0.292149
391291	0.292202
393550	0.292254
395822	0.292307
398107	0.292359
400405	0.292412
402717	0.292464
405042	0.292517
407380	0.292569
409732	0.292622
412098	0.292674
414477	0.292726
416869	0.292779
419276	0.292831
421697	0.292883
424131	0.292936
426580	0.292988
429042	0.29304
431519	0.293093
434010	0.293145
436516	0.293197
439036	0.29325
441570	0.293302
444120	0.293354
446684	0.293406
449262	0.293459
451856	0.293511
454465	0.293563
457088	0.293615
459727	0.293667
462381	0.29372
465050	0.293772
467735	0.293824
470435	0.293876
473151	0.293928
475883	0.29398
478630	0.294032
481393	0.294085
484172	0.294137
486968	0.294189
489779	0.294241
492606	0.294293
495450	0.294345
498310	0.294397
501187	0.294449
504081	0.294501
506991	0.294553
509918	0.294605
512861	0.294657
515822	0.294709
518800	0.294761
521795	0.294813
524807	0.294865
527837	0.294917
530884	0.294969
533949	0.295021
537032	0.295073
540132	0.295124
543250	0.295176
546387	0.295228
549541	0.29528
552713	0.295332
555904	0.295384
559114	0.295436
562341	0.295487
565588	0.295539
568853	0.295591
572137	0.295643
575440	0.295695
578762	0.295747
582103	0.295798
585464	0.29585
588844	0.295902
592243	0.295954
595662	0.296005
599101	0.296057
602560	0.296109
606038	0.296161
609537	0.296212
613056	0.296264
616595	0.296316
620155	0.296367
623735	0.296419
627336	0.296471
630957	0.296522
634600	0.296574
638263	0.296626
641948	0.296677
645654	0.296729
649382	0.296781
653131	0.296832
656901	0.296884
660693	0.296935
664508	0.296987
668344	0.297039
672202	0.29709
676083	0.297142
679986	0.297193
683912	0.297245
687860	0.297296
691831	0.297348
695825	0.297399
699842	0.297451
703882	0.297502
707946	0.297554
712033	0.297606
716143	0.297657
720278	0.297708
724436	0.29776
728618	0.297811
732825	0.297863
737055	0.297914
741310	0.297966
745590	0.298017
749894	0.298069
754223	0.29812
758578	0.298172
762957	0.298223
767361	0.298274
771792	0.298326
776247	0.298377
780728	0.298429
785236	0.29848
789769	0.298531
794328	0.298583
798914	0.298634
803526	0.298685
808165	0.298737
812831	0.298788
817523	0.298839
822243	0.298891
826990	0.298942
831764	0.298993
836566	0.299045
841395	0.299096
846253	0.299147
851138	0.299199
856052	0.29925
860994	0.299301
865964	0.299352
870964	0.299404
875992	0.299455
881049	0.299506
886135	0.299558
891251	0.299609
896396	0.29966
901571	0.299711
906776	0.299762
912011	0.299814
917276	0.299865
922571	0.299916
927897	0.299967
933254	0.300019
938642	0.30007
944061	0.300121
949511	0.300172
954993	0.300223
960506	0.300274
966051	0.300326
971628	0.300377
977237	0.300428
982879	0.300479
988553	0.30053
994260	0.300581
1e+06	0.300633
1.00577e+06	0.300684
1.01158e+06	0.300735
1.01742e+06	0.300786
1.02329e+06	0.300837
1.0292e+06	0.300888
1.03514e+06	0.300939
1.04112e+06	0.30099
1.04713e+06	0.301041
1.05317e+06	0.301092
1.05925e+06	0.301144
1.06537e+06	0.301195
1.07152e+06	0.301246
1.07771e+06	0.301297
1.08393e+06	0.301305
1.09018e+06	0.301305
1.09648e+06	0.301305
1.10281e+06	0.301305
1.10917e+06	0.301305
1.11558e+06	0.301305
1.12202e+06	0.301305
1.1285e+06	0.301305
1.13501e+06	0.301305
1.14156e+06	0.301305
1.14815e+06	0.301305
1.15478e+06	0.301305
1.16145e+06	0.301305
1.16815e+06	0.301305
1.1749e+06	0.301305
1.18168e+06	0.301305
1.1885e+06	0.301305
1.19536e+06	0.301305
1.20226e+06	0.301305
1.20921e+06	0.301305
1.21619e+06	0.301305
1.22321e+06	0.301305
1.23027e+06	0.301305
1.23737e+06	0.301305
1.24451e+06	0.301305
1.2517e+06	0.301305
1.25893e+06	0.301305
1.26619e+06	0.301305
1.2735e+06	0.301305
1.28086e+06	0.301305
1.28825e+06	0.301305
1.29569e+06	0.301305
1.30317e+06	0.301305
1.31069e+06	0.301305
1.31826e+06	0.301305
1.32587e+06	0.301305
1.33352e+06	0.301305
1.34122e+06	0.301305
1.34896e+06	0.301305
1.35675e+06	0.301305
1.36458e+06	0.301305
1.37246e+06	0.301305
1.38038e+06	0.301305
1.38835e+06	0.301305
1.39637e+06	0.301305
1.40443e+06	0.301305
1.41254e+06	0.301305
1.42069e+06	0.301305
1.42889e+06	0.301305
1.43714e+06	0.301305
1.44544e+06	0.301305
1.45378e+06	0.301305
1.46218e+06	0.301305
1.47062e+06	0.301305
1.47911e+06	0.301305
1.48765e+06	0.301305
1.49624e+06	0.301305
1.50487e+06	0.301305
1.51356e+06	0.301305
1.5223e+06	0.301305
1.53109e+06	0.301305
1.53993e+06	0.301305
1.54882e+06	0.301305
1.55776e+06	0.301305
1.56675e+06	0.301305
1.5758e+06	0.301305
1.58489e+06	0.301305
1.59404e+06	0.301305
1.60325e+06	0.301305
1.6125e+06	0.301305
1.62181e+06	0.301305
1.63117e+06	0.301305
1.64059e+06	0.301305
1.65006e+06	0.301305
1.65959e+06	0.301305
1.66917e+06	0.301305
1.6788e+06	0.301305
1.6885e+06	0.301305
1.69824e+06	0.301305
1.70805e+06	0.301305
1.71791e+06	0.301305
1.72783e+06	0.301305
1.7378e+06	0.301305
1.74783e+06	0.301305
1.75792e+06	0.301305
1.76807e+06	0.301305
1.77828e+06	0.301305
1.78855e+06	0.301305
1.79887e+06	0.301305
1.80926e+06	0.301305
1.8197e+06	0.301305
1.83021e+06	0.301305
1.84077e+06	0.301305
1.8514e+06	0.301305
1.86209e+06	0.301305
1.87284e+06	0.301305
1.88365e+06	0.301305
1.89452e+06	0.301305
1.90546e+06	0.301305
1.91646e+06	0.301305
1.92752e+06	0.301305
1.93865e+06	0.301305
1.94984e+06	0.301305
1.9611e+06	0.301305
1.97242e+06	0.301305
1.98381e+06	0.301305
1.99526e+06	0.301305
2.00678e+06	0.301305
2.01837e+06	0.301305
2.03002e+06	0.301305
2.04174e+06	0.301305
2.05353e+06	0.301305
2.06538e+06	0.301305
2.0773e+06	0.301305
2.0893e+06	0.301305
2.10136e+06	0.301305
2.11349e+06	0.301305
2.12569e+06	0.301305
2.13796e+06	0.301305
2.1503e+06	0.301305
2.16272e+06	0.301305
2.1752e+06	0.301305
2.18776e+06	0.301305
2.20039e+06	0.301305
2.21309e+06	0.301305
2.22587e+06	0.301305
2.23872e+06	0.301305
2.25165e+06	0.301305
2.26464e+06	0.301305
2.27772e+06	0.301305
2.29087e+06	0.301305
2.30409e+06	0.301305
2.31739e+06	0.301305
2.33077e+06	0.301305
2.34423e+06	0.301305
2.35776e+06	0.301305
2.37137e+06	0.301305
2.38506e+06	0.301305
2.39883e+06	0.301305
2.41268e+06	0.301305
2.42661e+06	0.301305
2.44062e+06	0.301305
2.45471e+06	0.301305
2.46888e+06	0.301305
2.48313e+06	0.301305
2.49747e+06	0.301305
2.51189e+06	0.301305
2.52639e+06	0.301305
2.54097e+06	0.301305
2.55564e+06	0.301305
2.5704e+06	0.301305
2.58523e+06	0.301305
2.60016e+06	0.301305
2.61517e+06	0.301305
2.63027e+06	0.301305
2.64545e+06	0.301305
2.66073e+06	0.301305
2.67609e+06	0.301305
2.69153e+06	0.301305
2.70707e+06	0.301305
2.7227e+06	0.301305
2.73842e+06	0.301305
2.75423e+06	0.301305
2.77013e+06	0.301305
2.78612e+06	0.301305
2.80221e+06	0.301305
2.81838e+06	0.301305
2.83465e+06	0.301305
2.85102e+06	0.301305
2.86748e+06	0.301305
2.88403e+06	0.301305
2.90068e+06	0.301305
2.91743e+06	0.301305
2.93427e+06	0.301305
2.95121e+06	0.301305
2.96825e+06	0.301305
2.98538e+06	0.301305
3.00262e+06	0.301305
3.01995e+06	0.301305
3.03739e+06	0.301305
3.05492e+06	0.301305
3.07256e+06	0.301305
3.0903e+06	0.301305
3.10814e+06	0.301305
3.12608e+06	0.301305
3.14413e+06	0.301305
3.16228e+06	0.301305
3.18053e+06	0.301305
3.1989e+06	0.301305
3.21736e+06	0.301305
3.23594e+06	0.301305
3.25462e+06	0.301305
3.27341e+06	0.301305
3.2923e+06	0.301305
3.31131e+06	0.301305
3.33043e+06	0.301305
3.34965e+06	0.301305
3.36899e+06	0.301305
3.38844e+06	0.301305
3.408e+06	0.301305
3.42768e+06	0.301305
3.44747e+06	0.301305
3.46737e+06	0.301305
3.48739e+06	0.301305
3.50752e+06	0.301305
3.52777e+06	0.301305
3.54813e+06	0.301305
3.56862e+06	0.301305
3.58922e+06	0.301305
3.60994e+06	0.301305
3.63078e+06	0.301305
3.65174e+06	0.301305
3.67282e+06	0.301305
3.69403e+06	0.301305
3.71535e+06	0.301305
3.7368e+06	0.301305
3.75837e+06	0.301305
3.78007e+06	0.301305
3.80189e+06	0.301305
3.82384e+06	0.301305
3.84592e+06	0.301305
3.86812e+06	0.301305
3.89045e+06	0.301305
3.91291e+06	0.301305
3.9355e+06	0.301305
3.95822e+06	0.301305
3.98107e+06	0.301305
4.00405e+06	0.301305
4.02717e+06	0.301305
4.05042e+06	0.301305
4.0738e+06	0.301305
4.09732e+06	0.301305
4.12098e+06	0.301305
4.14477e+06	0.301305
4.16869e+06	0.301305
4.19276e+06	0.301305
4.21697e+06	0.301305
4.24131e+06	0.301305
4.2658e+06	0.301305
4.29042e+06	0.301305
4.31519e+06	0.301305
4.3401e+06	0.301305
4.36516e+06	0.301305
4.39036e+06	0.301305
4.4157e+06	0.301305
4.4412e+06	0.301305
4.46684e+06	0.301305
4.49262e+06	0.301305
4.51856e+06	0.301305
4.54465e+06	0.301305
4.57088e+06	0.301305
4.59727e+06	0.301305
4.62381e+06	0.301305
4.6505e+06	0.301305
4.67735e+06	0.301305
4.70435e+06	0.301305
4.73151e+06	0.301305
4.75883e+06	0.301305
4.7863e+06	0.301305
4.81393e+06	0.301305
4.84172e+06	0.301305
4.86968e+06	0.301305
4.89779e+06	0.301305
4.92606e+06	0.301305
4.9545e+06	0.301305
4.9831e+06	0.301305
5.01187e+06	0.301305
5.04081e+06	0.301305
5.06991e+06	0.301305
5.09918e+06	0.301305
5.12861e+06	0.301305
5.15822e+06	0.301305
5.188e+06	0.301305
5.21795e+06	0.301305
5.24807e+06	0.301305
5.27837e+06	0.301305
5.30884e+06	0.301305
5.33949e+06	0.301305
5.37032e+06	0.301305
5.40132e+06	0.301305
5.4325e+06	0.301305
5.46387e+06	0.301305
5.49541e+06	0.301305
5.52713e+06	0.301305
5.55904e+06	0.301305
5.59114e+06	0.301305
5.62341e+06	0.301305
5.65588e+06	0.301305
5.68853e+06	0.301305
5.72137e+06	0.301305
5.7544e+06	0.301305
5.78762e+06	0.301305
5.82103e+06	0.301305
5.85464e+06	0.301305
5.88844e+06	0.301305
5.92243e+06	0.301305
5.95662e+06	0.301305
5.99101e+06	0.301305
6.0256e+06	0.301305
6.06038e+06	0.301305
6.09537e+06	0.301305
6.13056e+06	0.301305
6.16595e+06	0.301305
6.20155e+06	0.301305
6.23735e+06	0.301305
6.27336e+06	0.301305
6.30957e+06	0.301305
6.346e+06	0.301305
6.38263e+06	0.301305
6.41948e+06	0.301305
6.45654e+06	0.301305
6.49382e+06	0.301305
6.53131e+06	0.301305
6.56901e+06	0.301305
6.60693e+06	0.301305
6.64508e+06	0.301305
6.68344e+06	0.301305
6.72202e+06	0.301305
6.76083e+06	0.301305
6.79986e+06	0.301305
6.83912e+06	0.301305
6.8786e+06	0.301305
6.91831e+06	0.301305
6.95825e+06	0.301305
6.99842e+06	0.301305
7.03882e+06	0.301305
7.07946e+06	0.301305
7.12033e+06	0.301305
7.16143e+06	0.301305
7.20278e+06	0.301305
7.24436e+06	0.301305
7.28618e+06	0.301305
7.32825e+06	0.301305
7.37055e+06	0.301305
7.4131e+06	0.301305
7.4559e+06	0.301305
7.49894e+06	0.301305
7.54223e+06	0.301305
7.58578e+06	0.301305
7.62957e+06	0.301305
7.67361e+06	0.301305
7.71792e+06	0.301305
7.76247e+06	0.301305
7.80728e+06	0.301305
7.85236e+06	0.301305
7.89769e+06	0.301305
7.94328e+06	0.301305
7.98914e+06	0.301305
8.03526e+06	0.301305
8.08165e+06	0.301305
8.12831e+06	0.301305
8.17523e+06	0.301305
8.22243e+06	0.301305
8.2699e+06	0.301305
8.31764e+06	0.301305
8.36566e+06	0.301305
8.41395e+06	0.301305
8.46253e+06	0.301305
8.51138e+06	0.301305
8.56052e+06	0.301305
8.60994e+06	0.301305
8.65964e+06	0.301305
8.70964e+06	0.301305
8.75992e+06	0.301305
8.81049e+06	0.301305
8.86135e+06	0.301305
8.91251e+06	0.301305
8.96396e+06	0.301305
9.01571e+06	0.301305
9.06776e+06	0.301305
9.12011e+06	0.301305
9.17276e+06	0.301305
9.22571e+06	0.301305
9.27897e+06	0.301305
9.33254e+06	0.301305
9.38642e+06	0.301305
9.44061e+06	0.301305
9.49511e+06	0.301305
9.54993e+06	0.301305
9.60506e+06	0.301305
9.66051e+06	0.301305
9.71628e+06	0.301305
9.77237e+06	0.301305
9.82879e+06	0.301305
9.88553e+06	0.301305
9.9426e+06	0.301305
1e+07	0.301305
