Stopping power dEdx from Ionisation for proton Z = 1 in G4_Si, process name: hIoni
E [MeV]	dEdx [MeV/mm]
0.001	24.465
0.00100577	24.5263
0.00101158	24.588
0.00101742	24.6501
0.00102329	24.7127
0.0010292	24.7757
0.00103514	24.8392
0.00104112	24.9031
0.00104713	24.9674
0.00105317	25.0322
0.00105925	25.0975
0.00106537	25.1632
0.00107152	25.2293
0.00107771	25.296
0.00108393	25.363
0.00109018	25.4306
0.00109648	25.4986
0.00110281	25.5671
0.00110917	25.636
0.00111558	25.7054
0.00112202	25.7753
0.0011285	25.8457
0.00113501	25.9165
0.00114156	25.9879
0.00114815	26.0597
0.00115478	26.132
0.00116145	26.2048
0.00116815	26.2781
0.0011749	26.3519
0.00118168	26.4261
0.0011885	26.5009
0.00119536	26.5762
0.00120226	26.6519
0.00120921	26.7282
0.00121619	26.805
0.00122321	26.8823
0.00123027	26.9601
0.00123737	27.0384
0.00124451	27.1173
0.0012517	27.1966
0.00125893	27.2765
0.00126619	27.3569
0.0012735	27.4378
0.00128086	27.5192
0.00128825	27.6012
0.00129569	27.6837
0.00130317	27.7667
0.00131069	27.8502
0.00131826	27.9343
0.00132587	28.0189
0.00133352	28.1041
0.00134122	28.1898
0.00134896	28.276
0.00135675	28.3628
0.00136458	28.4501
0.00137246	28.5379
0.00138038	28.6263
0.00138835	28.7153
0.00139637	28.8048
0.00140443	28.8948
0.00141254	28.9854
0.00142069	29.0765
0.00142889	29.1682
0.00143714	29.2605
0.00144544	29.3533
0.00145378	29.4466
0.00146218	29.5405
0.00147062	29.635
0.00147911	29.73
0.00148765	29.8255
0.00149624	29.9217
0.00150487	30.0099
0.00151356	30.0922
0.0015223	30.1749
0.00153109	30.2581
0.00153993	30.3418
0.00154882	30.4259
0.00155776	30.5105
0.00156675	30.5956
0.0015758	30.6811
0.00158489	30.7671
0.00159404	30.8536
0.00160325	30.9405
0.0016125	31.0279
0.00162181	31.1157
0.00163117	31.204
0.00164059	31.2928
0.00165006	31.382
0.00165959	31.4717
0.00166917	31.5618
0.0016788	31.6523
0.0016885	31.7433
0.00169824	31.8348
0.00170805	31.9267
0.00171791	32.019
0.00172783	32.1117
0.0017378	32.2049
0.00174783	32.2985
0.00175792	32.3925
0.00176807	32.487
0.00177828	32.5819
0.00178855	32.6771
0.00179887	32.7728
0.00180926	32.8689
0.0018197	32.9654
0.00183021	33.0622
0.00184077	33.1595
0.0018514	33.2571
0.00186209	33.3552
0.00187284	33.4535
0.00188365	33.5523
0.00189452	33.6514
0.00190546	33.7509
0.00191646	33.8507
0.00192752	33.9508
0.00193865	34.0513
0.00194984	34.1521
0.0019611	34.2532
0.00197242	34.3546
0.00198381	34.4564
0.00199526	34.5584
0.00200678	34.6592
0.00201837	34.7593
0.00203002	34.8596
0.00204174	34.9603
0.00205353	35.0611
0.00206538	35.1623
0.0020773	35.2637
0.0020893	35.3654
0.00210136	35.4673
0.00211349	35.5696
0.00212569	35.6721
0.00213796	35.7748
0.0021503	35.8779
0.00216272	35.9812
0.0021752	36.0848
0.00218776	36.1886
0.00220039	36.2928
0.00221309	36.3972
0.00222587	36.5019
0.00223872	36.6069
0.00225165	36.7122
0.00226464	36.8178
0.00227772	36.9237
0.00229087	37.0298
0.00230409	37.1363
0.00231739	37.243
0.00233077	37.35
0.00234423	37.4574
0.00235776	37.565
0.00237137	37.6729
0.00238506	37.7812
0.00239883	37.8897
0.00241268	37.9986
0.00242661	38.1078
0.00244062	38.2173
0.00245471	38.3271
0.00246888	38.4372
0.00248313	38.5477
0.00249747	38.6585
0.00251189	38.7694
0.00252639	38.8807
0.00254097	38.9922
0.00255564	39.1041
0.0025704	39.2164
0.00258523	39.329
0.00260016	39.4419
0.00261517	39.5552
0.00263027	39.6688
0.00264545	39.7827
0.00266073	39.897
0.00267609	40.0116
0.00269153	40.1265
0.00270707	40.2419
0.0027227	40.3575
0.00273842	40.4735
0.00275423	40.5899
0.00277013	40.7066
0.00278612	40.8236
0.00280221	40.941
0.00281838	41.0588
0.00283465	41.1769
0.00285102	41.2953
0.00286748	41.4142
0.00288403	41.5333
0.00290068	41.6529
0.00291743	41.7728
0.00293427	41.8931
0.00295121	42.0137
0.00296825	42.1347
0.00298538	42.2561
0.00300262	42.3779
0.00301995	42.5001
0.00303739	42.6226
0.00305492	42.7456
0.00307256	42.8689
0.0030903	42.9926
0.00310814	43.1166
0.00312608	43.2411
0.00314413	43.3659
0.00316228	43.4911
0.00318053	43.6167
0.0031989	43.7427
0.00321736	43.869
0.00323594	43.9957
0.00325462	44.1228
0.00327341	44.2503
0.0032923	44.3781
0.00331131	44.5064
0.00333043	44.635
0.00334965	44.764
0.00336899	44.8934
0.00338844	45.0231
0.003408	45.1533
0.00342768	45.2838
0.00344747	45.4147
0.00346737	45.546
0.00348739	45.6777
0.00350752	45.8097
0.00352777	45.9422
0.00354813	46.075
0.00356862	46.2082
0.00358922	46.3418
0.00360994	46.4758
0.00363078	46.6102
0.00365174	46.7449
0.00367282	46.8801
0.00369403	47.0156
0.00371535	47.1516
0.0037368	47.2879
0.00375837	47.4246
0.00378007	47.5617
0.00380189	47.6992
0.00382384	47.8372
0.00384592	47.9755
0.00386812	48.1142
0.00389045	48.2533
0.00391291	48.3928
0.0039355	48.5327
0.00395822	48.673
0.00398107	48.8137
0.00400405	48.9548
0.00402717	49.0961
0.00405042	49.2378
0.0040738	49.3799
0.00409732	49.5225
0.00412098	49.6654
0.00414477	49.8087
0.00416869	49.9525
0.00419276	50.0966
0.00421697	50.2412
0.00424131	50.3862
0.0042658	50.5316
0.00429042	50.6774
0.00431519	50.8236
0.0043401	50.9703
0.00436516	51.1173
0.00439036	51.2648
0.0044157	51.4127
0.0044412	51.561
0.00446684	51.7097
0.00449262	51.8588
0.00451856	52.0083
0.00454465	52.1583
0.00457088	52.3087
0.00459727	52.4595
0.00462381	52.6108
0.0046505	52.7624
0.00467735	52.9145
0.00470435	53.067
0.00473151	53.22
0.00475883	53.3733
0.0047863	53.5271
0.00481393	53.6814
0.00484172	53.836
0.00486968	53.9911
0.00489779	54.1467
0.00492606	54.3027
0.0049545	54.4591
0.0049831	54.616
0.00501187	54.7733
0.00504081	54.9312
0.00506991	55.0895
0.00509918	55.2482
0.00512861	55.4074
0.00515822	55.5671
0.005188	55.7272
0.00521795	55.8877
0.00524807	56.0488
0.00527837	56.2102
0.00530884	56.3722
0.00533949	56.5346
0.00537032	56.6974
0.00540132	56.8608
0.0054325	57.0246
0.00546387	57.1888
0.00549541	57.3536
0.00552713	57.5188
0.00555904	57.6845
0.00559114	57.8506
0.00562341	58.0173
0.00565588	58.1844
0.00568853	58.352
0.00572137	58.5201
0.0057544	58.6887
0.00578762	58.8577
0.00582103	59.0273
0.00585464	59.1974
0.00588844	59.3679
0.00592243	59.539
0.00595662	59.7106
0.00599101	59.8827
0.0060256	60.0553
0.00606038	60.2284
0.00609537	60.4021
0.00613056	60.5762
0.00616595	60.7509
0.00620155	60.9261
0.00623735	61.1018
0.00627336	61.278
0.00630957	61.4547
0.006346	61.6319
0.00638263	61.8096
0.00641948	61.9879
0.00645654	62.1666
0.00649382	62.3458
0.00653131	62.5255
0.00656901	62.7057
0.00660693	62.8864
0.00664508	63.0676
0.00668344	63.2493
0.00672202	63.4315
0.00676083	63.6141
0.00679986	63.7973
0.00683912	63.9809
0.0068786	64.165
0.00691831	64.3495
0.00695825	64.5346
0.00699842	64.7201
0.00703882	64.9061
0.00707946	65.0926
0.00712033	65.2795
0.00716143	65.467
0.00720278	65.6549
0.00724436	65.8433
0.00728618	66.0323
0.00732825	66.2217
0.00737055	66.4117
0.0074131	66.6022
0.0074559	66.7933
0.00749894	66.9848
0.00754223	67.177
0.00758578	67.3697
0.00762957	67.5629
0.00767361	67.7568
0.00771792	67.9512
0.00776247	68.1463
0.00780728	68.3419
0.00785236	68.5382
0.00789769	68.7351
0.00794328	68.9326
0.00798914	69.1308
0.00803526	69.3297
0.00808165	69.5292
0.00812831	69.7295
0.00817523	69.9304
0.00822243	70.132
0.0082699	70.3343
0.00831764	70.5373
0.00836566	70.7411
0.00841395	70.9456
0.00846253	71.1508
0.00851138	71.3568
0.00856052	71.5635
0.00860994	71.771
0.00865964	71.9793
0.00870964	72.1884
0.00875992	72.3982
0.00881049	72.6089
0.00886135	72.8204
0.00891251	73.0327
0.00896396	73.2459
0.00901571	73.4599
0.00906776	73.6748
0.00912011	73.8904
0.00917276	74.1067
0.00922571	74.3235
0.00927897	74.5408
0.00933254	74.7585
0.00938642	74.9764
0.00944061	75.1944
0.00949511	75.4125
0.00954993	75.6305
0.00960506	75.8483
0.00966051	76.0657
0.00971628	76.2827
0.00977237	76.4991
0.00982879	76.7148
0.00988553	76.9296
0.0099426	77.1434
0.01	77.356
0.0100577	77.5674
0.0101158	77.7775
0.0101742	77.9864
0.0102329	78.1939
0.010292	78.4003
0.0103514	78.6055
0.0104112	78.8094
0.0104713	79.0123
0.0105317	79.214
0.0105925	79.4147
0.0106537	79.6143
0.0107152	79.8129
0.0107771	80.0106
0.0108393	80.2073
0.0109018	80.4032
0.0109648	80.5982
0.0110281	80.7925
0.0110917	80.986
0.0111558	81.1789
0.0112202	81.3711
0.011285	81.5628
0.0113501	81.7539
0.0114156	81.9447
0.0114815	82.135
0.0115478	82.325
0.0116145	82.5148
0.0116815	82.7045
0.011749	82.894
0.0118168	83.0835
0.011885	83.2731
0.0119536	83.4629
0.0120226	83.6529
0.0120921	83.8432
0.0121619	84.034
0.0122321	84.2253
0.0123027	84.4172
0.0123737	84.6098
0.0124451	84.8033
0.012517	84.9975
0.0125893	85.1915
0.0126619	85.3866
0.012735	85.5827
0.0128086	85.7798
0.0128825	85.9777
0.0129569	86.1767
0.0130317	86.3765
0.0131069	86.5772
0.0131826	86.7787
0.0132587	86.9811
0.0133352	87.1842
0.0134122	87.3882
0.0134896	87.5928
0.0135675	87.7982
0.0136458	88.0042
0.0137246	88.2108
0.0138038	88.4181
0.0138835	88.6259
0.0139637	88.8343
0.0140443	89.0431
0.0141254	89.2524
0.0142069	89.4621
0.0142889	89.6722
0.0143714	89.8825
0.0144544	90.0932
0.0145378	90.3041
0.0146218	90.5152
0.0147062	90.7264
0.0147911	90.9377
0.0148765	91.149
0.0149624	91.3603
0.0150487	91.5715
0.0151356	91.7827
0.015223	91.9938
0.0153109	92.2047
0.0153993	92.4156
0.0154882	92.6264
0.0155776	92.8371
0.0156675	93.0477
0.015758	93.2583
0.0158489	93.4687
0.0159404	93.6792
0.0160325	93.8895
0.016125	94.0999
0.0162181	94.3102
0.0163117	94.5204
0.0164059	94.7307
0.0165006	94.9409
0.0165959	95.1512
0.0166917	95.3614
0.016788	95.5717
0.016885	95.7821
0.0169824	95.9924
0.0170805	96.2029
0.0171791	96.4134
0.0172783	96.6241
0.017378	96.8348
0.0174783	97.0457
0.0175792	97.2567
0.0176807	97.4679
0.0177828	97.6793
0.0178855	97.8907
0.0179887	98.1023
0.0180926	98.314
0.018197	98.5258
0.0183021	98.7377
0.0184077	98.9496
0.018514	99.1617
0.0186209	99.3738
0.0187284	99.5859
0.0188365	99.7981
0.0189452	100.01
0.0190546	100.223
0.0191646	100.435
0.0192752	100.647
0.0193865	100.859
0.0194984	101.072
0.019611	101.284
0.0197242	101.496
0.0198381	101.708
0.0199526	101.92
0.0200678	102.132
0.0201837	102.344
0.0203002	102.556
0.0204174	102.767
0.0205353	102.979
0.0206538	103.19
0.020773	103.402
0.020893	103.613
0.0210136	103.824
0.0211349	104.035
0.0212569	104.246
0.0213796	104.456
0.021503	104.667
0.0216272	104.877
0.021752	105.087
0.0218776	105.297
0.0220039	105.507
0.0221309	105.717
0.0222587	105.926
0.0223872	106.135
0.0225165	106.344
0.0226464	106.553
0.0227772	106.762
0.0229087	106.97
0.0230409	107.178
0.0231739	107.386
0.0233077	107.594
0.0234423	107.801
0.0235776	108.008
0.0237137	108.215
0.0238506	108.421
0.0239883	108.627
0.0241268	108.832
0.0242661	109.038
0.0244062	109.242
0.0245471	109.447
0.0246888	109.651
0.0248313	109.854
0.0249747	110.057
0.0251189	110.259
0.0252639	110.461
0.0254097	110.663
0.0255564	110.863
0.025704	111.064
0.0258523	111.264
0.0260016	111.463
0.0261517	111.662
0.0263027	111.86
0.0264545	112.058
0.0266073	112.256
0.0267609	112.453
0.0269153	112.649
0.0270707	112.845
0.027227	113.04
0.0273842	113.235
0.0275423	113.43
0.0277013	113.624
0.0278612	113.817
0.0280221	114.01
0.0281838	114.202
0.0283465	114.394
0.0285102	114.585
0.0286748	114.776
0.0288403	114.966
0.0290068	115.155
0.0291743	115.343
0.0293427	115.53
0.0295121	115.717
0.0296825	115.903
0.0298538	116.088
0.0300262	116.272
0.0301995	116.455
0.0303739	116.637
0.0305492	116.818
0.0307256	116.998
0.030903	117.177
0.0310814	117.355
0.0312608	117.532
0.0314413	117.708
0.0316228	117.883
0.0318053	118.057
0.031989	118.229
0.0321736	118.401
0.0323594	118.572
0.0325462	118.741
0.0327341	118.91
0.032923	119.077
0.0331131	119.243
0.0333043	119.408
0.0334965	119.572
0.0336899	119.735
0.0338844	119.897
0.03408	120.058
0.0342768	120.218
0.0344747	120.376
0.0346737	120.533
0.0348739	120.69
0.0350752	120.845
0.0352777	120.998
0.0354813	121.15
0.0356862	121.301
0.0358922	121.451
0.0360994	121.6
0.0363078	121.747
0.0365174	121.894
0.0367282	122.038
0.0369403	122.182
0.0371535	122.325
0.037368	122.466
0.0375837	122.605
0.0378007	122.744
0.0380189	122.881
0.0382384	123.016
0.0384592	123.15
0.0386812	123.283
0.0389045	123.414
0.0391291	123.544
0.039355	123.672
0.0395822	123.799
0.0398107	123.924
0.0400405	124.048
0.0402717	124.17
0.0405042	124.29
0.040738	124.409
0.0409732	124.527
0.0412098	124.643
0.0414477	124.757
0.0416869	124.869
0.0419276	124.98
0.0421697	125.089
0.0424131	125.196
0.042658	125.301
0.0429042	125.405
0.0431519	125.507
0.043401	125.607
0.0436516	125.705
0.0439036	125.801
0.044157	125.896
0.044412	125.988
0.0446684	126.079
0.0449262	126.168
0.0451856	126.255
0.0454465	126.34
0.0457088	126.423
0.0459727	126.504
0.0462381	126.583
0.046505	126.66
0.0467735	126.735
0.0470435	126.808
0.0473151	126.879
0.0475883	126.948
0.047863	127.015
0.0481393	127.079
0.0484172	127.142
0.0486968	127.202
0.0489779	127.26
0.0492606	127.316
0.049545	127.37
0.049831	127.422
0.0501187	127.471
0.0504081	127.518
0.0506991	127.563
0.0509918	127.606
0.0512861	127.646
0.0515822	127.685
0.05188	127.721
0.0521795	127.754
0.0524807	127.786
0.0527837	127.815
0.0530884	127.843
0.0533949	127.868
0.0537032	127.891
0.0540132	127.912
0.054325	127.93
0.0546387	127.947
0.0549541	127.962
0.0552713	127.974
0.0555904	127.985
0.0559114	127.993
0.0562341	127.999
0.0565588	128.003
0.0568853	128.005
0.0572137	128.005
0.057544	128.003
0.0578762	127.998
0.0582103	127.991
0.0585464	127.982
0.0588844	127.97
0.0592243	127.957
0.0595662	127.941
0.0599101	127.922
0.060256	127.901
0.0606038	127.878
0.0609537	127.853
0.0613056	127.825
0.0616595	127.794
0.0620155	127.762
0.0623735	127.726
0.0627336	127.689
0.0630957	127.649
0.06346	127.606
0.0638263	127.562
0.0641948	127.515
0.0645654	127.465
0.0649382	127.413
0.0653131	127.359
0.0656901	127.302
0.0660693	127.243
0.0664508	127.182
0.0668344	127.118
0.0672202	127.052
0.0676083	126.983
0.0679986	126.912
0.0683912	126.839
0.068786	126.763
0.0691831	126.685
0.0695825	126.605
0.0699842	126.522
0.0703882	126.437
0.0707946	126.35
0.0712033	126.26
0.0716143	126.168
0.0720278	126.074
0.0724436	125.978
0.0728618	125.879
0.0732825	125.779
0.0737055	125.676
0.074131	125.572
0.074559	125.465
0.0749894	125.357
0.0754223	125.246
0.0758578	125.134
0.0762957	125.02
0.0767361	124.904
0.0771792	124.786
0.0776247	124.666
0.0780728	124.544
0.0785236	124.42
0.0789769	124.293
0.0794328	124.165
0.0798914	124.034
0.0803526	123.901
0.0808165	123.765
0.0812831	123.628
0.0817523	123.488
0.0822243	123.346
0.082699	123.202
0.0831764	123.056
0.0836566	122.907
0.0841395	122.758
0.0846253	122.606
0.0851138	122.452
0.0856052	122.297
0.0860994	122.14
0.0865964	121.982
0.0870964	121.821
0.0875992	121.66
0.0881049	121.496
0.0886135	121.332
0.0891251	121.166
0.0896396	120.998
0.0901571	120.829
0.0906776	120.659
0.0912011	120.487
0.0917276	120.314
0.0922571	120.139
0.0927897	119.963
0.0933254	119.786
0.0938642	119.606
0.0944061	119.425
0.0949511	119.243
0.0954993	119.058
0.0960506	118.872
0.0966051	118.684
0.0971628	118.494
0.0977237	118.303
0.0982879	118.111
0.0988553	117.917
0.099426	117.722
0.1	117.525
0.100577	117.328
0.101158	117.129
0.101742	116.93
0.102329	116.729
0.10292	116.528
0.103514	116.325
0.104112	116.121
0.104713	115.917
0.105317	115.711
0.105925	115.504
0.106537	115.297
0.107152	115.088
0.107771	114.879
0.108393	114.668
0.109018	114.457
0.109648	114.244
0.110281	114.031
0.110917	113.817
0.111558	113.602
0.112202	113.386
0.11285	113.169
0.113501	112.952
0.114156	112.734
0.114815	112.515
0.115478	112.295
0.116145	112.074
0.116815	111.853
0.11749	111.631
0.118168	111.409
0.11885	111.186
0.119536	110.962
0.120226	110.737
0.120921	110.513
0.121619	110.287
0.122321	110.061
0.123027	109.835
0.123737	109.608
0.124451	109.381
0.12517	109.153
0.125893	108.926
0.126619	108.698
0.12735	108.47
0.128086	108.241
0.128825	108.012
0.129569	107.783
0.130317	107.554
0.131069	107.324
0.131826	107.094
0.132587	106.864
0.133352	106.634
0.134122	106.403
0.134896	106.172
0.135675	105.941
0.136458	105.71
0.137246	105.478
0.138038	105.247
0.138835	105.015
0.139637	104.783
0.140443	104.551
0.141254	104.319
0.142069	104.087
0.142889	103.854
0.143714	103.622
0.144544	103.389
0.145378	103.156
0.146218	102.924
0.147062	102.691
0.147911	102.458
0.148765	102.225
0.149624	101.993
0.150487	101.76
0.151356	101.526
0.15223	101.293
0.153109	101.06
0.153993	100.827
0.154882	100.595
0.155776	100.362
0.156675	100.129
0.15758	99.8964
0.158489	99.6639
0.159404	99.4315
0.160325	99.1993
0.16125	98.9673
0.162181	98.7354
0.163117	98.5037
0.164059	98.2722
0.165006	98.0408
0.165959	97.8098
0.166917	97.5789
0.16788	97.3483
0.16885	97.118
0.169824	96.8879
0.170805	96.6581
0.171791	96.4287
0.172783	96.1995
0.17378	95.9707
0.174783	95.7422
0.175792	95.5141
0.176807	95.2863
0.177828	95.0589
0.178855	94.8318
0.179887	94.6052
0.180926	94.3789
0.18197	94.1529
0.183021	93.9274
0.184077	93.7022
0.18514	93.4774
0.186209	93.2529
0.187284	93.0289
0.188365	92.8052
0.189452	92.5818
0.190546	92.3589
0.191646	92.1363
0.192752	91.914
0.193865	91.6921
0.194984	91.4706
0.19611	91.2494
0.197242	91.0285
0.198381	90.808
0.199526	90.5878
0.200678	90.368
0.201837	90.1484
0.203002	89.9292
0.204174	89.7103
0.205353	89.4917
0.206538	89.2735
0.20773	89.0556
0.20893	88.8381
0.210136	88.6209
0.211349	88.4041
0.212569	88.1876
0.213796	87.9715
0.21503	87.7558
0.216272	87.5404
0.21752	87.3254
0.218776	87.1108
0.220039	86.8965
0.221309	86.6826
0.222587	86.4691
0.223872	86.256
0.225165	86.0432
0.226464	85.8308
0.227772	85.6188
0.229087	85.4072
0.230409	85.196
0.231739	84.9852
0.233077	84.7748
0.234423	84.5648
0.235776	84.3553
0.237137	84.1462
0.238506	83.9375
0.239883	83.7293
0.241268	83.5216
0.242661	83.3143
0.244062	83.1075
0.245471	82.9011
0.246888	82.6953
0.248313	82.4899
0.249747	82.285
0.251189	82.0806
0.252639	81.8767
0.254097	81.6733
0.255564	81.4704
0.25704	81.2678
0.258523	81.0657
0.260016	80.864
0.261517	80.6627
0.263027	80.4617
0.264545	80.2611
0.266073	80.0608
0.267609	79.8608
0.269153	79.661
0.270707	79.4615
0.27227	79.2622
0.273842	79.063
0.275423	78.864
0.277013	78.6651
0.278612	78.4664
0.280221	78.2678
0.281838	78.0694
0.283465	77.8712
0.285102	77.6733
0.286748	77.4755
0.288403	77.2781
0.290068	77.0809
0.291743	76.8841
0.293427	76.6875
0.295121	76.4913
0.296825	76.2956
0.298538	76.1002
0.300262	75.9052
0.301995	75.7105
0.303739	75.5164
0.305492	75.3226
0.307256	75.1293
0.30903	74.9364
0.310814	74.744
0.312608	74.5519
0.314413	74.3603
0.316228	74.1691
0.318053	73.9783
0.31989	73.7879
0.321736	73.5979
0.323594	73.4082
0.325462	73.219
0.327341	73.03
0.32923	72.8415
0.331131	72.6532
0.333043	72.4653
0.334965	72.2777
0.336899	72.0904
0.338844	71.9034
0.3408	71.7166
0.342768	71.5301
0.344747	71.3438
0.346737	71.1577
0.348739	70.9718
0.350752	70.7863
0.352777	70.6012
0.354813	70.4163
0.356862	70.2316
0.358922	70.047
0.360994	69.8627
0.363078	69.6785
0.365174	69.4946
0.367282	69.3108
0.369403	69.1273
0.371535	68.944
0.37368	68.7609
0.375837	68.578
0.378007	68.3954
0.380189	68.213
0.382384	68.0308
0.384592	67.8489
0.386812	67.6673
0.389045	67.4859
0.391291	67.3048
0.39355	67.1239
0.395822	66.9433
0.398107	66.763
0.400405	66.583
0.402717	66.4031
0.405042	66.2236
0.40738	66.0442
0.409732	65.8652
0.412098	65.6864
0.414477	65.5079
0.416869	65.3296
0.419276	65.1516
0.421697	64.9738
0.424131	64.7962
0.42658	64.6188
0.429042	64.4417
0.431519	64.2647
0.43401	64.0879
0.436516	63.9112
0.439036	63.7347
0.44157	63.5584
0.44412	63.3822
0.446684	63.2061
0.449262	63.0301
0.451856	62.8541
0.454465	62.6782
0.457088	62.5025
0.459727	62.327
0.462381	62.1516
0.46505	61.9765
0.467735	61.8017
0.470435	61.6272
0.473151	61.4531
0.475883	61.2793
0.47863	61.1061
0.481393	60.9333
0.484172	60.7611
0.486968	60.5895
0.489779	60.4185
0.492606	60.2482
0.49545	60.0787
0.49831	59.9099
0.501187	59.742
0.504081	59.575
0.506991	59.4089
0.509918	59.2436
0.512861	59.079
0.515822	58.9153
0.5188	58.7522
0.521795	58.5899
0.524807	58.4283
0.527837	58.2672
0.530884	58.1068
0.533949	57.9469
0.537032	57.7876
0.540132	57.6287
0.54325	57.4703
0.546387	57.3122
0.549541	57.1545
0.552713	56.997
0.555904	56.8398
0.559114	56.6829
0.562341	56.5263
0.565588	56.3699
0.568853	56.2137
0.572137	56.0578
0.57544	55.9021
0.578762	55.7467
0.582103	55.5915
0.585464	55.4365
0.588844	55.2817
0.592243	55.1271
0.595662	54.9727
0.599101	54.8185
0.60256	54.6644
0.606038	54.5104
0.609537	54.3566
0.613056	54.2028
0.616595	54.0491
0.620155	53.8954
0.623735	53.7416
0.627336	53.5877
0.630957	53.4338
0.6346	53.2796
0.638263	53.1253
0.641948	52.9706
0.645654	52.8157
0.649382	52.6604
0.653131	52.5047
0.656901	52.3486
0.660693	52.1922
0.664508	52.0354
0.668344	51.8783
0.672202	51.7208
0.676083	51.5632
0.679986	51.4053
0.683912	51.2473
0.68786	51.089
0.691831	50.9307
0.695825	50.7723
0.699842	50.6138
0.703882	50.4553
0.707946	50.2968
0.712033	50.1382
0.716143	49.9795
0.720278	49.8206
0.724436	49.6616
0.728618	49.5023
0.732825	49.3428
0.737055	49.1829
0.74131	49.0227
0.74559	48.862
0.749894	48.701
0.754223	48.5394
0.758578	48.3773
0.762957	48.2147
0.767361	48.0515
0.771792	47.8879
0.776247	47.7238
0.780728	47.5592
0.785236	47.3941
0.789769	47.2284
0.794328	47.0623
0.798914	46.8957
0.803526	46.7286
0.808165	46.5611
0.812831	46.3935
0.817523	46.2259
0.822243	46.0586
0.82699	45.8916
0.831764	45.7254
0.836566	45.56
0.841395	45.3957
0.846253	45.2328
0.851138	45.0715
0.856052	44.9118
0.860994	44.7538
0.865964	44.5972
0.870964	44.4418
0.875992	44.2875
0.881049	44.1341
0.886135	43.9813
0.891251	43.829
0.896396	43.677
0.901571	43.5249
0.906776	43.3728
0.912011	43.2207
0.917276	43.0686
0.922571	42.9167
0.927897	42.7651
0.933254	42.6138
0.938642	42.463
0.944061	42.3127
0.949511	42.163
0.954993	42.0142
0.960506	41.866
0.966051	41.7185
0.971628	41.5717
0.977237	41.4254
0.982879	41.2796
0.988553	41.1343
0.99426	40.9895
1	40.8449
1.00577	40.7005
1.01158	40.5564
1.01742	40.4125
1.02329	40.269
1.0292	40.1257
1.03514	39.9827
1.04112	39.8401
1.04713	39.6977
1.05317	39.5557
1.05925	39.4139
1.06537	39.2725
1.07152	39.1314
1.07771	38.9907
1.08393	38.8502
1.09018	38.7101
1.09648	38.5704
1.10281	38.431
1.10917	38.2919
1.11558	38.1532
1.12202	38.0148
1.1285	37.8768
1.13501	37.7392
1.14156	37.6019
1.14815	37.4649
1.15478	37.3284
1.16145	37.1922
1.16815	37.0563
1.1749	36.9209
1.18168	36.7858
1.1885	36.651
1.19536	36.5166
1.20226	36.3826
1.20921	36.249
1.21619	36.1158
1.22321	35.9829
1.23027	35.8503
1.23737	35.7182
1.24451	35.5864
1.2517	35.4552
1.25893	35.3253
1.26619	35.1958
1.2735	35.0667
1.28086	34.9379
1.28825	34.8095
1.29569	34.6815
1.30317	34.5538
1.31069	34.4265
1.31826	34.2996
1.32587	34.1731
1.33352	34.047
1.34122	33.9212
1.34896	33.7958
1.35675	33.6708
1.36458	33.5461
1.37246	33.4219
1.38038	33.298
1.38835	33.1744
1.39637	33.0513
1.40443	32.9284
1.41254	32.806
1.42069	32.6839
1.42889	32.5621
1.43714	32.4407
1.44544	32.3197
1.45378	32.199
1.46218	32.0786
1.47062	31.9585
1.47911	31.8387
1.48765	31.7193
1.49624	31.6001
1.50487	31.4811
1.51356	31.3621
1.5223	31.2435
1.53109	31.1252
1.53993	31.0071
1.54882	30.8894
1.55776	30.772
1.56675	30.6549
1.5758	30.5382
1.58489	30.4217
1.59404	30.3056
1.60325	30.1898
1.6125	30.0744
1.62181	29.9593
1.63117	29.8446
1.64059	29.7302
1.65006	29.6162
1.65959	29.5025
1.66917	29.3892
1.6788	29.2763
1.6885	29.1637
1.69824	29.0515
1.70805	28.9397
1.71791	28.8283
1.72783	28.7172
1.7378	28.6066
1.74783	28.4963
1.75792	28.3864
1.76807	28.2769
1.77828	28.1678
1.78855	28.059
1.79887	27.9507
1.80926	27.8428
1.8197	27.7352
1.83021	27.6281
1.84077	27.5213
1.8514	27.415
1.86209	27.309
1.87284	27.2035
1.88365	27.0983
1.89452	26.9935
1.90546	26.8891
1.91646	26.7851
1.92752	26.6815
1.93865	26.5783
1.94984	26.4754
1.9611	26.373
1.97242	26.2709
1.98381	26.1691
1.99526	26.0678
2.00678	25.9662
2.01837	25.8647
2.03002	25.7635
2.04174	25.6627
2.05353	25.5622
2.06538	25.462
2.0773	25.3621
2.0893	25.2626
2.10136	25.1634
2.11349	25.0646
2.12569	24.9661
2.13796	24.8679
2.1503	24.7701
2.16272	24.6726
2.1752	24.5754
2.18776	24.4785
2.20039	24.382
2.21309	24.2858
2.22587	24.1899
2.23872	24.0944
2.25165	23.9991
2.26464	23.9042
2.27772	23.8096
2.29087	23.7154
2.30409	23.6215
2.31739	23.5278
2.33077	23.4345
2.34423	23.3416
2.35776	23.2035
2.37137	23.1121
2.38506	23.0209
2.39883	22.93
2.41268	22.8395
2.42661	22.7493
2.44062	22.7218
2.45471	22.6303
2.46888	22.539
2.48313	22.4481
2.49747	22.3575
2.51189	22.2672
2.52639	22.1772
2.54097	22.0875
2.55564	21.9982
2.5704	21.9091
2.58523	21.8204
2.60016	21.732
2.61517	21.6439
2.63027	21.5561
2.64545	21.4686
2.66073	21.3814
2.67609	21.2945
2.69153	21.2079
2.70707	21.1217
2.7227	21.0357
2.73842	20.95
2.75423	20.8647
2.77013	20.7796
2.78612	20.6949
2.80221	20.6104
2.81838	20.5262
2.83465	20.4192
2.85102	20.3361
2.86748	20.2534
2.88403	20.1709
2.90068	20.0887
2.91743	20.0068
2.93427	19.9748
2.95121	19.893
2.96825	19.8116
2.98538	19.7304
3.00262	19.6496
3.01995	19.569
3.03739	19.4887
3.05492	19.4086
3.07256	19.3289
3.0903	19.2494
3.10814	19.1702
3.12608	19.0912
3.14413	19.0126
3.16228	18.9342
3.18053	18.8561
3.1989	18.7783
3.21736	18.7007
3.23594	18.6234
3.25462	18.5464
3.27341	18.4696
3.2923	18.3932
3.31131	18.3051
3.33043	18.2295
3.34965	18.1541
3.36899	18.079
3.38844	18.0042
3.408	17.9297
3.42768	17.8729
3.44747	17.7985
3.46737	17.7243
3.48739	17.6505
3.50752	17.5769
3.52777	17.5035
3.54813	17.4304
3.56862	17.3576
3.58922	17.2851
3.60994	17.2128
3.63078	17.1407
3.65174	17.069
3.67282	17.0255
3.69403	16.9539
3.71535	16.8825
3.7368	16.8114
3.75837	16.7406
3.78007	16.6635
3.80189	16.5934
3.82384	16.5237
3.84592	16.4542
3.86812	16.385
3.89045	16.316
3.91291	16.2473
3.9355	16.1788
3.95822	16.1106
3.98107	16.0426
4.00405	15.9749
4.02717	15.9074
4.05042	15.8402
4.0738	15.7733
4.09732	15.7066
4.12098	15.6401
4.14477	15.5739
4.16869	15.5369
4.19276	15.4708
4.21697	15.4049
4.24131	15.3393
4.2658	15.2739
4.29042	15.2087
4.31519	15.1439
4.3401	15.0792
4.36516	15.0148
4.39036	14.9507
4.4157	14.8868
4.4412	14.8232
4.46684	14.7598
4.49262	14.6966
4.51856	14.6337
4.54465	14.5711
4.57088	14.5087
4.59727	14.4465
4.62381	14.3846
4.6505	14.3229
4.67735	14.2615
4.70435	14.2003
4.73151	14.136
4.75883	14.0755
4.7863	14.0152
4.81393	13.9552
4.84172	13.8954
4.86968	13.8359
4.89779	13.8261
4.92606	13.7664
4.9545	13.7069
4.9831	13.6476
5.01187	13.5886
5.04081	13.5299
5.06991	13.4713
5.09918	13.4131
5.12861	13.355
5.15822	13.2972
5.188	13.2396
5.21795	13.1823
5.24807	13.1252
5.27837	13.0683
5.30884	13.0117
5.33949	12.9553
5.37032	12.8991
5.40132	12.8432
5.4325	12.7875
5.46387	12.732
5.49541	12.6767
5.52713	12.6217
5.55904	12.5669
5.59114	12.5123
5.62341	12.458
5.65588	12.4039
5.68853	12.3513
5.72137	12.2977
5.7544	12.2443
5.78762	12.1912
5.82103	12.1383
5.85464	12.0856
5.88844	12.0331
5.92243	11.9808
5.95662	11.9288
5.99101	11.8769
6.0256	11.8253
6.06038	11.7739
6.09537	11.7227
6.13056	11.6717
6.16595	11.6209
6.20155	11.5704
6.23735	11.52
6.27336	11.4699
6.30957	11.42
6.346	11.3703
6.38263	11.3208
6.41948	11.2714
6.45654	11.2224
6.49382	11.1735
6.53131	11.1248
6.56901	11.0763
6.60693	11.028
6.64508	10.9824
6.68344	10.9345
6.72202	10.8869
6.76083	10.8394
6.79986	10.7921
6.83912	10.745
6.8786	10.6981
6.91831	10.6514
6.95825	10.6049
6.99842	10.5586
7.03882	10.5125
7.07946	10.4666
7.12033	10.4233
7.16143	10.3778
7.20278	10.3325
7.24436	10.2874
7.28618	10.2425
7.32825	10.1978
7.37055	10.1765
7.4131	10.1316
7.4559	10.087
7.49894	10.0425
7.54223	9.9982
7.58578	9.95411
7.62957	9.9102
7.67361	9.86647
7.71792	9.82293
7.76247	9.77958
7.80728	9.73641
7.85236	9.69342
7.89769	9.65062
7.94328	9.60799
7.98914	9.56555
8.03526	9.52329
8.08165	9.48467
8.12831	9.44275
8.17523	9.40101
8.22243	9.35944
8.2699	9.31806
8.31764	9.27684
8.36566	9.23581
8.41395	9.19494
8.46253	9.15425
8.51138	9.11373
8.56052	9.07339
8.60994	9.03321
8.65964	8.99321
8.70964	8.95337
8.75992	8.91371
8.81049	8.87421
8.86135	8.83488
8.91251	8.79572
8.96396	8.75672
9.01571	8.71789
9.06776	8.67923
9.12011	8.64073
9.17276	8.6024
9.22571	8.56422
9.27897	8.52621
9.33254	8.48837
9.38642	8.45068
9.44061	8.41316
9.49511	8.37579
9.54993	8.34446
9.60506	8.30741
9.66051	8.27052
9.71628	8.23378
9.77237	8.1972
9.82879	8.16078
9.88553	8.12451
9.9426	8.0884
10	8.05244
10.0577	8.01664
10.1158	7.98099
10.1742	7.94549
10.2329	7.91015
10.292	7.87496
10.3514	7.83992
10.4112	7.80503
10.4713	7.77028
10.5317	7.73569
10.5925	7.70125
10.6537	7.66696
10.7152	7.63281
10.7771	7.59881
10.8393	7.56496
10.9018	7.53125
10.9648	7.49769
11.0281	7.46427
11.0917	7.431
11.1558	7.39787
11.2202	7.36488
11.285	7.33204
11.3501	7.29934
11.4156	7.26678
11.4815	7.23436
11.5478	7.20208
11.6145	7.16995
11.6815	7.13795
11.749	7.10609
11.8168	7.07437
11.885	7.04278
11.9536	7.01133
12.0226	6.98002
12.0921	6.94885
12.1619	6.91781
12.2321	6.88691
12.3027	6.85614
12.3737	6.78623
12.4451	6.7552
12.517	6.72431
12.5893	6.69355
12.6619	6.66293
12.735	6.63245
12.8086	6.60209
12.8825	6.57187
12.9569	6.54179
13.0317	6.51183
13.1069	6.48201
13.1826	6.45232
13.2587	6.42276
13.3352	6.39332
13.4122	6.36402
13.4896	6.33485
13.5675	6.30581
13.6458	6.27689
13.7246	6.24811
13.8038	6.21945
13.8835	6.19091
13.9637	6.1625
14.0443	6.13422
14.1254	6.10607
14.2069	6.07803
14.2889	6.05012
14.3714	6.02234
14.4544	6.00325
14.5378	5.97561
14.6218	5.9481
14.7062	5.9207
14.7911	5.89343
14.8765	5.86628
14.9624	5.83925
15.0487	5.81234
15.1356	5.78555
15.223	5.75888
15.3109	5.73233
15.3993	5.7059
15.4882	5.67958
15.5776	5.65338
15.6675	5.6273
15.758	5.60134
15.8489	5.57549
15.9404	5.54975
16.0325	5.52414
16.125	5.49863
16.2181	5.47324
16.3117	5.44796
16.4059	5.4228
16.5006	5.39775
16.5959	5.37281
16.6917	5.34799
16.788	5.32327
16.885	5.29867
16.9824	5.27417
17.0805	5.24979
17.1791	5.22551
17.2783	5.20135
17.378	5.17729
17.4783	5.15391
17.5792	5.1316
17.6807	5.10938
17.7828	5.08724
17.8855	5.06518
17.9887	5.0432
18.0926	5.0213
18.197	4.99949
18.3021	4.97776
18.4077	4.95611
18.514	4.93455
18.6209	4.91306
18.7284	4.89166
18.8365	4.87034
18.9452	4.8491
19.0546	4.82794
19.1646	4.80687
19.2752	4.78588
19.3865	4.76496
19.4984	4.74413
19.611	4.72338
19.7242	4.70271
19.8381	4.68213
19.9526	4.66162
20.0678	4.64119
20.1837	4.62085
20.3002	4.60058
20.4174	4.5804
20.5353	4.56029
20.6538	4.54027
20.773	4.52032
20.893	4.50046
21.0136	4.48067
21.1349	4.46096
21.2569	4.44134
21.3796	4.42179
21.503	4.40232
21.6272	4.38293
21.752	4.36362
21.8776	4.34438
22.0039	4.32523
22.1309	4.30615
22.2587	4.28715
22.3872	4.26823
22.5165	4.24939
22.6464	4.23062
22.7772	4.21193
22.9087	4.19332
23.0409	4.17479
23.1739	4.15633
23.3077	4.13795
23.4423	4.11964
23.5776	4.10141
23.7137	4.08326
23.8506	4.06518
23.9883	4.04718
24.1268	4.02925
24.2661	4.0114
24.4062	3.99877
24.5471	3.981
24.6888	3.96331
24.8313	3.94569
24.9747	3.92815
25.1189	3.91068
25.2639	3.89329
25.4097	3.87596
25.5564	3.85872
25.704	3.84154
25.8523	3.82444
26.0016	3.80741
26.1517	3.79046
26.3027	3.77358
26.4545	3.75677
26.6073	3.74003
26.7609	3.72336
26.9153	3.70677
27.0707	3.69024
27.227	3.67379
27.3842	3.65741
27.5423	3.6411
27.7013	3.62486
27.8612	3.60869
28.0221	3.59259
28.1838	3.57657
28.3465	3.56061
28.5102	3.54472
28.6748	3.5289
28.8403	3.51314
29.0068	3.49746
29.1743	3.48185
29.3427	3.4663
29.5121	3.45082
29.6825	3.43541
29.8538	3.42007
30.0262	3.40479
30.1995	3.38959
30.3739	3.37444
30.5492	3.35937
30.7256	3.34436
30.903	3.32942
31.0814	3.31454
31.2608	3.29973
31.4413	3.28499
31.6228	3.27031
31.8053	3.2557
31.989	3.24115
32.1736	3.22666
32.3594	3.21224
32.5462	3.19789
32.7341	3.1836
32.923	3.16937
33.1131	3.1552
33.3043	3.1411
33.4965	3.12706
33.6899	3.11309
33.8844	3.09918
34.08	3.08532
34.2768	3.07154
34.4747	3.05781
34.6737	3.04629
34.8739	3.03265
35.0752	3.01908
35.2777	3.00557
35.4813	2.99212
35.6862	2.97873
35.8922	2.9654
36.0994	2.95213
36.3078	2.93893
36.5174	2.92578
36.7282	2.91269
36.9403	2.89966
37.1535	2.88669
37.368	2.87378
37.5837	2.86092
37.8007	2.84813
38.0189	2.83539
38.2384	2.82272
38.4592	2.8101
38.6812	2.79753
38.9045	2.78503
39.1291	2.77258
39.355	2.76019
39.5822	2.74785
39.8107	2.73557
40.0405	2.72335
40.2717	2.71119
40.5042	2.69907
40.738	2.68702
40.9732	2.67502
41.2098	2.66308
41.4477	2.65119
41.6869	2.63935
41.9276	2.62757
42.1697	2.61585
42.4131	2.60417
42.658	2.59256
42.9042	2.58099
43.1519	2.56948
43.401	2.55802
43.6516	2.54662
43.9036	2.53526
44.157	2.52396
44.412	2.51272
44.6684	2.50152
44.9262	2.49038
45.1856	2.47929
45.4465	2.46825
45.7088	2.45726
45.9727	2.44632
46.2381	2.43543
46.505	2.4246
46.7735	2.41381
47.0435	2.40308
47.3151	2.39239
47.5883	2.38175
47.863	2.37117
48.1393	2.36063
48.4172	2.35014
48.6968	2.33971
48.9779	2.32932
49.2606	2.31898
49.545	2.30868
49.831	2.29844
50.1187	2.28824
50.4081	2.27809
50.6991	2.26799
50.9918	2.25891
51.2861	2.24891
51.5822	2.23895
51.88	2.22904
52.1795	2.21917
52.4807	2.20935
52.7837	2.19958
53.0884	2.18986
53.3949	2.18017
53.7032	2.17054
54.0132	2.16095
54.325	2.1514
54.6387	2.1419
54.9541	2.13245
55.2713	2.12304
55.5904	2.11367
55.9114	2.10435
56.2341	2.09507
56.5588	2.08583
56.8853	2.07664
57.2137	2.0675
57.544	2.05839
57.8762	2.04933
58.2103	2.04031
58.5464	2.03133
58.8844	2.0224
59.2243	2.01351
59.5662	2.00466
59.9101	1.99585
60.256	1.98709
60.6038	1.97836
60.9537	1.96968
61.3056	1.96104
61.6595	1.95244
62.0155	1.94388
62.3735	1.93536
62.7336	1.92688
63.0957	1.91844
63.46	1.91004
63.8263	1.90169
64.1948	1.89337
64.5654	1.88509
64.9382	1.87685
65.3131	1.86865
65.6901	1.86049
66.0693	1.85237
66.4508	1.84429
66.8344	1.83624
67.2202	1.82824
67.6083	1.82027
67.9986	1.81234
68.3912	1.80445
68.786	1.7966
69.1831	1.78878
69.5825	1.781
69.9842	1.77326
70.3882	1.76556
70.7946	1.75789
71.2033	1.75026
71.6143	1.74267
72.0278	1.73512
72.4436	1.7276
72.8618	1.72011
73.2825	1.71266
73.7055	1.70525
74.131	1.69788
74.559	1.69054
74.9894	1.68323
75.4223	1.67596
75.8578	1.66873
76.2957	1.66153
76.7361	1.65436
77.1792	1.64723
77.6247	1.64014
78.0728	1.63307
78.5236	1.62605
78.9769	1.61905
79.4328	1.61209
79.8914	1.60517
80.3526	1.59828
80.8165	1.59142
81.2831	1.58459
81.7523	1.5778
82.2243	1.57104
82.699	1.56432
83.1764	1.55762
83.6566	1.55096
84.1395	1.54434
84.6253	1.53774
85.1138	1.53118
85.6052	1.52464
86.0994	1.51815
86.5964	1.51168
87.0964	1.50524
87.5992	1.49884
88.1049	1.49246
88.6135	1.48612
89.1251	1.47981
89.6396	1.47353
90.1571	1.46728
90.6776	1.46106
91.2011	1.45487
91.7276	1.44871
92.2571	1.44258
92.7897	1.43649
93.3254	1.43042
93.8642	1.42438
94.4061	1.41837
94.9511	1.41239
95.4993	1.40644
96.0506	1.40052
96.6051	1.39463
97.1628	1.38877
97.7237	1.38294
98.2879	1.37713
98.8553	1.37136
99.426	1.36561
100	1.35989
100.577	1.3542
101.158	1.34854
101.742	1.34291
102.329	1.3373
102.92	1.33172
103.514	1.32617
104.112	1.32065
104.713	1.31515
105.317	1.30968
105.925	1.30424
106.537	1.29883
107.152	1.29344
107.771	1.28808
108.393	1.28274
109.018	1.27744
109.648	1.27215
110.281	1.2669
110.917	1.26167
111.558	1.25647
112.202	1.25129
112.85	1.24614
113.501	1.24102
114.156	1.23592
114.815	1.23084
115.478	1.22579
116.145	1.22077
116.815	1.21577
117.49	1.2108
118.168	1.20585
118.85	1.20093
119.536	1.19603
120.226	1.19116
120.921	1.18631
121.619	1.18148
122.321	1.17668
123.027	1.1719
123.737	1.16715
124.451	1.16242
125.17	1.15772
125.893	1.15304
126.619	1.14838
127.35	1.14374
128.086	1.13913
128.825	1.13455
129.569	1.12998
130.317	1.12544
131.069	1.12092
131.826	1.11643
132.587	1.11196
133.352	1.10751
134.122	1.10308
134.896	1.09867
135.675	1.09429
136.458	1.08993
137.246	1.08559
138.038	1.08128
138.835	1.07698
139.637	1.07271
140.443	1.06846
141.254	1.06423
142.069	1.06002
142.889	1.05584
143.714	1.05167
144.544	1.04753
145.378	1.04341
146.218	1.03931
147.062	1.03523
147.911	1.03117
148.765	1.02713
149.624	1.02311
150.487	1.01912
151.356	1.01514
152.23	1.01119
153.109	1.00725
153.993	1.00333
154.882	0.999439
155.776	0.995564
156.675	0.991709
157.58	0.987873
158.489	0.984058
159.404	0.980262
160.325	0.976485
161.25	0.972729
162.181	0.968991
163.117	0.965273
164.059	0.961574
165.006	0.957895
165.959	0.954234
166.917	0.950592
167.88	0.946969
168.85	0.943366
169.824	0.93978
170.805	0.936214
171.791	0.932666
172.783	0.929136
173.78	0.925625
174.783	0.922132
175.792	0.918657
176.807	0.915201
177.828	0.911762
178.855	0.908341
179.887	0.904939
180.926	0.901554
181.97	0.898187
183.021	0.894837
184.077	0.891505
185.14	0.88819
186.209	0.884893
187.284	0.881614
188.365	0.878351
189.452	0.875106
190.546	0.871877
191.646	0.868666
192.752	0.865471
193.865	0.862294
194.984	0.859133
196.11	0.855989
197.242	0.852861
198.381	0.84975
199.526	0.846656
200.678	0.843578
201.837	0.840516
203.002	0.83747
204.174	0.834441
205.353	0.831428
206.538	0.82843
207.73	0.825449
208.93	0.822484
210.136	0.819534
211.349	0.8166
212.569	0.813682
213.796	0.810779
215.03	0.807892
216.272	0.80502
217.52	0.802164
218.776	0.799323
220.039	0.796497
221.309	0.793686
222.587	0.79089
223.872	0.78811
225.165	0.785344
226.464	0.782593
227.772	0.779857
229.087	0.777136
230.409	0.77443
231.739	0.771738
233.077	0.769061
234.423	0.766398
235.776	0.763749
237.137	0.761115
238.506	0.758495
239.883	0.75589
241.268	0.753298
242.661	0.750721
244.062	0.748157
245.471	0.745608
246.888	0.743073
248.313	0.740551
249.747	0.738043
251.189	0.735549
252.639	0.733068
254.097	0.730601
255.564	0.728148
257.04	0.725708
258.523	0.723281
260.016	0.720868
261.517	0.718468
263.027	0.716081
264.545	0.713708
266.073	0.711347
267.609	0.709
269.153	0.706665
270.707	0.704344
272.27	0.702035
273.842	0.699739
275.423	0.697456
277.013	0.695185
278.612	0.692927
280.221	0.690682
281.838	0.688449
283.465	0.686229
285.102	0.684021
286.748	0.681825
288.403	0.679642
290.068	0.67747
291.743	0.675311
293.427	0.673165
295.121	0.67103
296.825	0.668907
298.538	0.666796
300.262	0.664697
301.995	0.66261
303.739	0.660535
305.492	0.658471
307.256	0.656419
309.03	0.654379
310.814	0.65235
312.608	0.650333
314.413	0.648327
316.228	0.646333
318.053	0.64435
319.89	0.642378
321.736	0.640418
323.594	0.638468
325.462	0.63653
327.341	0.634603
329.23	0.632688
331.131	0.630783
333.043	0.628889
334.965	0.627006
336.899	0.625134
338.844	0.623272
340.8	0.621422
342.768	0.619582
344.747	0.617753
346.737	0.615934
348.739	0.614126
350.752	0.612328
352.777	0.610541
354.813	0.608765
356.862	0.606999
358.922	0.605243
360.994	0.603497
363.078	0.601762
365.174	0.600036
367.282	0.598321
369.403	0.596616
371.535	0.594921
373.68	0.593236
375.837	0.591561
378.007	0.589896
380.189	0.588241
382.384	0.586596
384.592	0.58496
386.812	0.583334
389.045	0.581718
391.291	0.580111
393.55	0.578514
395.822	0.576927
398.107	0.575349
400.405	0.573781
402.717	0.572222
405.042	0.570672
407.38	0.569132
409.732	0.567601
412.098	0.566079
414.477	0.564567
416.869	0.563063
419.276	0.561569
421.697	0.560084
424.131	0.558608
426.58	0.557141
429.042	0.555683
431.519	0.554234
434.01	0.552793
436.516	0.551362
439.036	0.549939
441.57	0.548526
444.12	0.547121
446.684	0.545724
449.262	0.544336
451.856	0.542957
454.465	0.541587
457.088	0.540225
459.727	0.538871
462.381	0.537526
465.05	0.536189
467.735	0.534861
470.435	0.533541
473.151	0.532229
475.883	0.530926
478.63	0.529631
481.393	0.528344
484.172	0.527065
486.968	0.525794
489.779	0.524531
492.606	0.523277
495.45	0.52203
498.31	0.520791
501.187	0.519561
504.081	0.518338
506.991	0.517123
509.918	0.515916
512.861	0.514716
515.822	0.513525
518.8	0.512341
521.795	0.511165
524.807	0.509996
527.837	0.508835
530.884	0.507682
533.949	0.506536
537.032	0.505398
540.132	0.504267
543.25	0.503144
546.387	0.502028
549.541	0.500919
552.713	0.499818
555.904	0.498724
559.114	0.497637
562.341	0.496558
565.588	0.495486
568.853	0.494421
572.137	0.493363
575.44	0.492312
578.762	0.491268
582.103	0.490232
585.464	0.489202
588.844	0.488179
592.243	0.487164
595.662	0.486155
599.101	0.485153
602.56	0.484158
606.038	0.48317
609.537	0.482188
613.056	0.481214
616.595	0.480246
620.155	0.479284
623.735	0.47833
627.336	0.477382
630.957	0.476441
634.6	0.475506
638.263	0.474578
641.948	0.473656
645.654	0.472741
649.382	0.471832
653.131	0.47093
656.901	0.470034
660.693	0.469144
664.508	0.468261
668.344	0.467384
672.202	0.466514
676.083	0.465649
679.986	0.464791
683.912	0.463939
687.86	0.463094
691.831	0.462254
695.825	0.461421
699.842	0.460593
703.882	0.459772
707.946	0.458956
712.033	0.458147
716.143	0.457344
720.278	0.456546
724.436	0.455755
728.618	0.454969
732.825	0.454189
737.055	0.453415
741.31	0.452647
745.59	0.451885
749.894	0.451128
754.223	0.450377
758.578	0.449632
762.957	0.448893
767.361	0.448159
771.792	0.447431
776.247	0.446708
780.728	0.445991
785.236	0.445279
789.769	0.444573
794.328	0.443873
798.914	0.443178
803.526	0.442488
808.165	0.441804
812.831	0.441125
817.523	0.440451
822.243	0.439783
826.99	0.439139
831.764	0.438501
836.566	0.437869
841.395	0.437241
846.253	0.436618
851.138	0.436
856.052	0.435388
860.994	0.43478
865.964	0.434178
870.964	0.43358
875.992	0.432988
881.049	0.4324
886.135	0.431817
891.251	0.43124
896.396	0.430667
901.571	0.430099
906.776	0.429535
912.011	0.428977
917.276	0.428423
922.571	0.427874
927.897	0.42733
933.254	0.426791
938.642	0.426256
944.061	0.425726
949.511	0.425201
954.993	0.42468
960.506	0.424164
966.051	0.423653
971.628	0.423146
977.237	0.422643
982.879	0.422146
988.553	0.421652
994.26	0.421163
1000	0.420679
1005.77	0.420199
1011.58	0.419724
1017.42	0.419253
1023.29	0.418786
1029.2	0.418324
1035.14	0.417866
1041.12	0.417413
1047.13	0.416964
1053.17	0.416519
1059.25	0.416078
1065.37	0.415642
1071.52	0.41521
1077.71	0.414782
1083.93	0.414358
1090.18	0.413939
1096.48	0.413523
1102.81	0.413112
1109.17	0.412705
1115.58	0.412302
1122.02	0.411903
1128.5	0.411508
1135.01	0.411118
1141.56	0.410731
1148.15	0.410348
1154.78	0.409969
1161.45	0.409595
1168.15	0.409224
1174.9	0.408857
1181.68	0.408494
1188.5	0.408135
1195.36	0.40778
1202.26	0.407429
1209.21	0.407081
1216.19	0.406738
1223.21	0.406398
1230.27	0.406062
1237.37	0.40573
1244.51	0.405401
1251.7	0.405077
1258.93	0.404756
1266.19	0.404438
1273.5	0.404125
1280.86	0.403815
1288.25	0.403508
1295.69	0.403206
1303.17	0.402907
1310.69	0.402611
1318.26	0.402319
1325.87	0.402031
1333.52	0.401746
1341.22	0.401465
1348.96	0.401187
1356.75	0.400913
1364.58	0.400643
1372.46	0.400375
1380.38	0.400111
1388.35	0.399851
1396.37	0.399594
1404.43	0.39934
1412.54	0.39909
1420.69	0.398843
1428.89	0.3986
1437.14	0.39836
1445.44	0.398123
1453.78	0.397889
1462.18	0.397659
1470.62	0.397432
1479.11	0.397208
1487.65	0.396988
1496.24	0.39677
1504.87	0.396556
1513.56	0.396345
1522.3	0.396138
1531.09	0.395933
1539.93	0.395732
1548.82	0.395533
1557.76	0.395338
1566.75	0.395146
1575.8	0.394957
1584.89	0.394771
1594.04	0.394588
1603.25	0.394408
1612.5	0.394231
1621.81	0.394057
1631.17	0.393886
1640.59	0.393718
1650.06	0.393553
1659.59	0.393391
1669.17	0.393231
1678.8	0.393075
1688.5	0.392922
1698.24	0.392771
1708.05	0.392624
1717.91	0.392479
1727.83	0.392337
1737.8	0.392197
1747.83	0.392061
1757.92	0.391927
1768.07	0.391797
1778.28	0.391669
1788.55	0.391543
1798.87	0.391421
1809.26	0.391301
1819.7	0.391183
1830.21	0.391069
1840.77	0.390957
1851.4	0.390848
1862.09	0.390741
1872.84	0.390637
1883.65	0.390536
1894.52	0.390437
1905.46	0.390341
1916.46	0.390248
1927.52	0.390157
1938.65	0.390068
1949.84	0.389982
1961.1	0.389899
1972.42	0.389818
1983.81	0.389739
1995.26	0.389663
2006.78	0.38959
2018.37	0.389519
2030.02	0.38945
2041.74	0.389384
2053.53	0.38932
2065.38	0.389259
2077.3	0.3892
2089.3	0.389143
2101.36	0.389089
2113.49	0.389037
2125.69	0.388987
2137.96	0.388939
2150.3	0.388894
2162.72	0.388852
2175.2	0.388811
2187.76	0.388773
2200.39	0.388737
2213.09	0.388703
2225.87	0.388671
2238.72	0.388642
2251.65	0.388615
2264.64	0.38859
2277.72	0.388567
2290.87	0.388547
2304.09	0.388528
2317.39	0.388512
2330.77	0.388497
2344.23	0.388485
2357.76	0.388475
2371.37	0.388467
2385.06	0.388461
2398.83	0.388457
2412.68	0.388456
2426.61	0.388456
2440.62	0.388458
2454.71	0.388462
2468.88	0.388468
2483.13	0.388477
2497.47	0.388487
2511.89	0.388499
2526.39	0.388513
2540.97	0.388529
2555.64	0.388547
2570.4	0.388567
2585.23	0.388589
2600.16	0.388612
2615.17	0.388638
2630.27	0.388665
2645.45	0.388694
2660.73	0.388726
2676.09	0.388758
2691.53	0.388793
2707.07	0.38883
2722.7	0.388868
2738.42	0.388908
2754.23	0.38895
2770.13	0.388994
2786.12	0.389039
2802.21	0.389086
2818.38	0.389135
2834.65	0.389186
2851.02	0.389238
2867.48	0.389292
2884.03	0.389347
2900.68	0.389405
2917.43	0.389464
2934.27	0.389524
2951.21	0.389587
2968.25	0.389651
2985.38	0.389716
3002.62	0.389783
3019.95	0.389852
3037.39	0.389922
3054.92	0.389994
3072.56	0.390068
3090.3	0.390143
3108.14	0.390219
3126.08	0.390297
3144.13	0.390377
3162.28	0.390458
3180.53	0.390541
3198.9	0.390625
3217.36	0.39071
3235.94	0.390797
3254.62	0.390886
3273.41	0.390976
3292.3	0.391067
3311.31	0.39116
3330.43	0.391255
3349.65	0.39135
3368.99	0.391447
3388.44	0.391546
3408	0.391646
3427.68	0.391747
3447.47	0.391849
3467.37	0.391953
3487.39	0.392059
3507.52	0.392165
3527.77	0.392273
3548.13	0.392383
3568.62	0.392493
3589.22	0.392605
3609.94	0.392718
3630.78	0.392833
3651.74	0.392948
3672.82	0.393065
3694.03	0.393184
3715.35	0.393303
3736.8	0.393424
3758.37	0.393546
3780.07	0.393669
3801.89	0.393793
3823.84	0.393919
3845.92	0.394045
3868.12	0.394173
3890.45	0.394302
3912.91	0.394433
3935.5	0.394564
3958.22	0.394696
3981.07	0.39483
4004.05	0.394965
4027.17	0.395101
4050.42	0.395238
4073.8	0.395376
4097.32	0.395515
4120.98	0.395655
4144.77	0.395797
4168.69	0.395939
4192.76	0.396083
4216.97	0.396227
4241.31	0.396373
4265.8	0.396519
4290.42	0.396667
4315.19	0.396815
4340.1	0.396965
4365.16	0.397116
4390.36	0.397267
4415.7	0.39742
4441.2	0.397574
4466.84	0.397728
4492.62	0.397884
4518.56	0.39804
4544.65	0.398198
4570.88	0.398356
4597.27	0.398515
4623.81	0.398675
4650.5	0.398837
4677.35	0.398999
4704.35	0.399162
4731.51	0.399325
4758.83	0.39949
4786.3	0.399656
4813.93	0.399822
4841.72	0.399989
4869.68	0.400158
4897.79	0.400327
4926.06	0.400496
4954.5	0.400667
4983.1	0.400839
5011.87	0.401011
5040.81	0.401184
5069.91	0.401358
5099.18	0.401533
5128.61	0.401708
5158.22	0.401885
5188	0.402062
5217.95	0.40224
5248.07	0.402418
5278.37	0.402598
5308.84	0.402778
5339.49	0.402959
5370.32	0.403141
5401.32	0.403323
5432.5	0.403506
5463.87	0.40369
5495.41	0.403874
5527.13	0.404059
5559.04	0.404245
5591.14	0.404432
5623.41	0.404619
5655.88	0.404807
5688.53	0.404996
5721.37	0.405185
5754.4	0.405375
5787.62	0.405566
5821.03	0.405757
5854.64	0.405949
5888.44	0.406142
5922.43	0.406335
5956.62	0.406529
5991.01	0.406723
6025.6	0.406918
6060.38	0.407114
6095.37	0.40731
6130.56	0.407507
6165.95	0.407704
6201.55	0.407902
6237.35	0.408101
6273.36	0.4083
6309.57	0.408499
6346	0.4087
6382.63	0.408901
6419.48	0.409102
6456.54	0.409304
6493.82	0.409506
6531.31	0.409709
6569.01	0.409913
6606.93	0.410117
6645.08	0.410321
6683.44	0.410526
6722.02	0.410732
6760.83	0.410938
6799.86	0.411145
6839.12	0.411352
6878.6	0.411559
6918.31	0.411767
6958.25	0.411976
6998.42	0.412185
7038.82	0.412394
7079.46	0.412604
7120.33	0.412814
7161.43	0.413025
7202.78	0.413236
7244.36	0.413448
7286.18	0.41366
7328.25	0.413872
7370.55	0.414085
7413.1	0.414299
7455.9	0.414513
7498.94	0.414727
7542.23	0.414941
7585.78	0.415156
7629.57	0.415372
7673.61	0.415588
7717.92	0.415804
7762.47	0.41602
7807.28	0.416237
7852.36	0.416455
7897.69	0.416672
7943.28	0.41689
7989.14	0.417109
8035.26	0.417327
8081.65	0.417547
8128.31	0.417766
8175.23	0.417986
8222.43	0.418206
8269.9	0.418427
8317.64	0.418647
8365.66	0.418868
8413.95	0.41909
8462.53	0.419312
8511.38	0.419534
8560.52	0.419756
8609.94	0.419979
8659.64	0.420202
8709.64	0.420425
8759.92	0.420649
8810.49	0.420873
8861.35	0.421097
8912.51	0.421322
8963.96	0.421546
9015.71	0.421771
9067.76	0.421997
9120.11	0.422222
9172.76	0.422448
9225.71	0.422674
9278.97	0.422901
9332.54	0.423127
9386.42	0.423354
9440.61	0.423581
9495.11	0.423809
9549.93	0.424036
9605.06	0.424264
9660.51	0.424492
9716.28	0.424721
9772.37	0.424949
9828.79	0.425178
9885.53	0.425407
9942.6	0.425636
10000	0.425866
10057.7	0.426095
10115.8	0.426325
10174.2	0.426555
10232.9	0.426785
10292	0.427016
10351.4	0.427246
10411.2	0.427477
10471.3	0.427708
10531.7	0.427939
10592.5	0.428171
10653.7	0.428402
10715.2	0.428634
10777.1	0.428866
10839.3	0.429098
10901.8	0.42933
10964.8	0.429563
11028.1	0.429795
11091.7	0.430028
11155.8	0.430261
11220.2	0.430494
11285	0.430727
11350.1	0.43096
11415.6	0.431194
11481.5	0.431428
11547.8	0.431661
11614.5	0.431895
11681.5	0.432129
11749	0.432363
11816.8	0.432598
11885	0.432832
11953.6	0.433067
12022.6	0.433301
12092.1	0.433536
12161.9	0.433771
12232.1	0.434006
12302.7	0.434241
12373.7	0.434476
12445.1	0.434712
12517	0.434947
12589.3	0.435183
12661.9	0.435418
12735	0.435654
12808.6	0.43589
12882.5	0.436126
12956.9	0.436362
13031.7	0.436598
13106.9	0.436834
13182.6	0.43707
13258.7	0.437307
13335.2	0.437543
13412.2	0.43778
13489.6	0.438016
13567.5	0.438253
13645.8	0.43849
13724.6	0.438726
13803.8	0.438963
13883.5	0.4392
13963.7	0.439437
14044.3	0.439674
14125.4	0.439911
14206.9	0.440148
14288.9	0.440386
14371.4	0.440623
14454.4	0.44086
14537.8	0.441097
14621.8	0.441335
14706.2	0.441572
14791.1	0.44181
14876.5	0.442047
14962.4	0.442285
15048.7	0.442522
15135.6	0.44276
15223	0.442998
15310.9	0.443235
15399.3	0.443473
15488.2	0.443711
15577.6	0.443949
15667.5	0.444186
15758	0.444424
15848.9	0.444662
15940.4	0.4449
16032.5	0.445138
16125	0.445376
16218.1	0.445614
16311.7	0.445852
16405.9	0.446089
16500.6	0.446327
16595.9	0.446565
16691.7	0.446803
16788	0.447041
16885	0.447279
16982.4	0.447517
17080.5	0.447755
17179.1	0.447993
17278.3	0.448231
17378	0.448469
17478.3	0.448707
17579.2	0.448945
17680.7	0.449183
17782.8	0.449421
17885.5	0.449658
17988.7	0.449896
18092.6	0.450134
18197	0.450372
18302.1	0.45061
18407.7	0.450848
18514	0.451086
18620.9	0.451323
18728.4	0.451561
18836.5	0.451799
18945.2	0.452036
19054.6	0.452274
19164.6	0.452512
19275.2	0.452749
19386.5	0.452987
19498.4	0.453225
19611	0.453462
19724.2	0.4537
19838.1	0.453937
19952.6	0.454174
20067.8	0.454412
20183.7	0.454649
20300.2	0.454886
20417.4	0.455124
20535.3	0.455361
20653.8	0.455598
20773	0.455835
20893	0.456072
21013.6	0.456309
21134.9	0.456546
21256.9	0.456783
21379.6	0.45702
21503	0.457257
21627.2	0.457494
21752	0.457731
21877.6	0.457967
22003.9	0.458204
22130.9	0.458441
22258.7	0.458677
22387.2	0.458914
22516.5	0.45915
22646.4	0.459386
22777.2	0.459623
22908.7	0.459859
23040.9	0.460095
23173.9	0.460331
23307.7	0.460567
23442.3	0.460803
23577.6	0.461039
23713.7	0.461275
23850.6	0.461511
23988.3	0.461746
24126.8	0.461982
24266.1	0.462218
24406.2	0.462453
24547.1	0.462689
24688.8	0.462924
24831.3	0.463159
24974.7	0.463394
25118.9	0.46363
25263.9	0.463865
25409.7	0.4641
25556.4	0.464334
25704	0.464569
25852.3	0.464804
26001.6	0.465039
26151.7	0.465273
26302.7	0.465508
26454.5	0.465742
26607.3	0.465977
26760.9	0.466211
26915.3	0.466445
27070.7	0.466679
27227	0.466913
27384.2	0.467147
27542.3	0.467381
27701.3	0.467615
27861.2	0.467849
28022.1	0.468082
28183.8	0.468316
28346.5	0.468549
28510.2	0.468782
28674.8	0.469016
28840.3	0.469249
29006.8	0.469482
29174.3	0.469715
29342.7	0.469948
29512.1	0.47018
29682.5	0.470413
29853.8	0.470646
30026.2	0.470878
30199.5	0.471111
30373.9	0.471343
30549.2	0.471575
30725.6	0.471807
30903	0.472039
31081.4	0.472271
31260.8	0.472503
31441.3	0.472735
31622.8	0.472966
31805.3	0.473198
31989	0.473429
32173.6	0.473661
32359.4	0.473892
32546.2	0.474123
32734.1	0.474354
32923	0.474585
33113.1	0.474816
33304.3	0.475046
33496.5	0.475277
33689.9	0.475508
33884.4	0.475738
34080	0.475968
34276.8	0.476198
34474.7	0.476429
34673.7	0.476659
34873.9	0.476888
35075.2	0.477118
35277.7	0.477348
35481.3	0.477577
35686.2	0.477807
35892.2	0.478036
36099.4	0.478265
36307.8	0.478494
36517.4	0.478723
36728.2	0.478952
36940.3	0.479181
37153.5	0.47941
37368	0.479638
37583.7	0.479867
37800.7	0.480095
38018.9	0.480323
38238.4	0.480552
38459.2	0.48078
38681.2	0.481008
38904.5	0.481235
39129.1	0.481463
39355	0.481691
39582.2	0.481918
39810.7	0.482145
40040.5	0.482373
40271.7	0.4826
40504.2	0.482827
40738	0.483053
40973.2	0.48328
41209.8	0.483507
41447.7	0.483733
41686.9	0.48396
41927.6	0.484186
42169.7	0.484412
42413.1	0.484638
42658	0.484864
42904.2	0.48509
43151.9	0.485316
43401	0.485541
43651.6	0.485767
43903.6	0.485992
44157	0.486217
44412	0.486443
44668.4	0.486668
44926.2	0.486892
45185.6	0.487117
45446.5	0.487342
45708.8	0.487566
45972.7	0.487791
46238.1	0.488015
46505	0.488239
46773.5	0.488463
47043.5	0.488687
47315.1	0.488911
47588.3	0.489135
47863	0.489358
48139.3	0.489582
48417.2	0.489805
48696.8	0.490028
48977.9	0.490251
49260.6	0.490474
49545	0.490697
49831	0.490919
50118.7	0.491142
50408.1	0.491365
50699.1	0.491587
50991.8	0.491809
51286.1	0.492031
51582.2	0.492253
51880	0.492475
52179.5	0.492697
52480.7	0.492918
52783.7	0.49314
53088.4	0.493361
53394.9	0.493582
53703.2	0.493803
54013.2	0.494024
54325	0.494245
54638.7	0.494466
54954.1	0.494686
55271.3	0.494907
55590.4	0.495127
55911.4	0.495347
56234.1	0.495567
56558.8	0.495787
56885.3	0.496007
57213.7	0.496227
57544	0.496447
57876.2	0.496666
58210.3	0.496885
58546.4	0.497105
58884.4	0.497324
59224.3	0.497543
59566.2	0.497761
59910.1	0.49798
60256	0.498199
60603.8	0.498417
60953.7	0.498635
61305.6	0.498854
61659.5	0.499072
62015.5	0.49929
62373.5	0.499507
62733.6	0.499725
63095.7	0.499943
63460	0.50016
63826.3	0.500377
64194.8	0.500595
64565.4	0.500812
64938.2	0.501029
65313.1	0.501245
65690.1	0.501462
66069.3	0.501679
66450.8	0.501895
66834.4	0.502111
67220.2	0.502327
67608.3	0.502543
67998.6	0.502759
68391.2	0.502975
68786	0.503191
69183.1	0.503406
69582.5	0.503622
69984.2	0.503837
70388.2	0.504052
70794.6	0.504267
71203.3	0.504482
71614.3	0.504697
72027.8	0.504911
72443.6	0.505126
72861.8	0.50534
73282.5	0.505554
73705.5	0.505768
74131	0.505982
74559	0.506196
74989.4	0.50641
75422.3	0.506623
75857.8	0.506837
76295.7	0.50705
76736.1	0.507263
77179.2	0.507477
77624.7	0.507689
78072.8	0.507902
78523.6	0.508115
78976.9	0.508328
79432.8	0.50854
79891.4	0.508752
80352.6	0.508964
80816.5	0.509176
81283.1	0.509388
81752.3	0.5096
82224.3	0.509812
82699	0.510023
83176.4	0.510235
83656.6	0.510446
84139.5	0.510657
84625.3	0.510868
85113.8	0.511079
85605.2	0.51129
86099.4	0.5115
86596.4	0.511711
87096.4	0.511921
87599.2	0.512131
88104.9	0.512342
88613.5	0.512551
89125.1	0.512761
89639.6	0.512971
90157.1	0.513181
90677.6	0.51339
91201.1	0.513599
91727.6	0.513809
92257.1	0.514018
92789.7	0.514227
93325.4	0.514435
93864.2	0.514644
94406.1	0.514853
94951.1	0.515061
95499.3	0.515269
96050.6	0.515478
96605.1	0.515686
97162.8	0.515893
97723.7	0.516101
98287.9	0.516309
98855.3	0.516516
99426	0.516724
100000	0.516931
100577	0.517138
101158	0.517345
101742	0.517552
102329	0.517759
102920	0.517965
103514	0.518172
104112	0.518378
104713	0.518584
105317	0.518791
105925	0.518997
106537	0.519202
107152	0.519408
107771	0.519614
108393	0.519819
109018	0.520024
109648	0.52023
110281	0.520435
110917	0.52064
111558	0.520844
112202	0.521049
112850	0.521254
113501	0.521458
114156	0.521662
114815	0.521866
115478	0.522071
116145	0.522274
116815	0.522478
117490	0.522682
118168	0.522885
118850	0.523089
119536	0.523292
120226	0.523495
120921	0.523698
121619	0.523901
122321	0.524104
123027	0.524306
123737	0.524509
124451	0.524711
125170	0.524913
125893	0.525116
126619	0.525317
127350	0.525519
128086	0.525721
128825	0.525923
129569	0.526124
130317	0.526325
131069	0.526527
131826	0.526728
132587	0.526929
133352	0.527129
134122	0.52733
134896	0.527531
135675	0.527731
136458	0.527931
137246	0.528132
138038	0.528332
138835	0.528532
139637	0.528731
140443	0.528931
141254	0.52913
142069	0.52933
142889	0.529529
143714	0.529728
144544	0.529927
145378	0.530126
146218	0.530325
147062	0.530524
147911	0.530722
148765	0.53092
149624	0.531119
150487	0.531317
151356	0.531515
152230	0.531713
153109	0.53191
153993	0.532108
154882	0.532306
155776	0.532503
156675	0.5327
157580	0.532897
158489	0.533094
159404	0.533291
160325	0.533488
161250	0.533684
162181	0.533881
163117	0.534077
164059	0.534273
165006	0.534469
165959	0.534665
166917	0.534861
167880	0.535057
168850	0.535252
169824	0.535448
170805	0.535643
171791	0.535838
172783	0.536033
173780	0.536228
174783	0.536423
175792	0.536618
176807	0.536812
177828	0.537007
178855	0.537201
179887	0.537395
180926	0.537589
181970	0.537783
183021	0.537977
184077	0.538171
185140	0.538364
186209	0.538557
187284	0.538751
188365	0.538944
189452	0.539137
190546	0.53933
191646	0.539523
192752	0.539715
193865	0.539908
194984	0.5401
196110	0.540292
197242	0.540484
198381	0.540676
199526	0.540868
200678	0.54106
201837	0.541252
203002	0.541443
204174	0.541635
205353	0.541826
206538	0.542017
207730	0.542208
208930	0.542399
210136	0.542589
211349	0.54278
212569	0.542971
213796	0.543161
215030	0.543351
216272	0.543541
217520	0.543731
218776	0.543921
220039	0.544111
221309	0.5443
222587	0.54449
223872	0.544679
225165	0.544868
226464	0.545057
227772	0.545246
229087	0.545435
230409	0.545624
231739	0.545813
233077	0.546001
234423	0.546189
235776	0.546378
237137	0.546566
238506	0.546754
239883	0.546941
241268	0.547129
242661	0.547317
244062	0.547504
245471	0.547691
246888	0.547879
248313	0.548066
249747	0.548253
251189	0.548439
252639	0.548626
254097	0.548813
255564	0.548999
257040	0.549185
258523	0.549372
260016	0.549558
261517	0.549744
263027	0.549929
264545	0.550115
266073	0.550301
267609	0.550486
269153	0.550671
270707	0.550857
272270	0.551042
273842	0.551227
275423	0.551411
277013	0.551596
278612	0.551781
280221	0.551965
281838	0.552149
283465	0.552334
285102	0.552518
286748	0.552702
288403	0.552885
290068	0.553069
291743	0.553253
293427	0.553436
295121	0.553619
296825	0.553802
298538	0.553986
300262	0.554168
301995	0.554351
303739	0.554534
305492	0.554716
307256	0.554899
309030	0.555081
310814	0.555263
312608	0.555445
314413	0.555627
316228	0.555809
318053	0.555991
319890	0.556172
321736	0.556354
323594	0.556535
325462	0.556716
327341	0.556897
329230	0.557078
331131	0.557259
333043	0.55744
334965	0.55762
336899	0.557801
338844	0.557981
340800	0.558161
342768	0.558341
344747	0.558521
346737	0.558701
348739	0.558881
350752	0.55906
352777	0.55924
354813	0.559419
356862	0.559598
358922	0.559777
360994	0.559956
363078	0.560135
365174	0.560314
367282	0.560492
369403	0.560671
371535	0.560849
373680	0.561027
375837	0.561205
378007	0.561383
380189	0.561561
382384	0.561739
384592	0.561916
386812	0.562094
389045	0.562271
391291	0.562448
393550	0.562625
395822	0.562802
398107	0.562979
400405	0.563156
402717	0.563332
405042	0.563509
407380	0.563685
409732	0.563861
412098	0.564037
414477	0.564213
416869	0.564389
419276	0.564565
421697	0.56474
424131	0.564916
426580	0.565091
429042	0.565266
431519	0.565441
434010	0.565616
436516	0.565791
439036	0.565966
441570	0.566141
444120	0.566315
446684	0.566489
449262	0.566664
451856	0.566838
454465	0.567012
457088	0.567186
459727	0.567359
462381	0.567533
465050	0.567706
467735	0.56788
470435	0.568053
473151	0.568226
475883	0.568399
478630	0.568572
481393	0.568745
484172	0.568917
486968	0.56909
489779	0.569262
492606	0.569435
495450	0.569607
498310	0.569779
501187	0.569951
504081	0.570122
506991	0.570294
509918	0.570466
512861	0.570637
515822	0.570808
518800	0.570979
521795	0.57115
524807	0.571321
527837	0.571492
530884	0.571663
533949	0.571833
537032	0.572004
540132	0.572174
543250	0.572344
546387	0.572514
549541	0.572684
552713	0.572854
555904	0.573024
559114	0.573193
562341	0.573363
565588	0.573532
568853	0.573701
572137	0.57387
575440	0.574039
578762	0.574208
582103	0.574377
585464	0.574545
588844	0.574714
592243	0.574882
595662	0.57505
599101	0.575218
602560	0.575386
606038	0.575554
609537	0.575722
613056	0.575889
616595	0.576057
620155	0.576224
623735	0.576391
627336	0.576559
630957	0.576726
634600	0.576892
638263	0.577059
641948	0.577226
645654	0.577392
649382	0.577559
653131	0.577725
656901	0.577891
660693	0.578057
664508	0.578223
668344	0.578389
672202	0.578554
676083	0.57872
679986	0.578885
683912	0.579051
687860	0.579216
691831	0.579381
695825	0.579546
699842	0.57971
703882	0.579875
707946	0.58004
712033	0.580204
716143	0.580368
720278	0.580532
724436	0.580696
728618	0.58086
732825	0.581024
737055	0.581188
741310	0.581351
745590	0.581515
749894	0.581678
754223	0.581841
758578	0.582004
762957	0.582167
767361	0.58233
771792	0.582493
776247	0.582655
780728	0.582818
785236	0.58298
789769	0.583142
794328	0.583304
798914	0.583466
803526	0.583628
808165	0.58379
812831	0.583951
817523	0.584113
822243	0.584274
826990	0.584435
831764	0.584596
836566	0.584757
841395	0.584918
846253	0.585078
851138	0.585239
856052	0.585399
860994	0.585559
865964	0.58572
870964	0.58588
875992	0.586039
881049	0.586199
886135	0.586359
891251	0.586518
896396	0.586678
901571	0.586837
906776	0.586996
912011	0.587155
917276	0.587314
922571	0.587473
927897	0.587631
933254	0.58779
938642	0.587948
944061	0.588106
949511	0.588264
954993	0.588422
960506	0.58858
966051	0.588738
971628	0.588895
977237	0.589053
982879	0.58921
988553	0.589367
994260	0.589524
1e+06	0.589681
1.00577e+06	0.589838
1.01158e+06	0.589995
1.01742e+06	0.590151
1.02329e+06	0.590307
1.0292e+06	0.590464
1.03514e+06	0.59062
1.04112e+06	0.590776
1.04713e+06	0.590932
1.05317e+06	0.591087
1.05925e+06	0.591243
1.06537e+06	0.591398
1.07152e+06	0.591554
1.07771e+06	0.591709
1.08393e+06	0.591864
1.09018e+06	0.592019
1.09648e+06	0.592174
1.10281e+06	0.592328
1.10917e+06	0.592483
1.11558e+06	0.592637
1.12202e+06	0.592792
1.1285e+06	0.592946
1.13501e+06	0.5931
1.14156e+06	0.593254
1.14815e+06	0.593408
1.15478e+06	0.593561
1.16145e+06	0.593715
1.16815e+06	0.593868
1.1749e+06	0.594021
1.18168e+06	0.594174
1.1885e+06	0.594327
1.19536e+06	0.59448
1.20226e+06	0.594633
1.20921e+06	0.594785
1.21619e+06	0.594938
1.22321e+06	0.59509
1.23027e+06	0.595242
1.23737e+06	0.595394
1.24451e+06	0.595546
1.2517e+06	0.595698
1.25893e+06	0.59585
1.26619e+06	0.596001
1.2735e+06	0.596153
1.28086e+06	0.596304
1.28825e+06	0.596455
1.29569e+06	0.596606
1.30317e+06	0.596757
1.31069e+06	0.596907
1.31826e+06	0.597058
1.32587e+06	0.597208
1.33352e+06	0.597359
1.34122e+06	0.597509
1.34896e+06	0.597659
1.35675e+06	0.597809
1.36458e+06	0.597959
1.37246e+06	0.598108
1.38038e+06	0.598258
1.38835e+06	0.598407
1.39637e+06	0.598557
1.40443e+06	0.598706
1.41254e+06	0.598855
1.42069e+06	0.599004
1.42889e+06	0.599152
1.43714e+06	0.599301
1.44544e+06	0.599449
1.45378e+06	0.599598
1.46218e+06	0.599746
1.47062e+06	0.599894
1.47911e+06	0.600042
1.48765e+06	0.60019
1.49624e+06	0.600337
1.50487e+06	0.600485
1.51356e+06	0.600632
1.5223e+06	0.60078
1.53109e+06	0.600927
1.53993e+06	0.601074
1.54882e+06	0.601221
1.55776e+06	0.601367
1.56675e+06	0.601514
1.5758e+06	0.60166
1.58489e+06	0.601807
1.59404e+06	0.601953
1.60325e+06	0.602099
1.6125e+06	0.602245
1.62181e+06	0.602391
1.63117e+06	0.602536
1.64059e+06	0.602682
1.65006e+06	0.602827
1.65959e+06	0.602973
1.66917e+06	0.603118
1.6788e+06	0.603263
1.6885e+06	0.603408
1.69824e+06	0.603553
1.70805e+06	0.603697
1.71791e+06	0.603842
1.72783e+06	0.603986
1.7378e+06	0.60413
1.74783e+06	0.604275
1.75792e+06	0.604419
1.76807e+06	0.604562
1.77828e+06	0.604706
1.78855e+06	0.60485
1.79887e+06	0.604993
1.80926e+06	0.605137
1.8197e+06	0.60528
1.83021e+06	0.605423
1.84077e+06	0.605566
1.8514e+06	0.605709
1.86209e+06	0.605851
1.87284e+06	0.605994
1.88365e+06	0.606136
1.89452e+06	0.606279
1.90546e+06	0.606421
1.91646e+06	0.606563
1.92752e+06	0.606705
1.93865e+06	0.606847
1.94984e+06	0.606988
1.9611e+06	0.60713
1.97242e+06	0.607271
1.98381e+06	0.607412
1.99526e+06	0.607473
2.00678e+06	0.607448
2.01837e+06	0.607424
2.03002e+06	0.607399
2.04174e+06	0.607376
2.05353e+06	0.607352
2.06538e+06	0.607329
2.0773e+06	0.607306
2.0893e+06	0.607283
2.10136e+06	0.60726
2.11349e+06	0.607238
2.12569e+06	0.607216
2.13796e+06	0.607194
2.1503e+06	0.607173
2.16272e+06	0.607151
2.1752e+06	0.60713
2.18776e+06	0.60711
2.20039e+06	0.607089
2.21309e+06	0.607069
2.22587e+06	0.607049
2.23872e+06	0.607029
2.25165e+06	0.607009
2.26464e+06	0.60699
2.27772e+06	0.60697
2.29087e+06	0.606951
2.30409e+06	0.606933
2.31739e+06	0.606914
2.33077e+06	0.606896
2.34423e+06	0.606878
2.35776e+06	0.60686
2.37137e+06	0.606842
2.38506e+06	0.606825
2.39883e+06	0.606807
2.41268e+06	0.60679
2.42661e+06	0.606773
2.44062e+06	0.606757
2.45471e+06	0.60674
2.46888e+06	0.606724
2.48313e+06	0.606708
2.49747e+06	0.606692
2.51189e+06	0.606676
2.52639e+06	0.60666
2.54097e+06	0.606645
2.55564e+06	0.60663
2.5704e+06	0.606615
2.58523e+06	0.6066
2.60016e+06	0.606585
2.61517e+06	0.60657
2.63027e+06	0.606556
2.64545e+06	0.606542
2.66073e+06	0.606528
2.67609e+06	0.606514
2.69153e+06	0.6065
2.70707e+06	0.606487
2.7227e+06	0.606473
2.73842e+06	0.60646
2.75423e+06	0.606447
2.77013e+06	0.606434
2.78612e+06	0.606421
2.80221e+06	0.606408
2.81838e+06	0.606396
2.83465e+06	0.606383
2.85102e+06	0.606371
2.86748e+06	0.606359
2.88403e+06	0.606347
2.90068e+06	0.606335
2.91743e+06	0.606323
2.93427e+06	0.606312
2.95121e+06	0.6063
2.96825e+06	0.606289
2.98538e+06	0.606278
3.00262e+06	0.606267
3.01995e+06	0.606256
3.03739e+06	0.606245
3.05492e+06	0.606235
3.07256e+06	0.606224
3.0903e+06	0.606214
3.10814e+06	0.606203
3.12608e+06	0.606193
3.14413e+06	0.606183
3.16228e+06	0.606173
3.18053e+06	0.606163
3.1989e+06	0.606153
3.21736e+06	0.606144
3.23594e+06	0.606134
3.25462e+06	0.606125
3.27341e+06	0.606116
3.2923e+06	0.606106
3.31131e+06	0.606097
3.33043e+06	0.606088
3.34965e+06	0.60608
3.36899e+06	0.606071
3.38844e+06	0.606062
3.408e+06	0.606053
3.42768e+06	0.606045
3.44747e+06	0.606037
3.46737e+06	0.606028
3.48739e+06	0.60602
3.50752e+06	0.606012
3.52777e+06	0.606004
3.54813e+06	0.605996
3.56862e+06	0.605988
3.58922e+06	0.605981
3.60994e+06	0.605973
3.63078e+06	0.605965
3.65174e+06	0.605958
3.67282e+06	0.605951
3.69403e+06	0.605943
3.71535e+06	0.605936
3.7368e+06	0.605929
3.75837e+06	0.605922
3.78007e+06	0.605915
3.80189e+06	0.605908
3.82384e+06	0.605901
3.84592e+06	0.605894
3.86812e+06	0.605888
3.89045e+06	0.605881
3.91291e+06	0.605875
3.9355e+06	0.605868
3.95822e+06	0.605862
3.98107e+06	0.605856
4.00405e+06	0.605849
4.02717e+06	0.605843
4.05042e+06	0.605837
4.0738e+06	0.605831
4.09732e+06	0.605825
4.12098e+06	0.605819
4.14477e+06	0.605814
4.16869e+06	0.605808
4.19276e+06	0.605802
4.21697e+06	0.605797
4.24131e+06	0.605791
4.2658e+06	0.605786
4.29042e+06	0.60578
4.31519e+06	0.605775
4.3401e+06	0.60577
4.36516e+06	0.605764
4.39036e+06	0.605759
4.4157e+06	0.605754
4.4412e+06	0.605749
4.46684e+06	0.605744
4.49262e+06	0.605739
4.51856e+06	0.605734
4.54465e+06	0.605729
4.57088e+06	0.605725
4.59727e+06	0.60572
4.62381e+06	0.605715
4.6505e+06	0.605711
4.67735e+06	0.605706
4.70435e+06	0.605702
4.73151e+06	0.605697
4.75883e+06	0.605693
4.7863e+06	0.605688
4.81393e+06	0.605684
4.84172e+06	0.60568
4.86968e+06	0.605676
4.89779e+06	0.605672
4.92606e+06	0.605667
4.9545e+06	0.605663
4.9831e+06	0.605659
5.01187e+06	0.605655
5.04081e+06	0.605651
5.06991e+06	0.605648
5.09918e+06	0.605644
5.12861e+06	0.60564
5.15822e+06	0.605636
5.188e+06	0.605633
5.21795e+06	0.605629
5.24807e+06	0.605625
5.27837e+06	0.605622
5.30884e+06	0.605618
5.33949e+06	0.605615
5.37032e+06	0.605611
5.40132e+06	0.605608
5.4325e+06	0.605604
5.46387e+06	0.605601
5.49541e+06	0.605598
5.52713e+06	0.605595
5.55904e+06	0.605591
5.59114e+06	0.605588
5.62341e+06	0.605585
5.65588e+06	0.605582
5.68853e+06	0.605579
5.72137e+06	0.605576
5.7544e+06	0.605573
5.78762e+06	0.60557
5.82103e+06	0.605567
5.85464e+06	0.605564
5.88844e+06	0.605561
5.92243e+06	0.605558
5.95662e+06	0.605555
5.99101e+06	0.605553
6.0256e+06	0.60555
6.06038e+06	0.605547
6.09537e+06	0.605544
6.13056e+06	0.605542
6.16595e+06	0.605539
6.20155e+06	0.605537
6.23735e+06	0.605534
6.27336e+06	0.605531
6.30957e+06	0.605529
6.346e+06	0.605527
6.38263e+06	0.605524
6.41948e+06	0.605522
6.45654e+06	0.605519
6.49382e+06	0.605517
6.53131e+06	0.605515
6.56901e+06	0.605512
6.60693e+06	0.60551
6.64508e+06	0.605508
6.68344e+06	0.605505
6.72202e+06	0.605503
6.76083e+06	0.605501
6.79986e+06	0.605499
6.83912e+06	0.605497
6.8786e+06	0.605495
6.91831e+06	0.605493
6.95825e+06	0.605491
6.99842e+06	0.605489
7.03882e+06	0.605487
7.07946e+06	0.605485
7.12033e+06	0.605483
7.16143e+06	0.605481
7.20278e+06	0.605479
7.24436e+06	0.605477
7.28618e+06	0.605475
7.32825e+06	0.605473
7.37055e+06	0.605471
7.4131e+06	0.605469
7.4559e+06	0.605468
7.49894e+06	0.605466
7.54223e+06	0.605464
7.58578e+06	0.605462
7.62957e+06	0.605461
7.67361e+06	0.605459
7.71792e+06	0.605457
7.76247e+06	0.605456
7.80728e+06	0.605454
7.85236e+06	0.605452
7.89769e+06	0.605451
7.94328e+06	0.605449
7.98914e+06	0.605448
8.03526e+06	0.605446
8.08165e+06	0.605445
8.12831e+06	0.605443
8.17523e+06	0.605442
8.22243e+06	0.60544
8.2699e+06	0.605439
8.31764e+06	0.605437
8.36566e+06	0.605436
8.41395e+06	0.605434
8.46253e+06	0.605433
8.51138e+06	0.605432
8.56052e+06	0.60543
8.60994e+06	0.605429
8.65964e+06	0.605428
8.70964e+06	0.605426
8.75992e+06	0.605425
8.81049e+06	0.605424
8.86135e+06	0.605422
8.91251e+06	0.605421
8.96396e+06	0.60542
9.01571e+06	0.605419
9.06776e+06	0.605418
9.12011e+06	0.605416
9.17276e+06	0.605415
9.22571e+06	0.605414
9.27897e+06	0.605413
9.33254e+06	0.605412
9.38642e+06	0.605411
9.44061e+06	0.605409
9.49511e+06	0.605408
9.54993e+06	0.605407
9.60506e+06	0.605406
9.66051e+06	0.605405
9.71628e+06	0.605404
9.77237e+06	0.605403
9.82879e+06	0.605402
9.88553e+06	0.605401
9.9426e+06	0.6054
1e+07	0.605399
