Stopping power dEdx from Ionisation for S32[0.0] Z = 16 in Water, process name: ionIoni
E [MeV]	dEdx [MeV/mm]
0.001	22.7863
0.00100577	22.8523
0.00101158	22.9186
0.00101742	22.985
0.00102329	23.0516
0.0010292	23.1185
0.00103514	23.1855
0.00104112	23.2527
0.00104713	23.3201
0.00105317	23.3877
0.00105925	23.4555
0.00106537	23.5235
0.00107152	23.5916
0.00107771	23.66
0.00108393	23.7286
0.00109018	23.7974
0.00109648	23.8663
0.00110281	23.9355
0.00110917	24.0049
0.00111558	24.0744
0.00112202	24.1442
0.0011285	24.2142
0.00113501	24.2844
0.00114156	24.3547
0.00114815	24.4253
0.00115478	24.4961
0.00116145	24.5671
0.00116815	24.6383
0.0011749	24.7097
0.00118168	24.7813
0.0011885	24.8531
0.00119536	24.9251
0.00120226	24.9973
0.00120921	25.0697
0.00121619	25.1424
0.00122321	25.2152
0.00123027	25.2883
0.00123737	25.3616
0.00124451	25.435
0.0012517	25.5087
0.00125893	25.5826
0.00126619	25.6567
0.0012735	25.7311
0.00128086	25.8056
0.00128825	25.8804
0.00129569	25.9554
0.00130317	26.0305
0.00131069	26.106
0.00131826	26.1816
0.00132587	26.2574
0.00133352	26.3335
0.00134122	26.4098
0.00134896	26.4863
0.00135675	26.563
0.00136458	26.6399
0.00137246	26.7171
0.00138038	26.7945
0.00138835	26.8721
0.00139637	26.9499
0.00140443	27.028
0.00141254	27.1063
0.00142069	27.1848
0.00142889	27.2635
0.00143714	27.3425
0.00144544	27.4217
0.00145378	27.5011
0.00146218	27.5807
0.00147062	27.6606
0.00147911	27.7407
0.00148765	27.8211
0.00149624	27.9016
0.00150487	27.9824
0.00151356	28.0635
0.0015223	28.1447
0.00153109	28.2262
0.00153993	28.308
0.00154882	28.3899
0.00155776	28.4721
0.00156675	28.5546
0.0015758	28.6373
0.00158489	28.7202
0.00159404	28.8034
0.00160325	28.8868
0.0016125	28.9704
0.00162181	29.0543
0.00163117	29.1384
0.00164059	29.2228
0.00165006	29.3074
0.00165959	29.3922
0.00166917	29.4773
0.0016788	29.5627
0.0016885	29.6483
0.00169824	29.7341
0.00170805	29.8202
0.00171791	29.9065
0.00172783	29.9931
0.0017378	30.0799
0.00174783	30.167
0.00175792	30.2543
0.00176807	30.3419
0.00177828	30.4298
0.00178855	30.5178
0.00179887	30.6062
0.00180926	30.6948
0.0018197	30.7836
0.00183021	30.8727
0.00184077	30.9621
0.0018514	31.0517
0.00186209	31.1416
0.00187284	31.2318
0.00188365	31.3222
0.00189452	31.4128
0.00190546	31.5037
0.00191646	31.5949
0.00192752	31.6864
0.00193865	31.7781
0.00194984	31.8701
0.0019611	31.9623
0.00197242	32.0548
0.00198381	32.1476
0.00199526	32.2406
0.00200678	32.3339
0.00201837	32.4275
0.00203002	32.5213
0.00204174	32.6155
0.00205353	32.7099
0.00206538	32.8045
0.0020773	32.8994
0.0020893	32.9947
0.00210136	33.0901
0.00211349	33.1859
0.00212569	33.2819
0.00213796	33.3782
0.0021503	33.4748
0.00216272	33.5717
0.0021752	33.6688
0.00218776	33.7663
0.00220039	33.864
0.00221309	33.962
0.00222587	34.0602
0.00223872	34.1588
0.00225165	34.2576
0.00226464	34.3567
0.00227772	34.4561
0.00229087	34.5558
0.00230409	34.6558
0.00231739	34.7561
0.00233077	34.8566
0.00234423	34.9575
0.00235776	35.0586
0.00237137	35.1601
0.00238506	35.2618
0.00239883	35.3638
0.00241268	35.4661
0.00242661	35.5687
0.00244062	35.6716
0.00245471	35.7748
0.00246888	35.8783
0.00248313	35.9821
0.00249747	36.0862
0.00251189	36.1906
0.00252639	36.2953
0.00254097	36.4003
0.00255564	36.5056
0.0025704	36.6112
0.00258523	36.7171
0.00260016	36.8233
0.00261517	36.9298
0.00263027	37.0366
0.00264545	37.1438
0.00266073	37.2512
0.00267609	37.359
0.00269153	37.467
0.00270707	37.5754
0.0027227	37.6841
0.00273842	37.7931
0.00275423	37.9024
0.00277013	38.012
0.00278612	38.122
0.00280221	38.2322
0.00281838	38.3428
0.00283465	38.4537
0.00285102	38.5649
0.00286748	38.6764
0.00288403	38.7883
0.00290068	38.9005
0.00291743	39.013
0.00293427	39.1258
0.00295121	39.239
0.00296825	39.3525
0.00298538	39.4663
0.00300262	39.5804
0.00301995	39.6949
0.00303739	39.8097
0.00305492	39.9248
0.00307256	40.0402
0.0030903	40.156
0.00310814	40.2721
0.00312608	40.3886
0.00314413	40.5054
0.00316228	40.6225
0.00318053	40.74
0.0031989	40.8578
0.00321736	40.9759
0.00323594	41.0944
0.00325462	41.2133
0.00327341	41.3324
0.0032923	41.4519
0.00331131	41.5718
0.00333043	41.692
0.00334965	41.8126
0.00336899	41.9335
0.00338844	42.0547
0.003408	42.1763
0.00342768	42.2982
0.00344747	42.4205
0.00346737	42.5432
0.00348739	42.6662
0.00350752	42.7896
0.00352777	42.9133
0.00354813	43.0373
0.00356862	43.1618
0.00358922	43.2866
0.00360994	43.4117
0.00363078	43.5372
0.00365174	43.6631
0.00367282	43.7893
0.00369403	43.9159
0.00371535	44.0429
0.0037368	44.1702
0.00375837	44.2979
0.00378007	44.426
0.00380189	44.5544
0.00382384	44.6832
0.00384592	44.8124
0.00386812	44.9419
0.00389045	45.0718
0.00391291	45.2021
0.0039355	45.3328
0.00395822	45.4638
0.00398107	45.5952
0.00400405	45.727
0.00402717	45.8592
0.00405042	45.9918
0.0040738	46.1247
0.00409732	46.2581
0.00412098	46.3918
0.00414477	46.5259
0.00416869	46.6604
0.00419276	46.7952
0.00421697	46.9305
0.00424131	47.0661
0.0042658	47.2022
0.00429042	47.3386
0.00431519	47.4754
0.0043401	47.6127
0.00436516	47.7503
0.00439036	47.8883
0.0044157	48.0267
0.0044412	48.1655
0.00446684	48.3047
0.00449262	48.4443
0.00451856	48.5843
0.00454465	48.7248
0.00457088	48.8656
0.00459727	49.0068
0.00462381	49.1484
0.0046505	49.2905
0.00467735	49.4329
0.00470435	49.5758
0.00473151	49.7191
0.00475883	49.8628
0.0047863	50.0069
0.00481393	50.1514
0.00484172	50.2963
0.00486968	50.4417
0.00489779	50.5874
0.00492606	50.7336
0.0049545	50.8802
0.0049831	51.0273
0.00501187	51.1747
0.00504081	51.3226
0.00506991	51.4709
0.00509918	51.6197
0.00512861	51.7688
0.00515822	51.9184
0.005188	52.0685
0.00521795	52.2189
0.00524807	52.3698
0.00527837	52.6524
0.00530884	52.8042
0.00533949	52.9564
0.00537032	53.109
0.00540132	53.2621
0.0054325	53.4156
0.00546387	53.5696
0.00549541	53.724
0.00552713	53.8789
0.00555904	54.0342
0.00559114	54.1899
0.00562341	54.3461
0.00565588	54.5028
0.00568853	54.6599
0.00572137	54.8174
0.0057544	54.9754
0.00578762	55.1339
0.00582103	55.2928
0.00585464	55.4522
0.00588844	55.612
0.00592243	55.7723
0.00595662	55.933
0.00599101	56.0943
0.0060256	56.2559
0.00606038	56.4181
0.00609537	56.5807
0.00613056	56.7438
0.00616595	56.9074
0.00620155	57.0714
0.00623735	57.2359
0.00627336	57.4009
0.00630957	57.5663
0.006346	57.7322
0.00638263	57.8987
0.00641948	58.0655
0.00645654	58.2329
0.00649382	58.4008
0.00653131	58.5691
0.00656901	58.7379
0.00660693	58.9072
0.00664508	59.077
0.00668344	59.2473
0.00672202	59.4181
0.00676083	59.5893
0.00679986	59.7611
0.00683912	59.9333
0.0068786	60.1061
0.00691831	60.2793
0.00695825	60.4531
0.00699842	60.6273
0.00703882	60.8021
0.00707946	60.9773
0.00712033	61.1531
0.00716143	61.3294
0.00720278	61.5061
0.00724436	61.6834
0.00728618	61.8612
0.00732825	62.0395
0.00737055	62.2183
0.0074131	62.3977
0.0074559	62.5775
0.00749894	62.7579
0.00754223	62.9388
0.00758578	63.1202
0.00762957	63.3021
0.00767361	63.4846
0.00771792	63.6676
0.00776247	63.8511
0.00780728	64.0352
0.00785236	64.2197
0.00789769	64.4048
0.00794328	64.5905
0.00798914	64.7766
0.00803526	64.9634
0.00808165	65.1506
0.00812831	65.3384
0.00817523	65.5267
0.00822243	65.7156
0.0082699	65.905
0.00831764	66.095
0.00836566	66.2855
0.00841395	66.4765
0.00846253	66.6682
0.00851138	66.8603
0.00856052	67.053
0.00860994	67.2463
0.00865964	67.4401
0.00870964	67.6345
0.00875992	67.8295
0.00881049	68.025
0.00886135	68.2211
0.00891251	68.4177
0.00896396	68.6149
0.00901571	68.8127
0.00906776	69.011
0.00912011	69.2099
0.00917276	69.4094
0.00922571	69.6095
0.00927897	69.8101
0.00933254	70.0114
0.00938642	70.2131
0.00944061	70.4155
0.00949511	70.6185
0.00954993	70.822
0.00960506	71.0262
0.00966051	71.2309
0.00971628	71.4362
0.00977237	71.6421
0.00982879	71.8486
0.00988553	72.0557
0.0099426	72.2634
0.01	72.4717
0.0100577	72.6806
0.0101158	72.8901
0.0101742	73.1002
0.0102329	73.3109
0.010292	73.5222
0.0103514	73.7341
0.0104112	73.9466
0.0104713	74.1598
0.0105317	74.3735
0.0105925	74.5879
0.0106537	74.8029
0.0107152	75.0185
0.0107771	75.2347
0.0108393	75.4516
0.0109018	75.6691
0.0109648	75.8872
0.0110281	76.1059
0.0110917	76.3253
0.0111558	76.5453
0.0112202	76.7659
0.011285	76.9872
0.0113501	77.2091
0.0114156	77.4316
0.0114815	77.6548
0.0115478	77.8787
0.0116145	78.1031
0.0116815	78.3283
0.011749	78.554
0.0118168	78.7804
0.011885	79.0075
0.0119536	79.2353
0.0120226	79.4636
0.0120921	79.6927
0.0121619	79.9224
0.0122321	80.1528
0.0123027	80.3838
0.0123737	80.6155
0.0124451	80.8478
0.012517	81.0809
0.0125893	81.3146
0.0126619	81.549
0.012735	81.784
0.0128086	82.0198
0.0128825	82.2562
0.0129569	82.4933
0.0130317	82.731
0.0131069	82.9695
0.0131826	83.2086
0.0132587	83.4485
0.0133352	83.689
0.0134122	83.9302
0.0134896	84.1722
0.0135675	84.4148
0.0136458	84.6581
0.0137246	84.9021
0.0138038	85.1468
0.0138835	85.3922
0.0139637	85.6384
0.0140443	85.8852
0.0141254	86.1328
0.0142069	86.381
0.0142889	86.63
0.0143714	86.8797
0.0144544	87.1301
0.0145378	87.3813
0.0146218	87.6332
0.0147062	87.8857
0.0147911	88.1391
0.0148765	88.3931
0.0149624	88.6479
0.0150487	88.9034
0.0151356	89.1597
0.015223	89.4167
0.0153109	89.6744
0.0153993	89.9329
0.0154882	90.1921
0.0155776	90.4521
0.0156675	90.7128
0.015758	90.9742
0.0158489	91.2365
0.0159404	91.4994
0.0160325	91.7632
0.016125	92.0277
0.0162181	92.2929
0.0163117	92.559
0.0164059	92.8257
0.0165006	93.0933
0.0165959	93.3616
0.0166917	93.6307
0.016788	93.9006
0.016885	94.1713
0.0169824	94.4427
0.0170805	94.7149
0.0171791	94.9879
0.0172783	95.2617
0.017378	95.5363
0.0174783	95.8117
0.0175792	96.0878
0.0176807	96.3648
0.0177828	96.6426
0.0178855	96.9211
0.0179887	97.2005
0.0180926	97.4807
0.018197	97.7616
0.0183021	98.0434
0.0184077	98.326
0.018514	98.6094
0.0186209	98.8937
0.0187284	99.1787
0.0188365	99.4646
0.0189452	99.7513
0.0190546	100.039
0.0191646	100.327
0.0192752	100.616
0.0193865	100.906
0.0194984	101.197
0.019611	101.489
0.0197242	101.781
0.0198381	102.075
0.0199526	102.369
0.0200678	102.664
0.0201837	102.96
0.0203002	103.257
0.0204174	103.554
0.0205353	103.853
0.0206538	104.152
0.020773	104.452
0.020893	104.753
0.0210136	105.055
0.0211349	105.358
0.0212569	105.662
0.0213796	105.966
0.021503	106.272
0.0216272	106.578
0.021752	106.885
0.0218776	107.194
0.0220039	107.502
0.0221309	107.812
0.0222587	108.123
0.0223872	108.435
0.0225165	108.747
0.0226464	109.061
0.0227772	109.375
0.0229087	109.69
0.0230409	110.007
0.0231739	110.324
0.0233077	110.642
0.0234423	110.961
0.0235776	111.28
0.0237137	111.601
0.0238506	111.923
0.0239883	112.245
0.0241268	112.569
0.0242661	112.893
0.0244062	113.219
0.0245471	113.545
0.0246888	113.872
0.0248313	114.201
0.0249747	114.53
0.0251189	114.86
0.0252639	115.191
0.0254097	115.523
0.0255564	115.856
0.025704	116.19
0.0258523	116.525
0.0260016	116.861
0.0261517	117.198
0.0263027	117.535
0.0264545	117.874
0.0266073	118.214
0.0267609	118.555
0.0269153	118.896
0.0270707	119.239
0.027227	119.583
0.0273842	119.927
0.0275423	120.273
0.0277013	120.62
0.0278612	120.967
0.0280221	121.316
0.0281838	121.666
0.0283465	122.016
0.0285102	122.368
0.0286748	122.721
0.0288403	123.075
0.0290068	123.429
0.0291743	123.785
0.0293427	124.142
0.0295121	124.5
0.0296825	124.859
0.0298538	125.218
0.0300262	125.579
0.0301995	125.941
0.0303739	126.304
0.0305492	126.668
0.0307256	127.034
0.030903	127.4
0.0310814	127.767
0.0312608	128.135
0.0314413	128.505
0.0316228	128.875
0.0318053	129.246
0.031989	129.619
0.0321736	129.993
0.0323594	130.367
0.0325462	130.743
0.0327341	131.12
0.032923	131.498
0.0331131	131.877
0.0333043	132.257
0.0334965	132.638
0.0336899	133.02
0.0338844	133.404
0.03408	133.788
0.0342768	134.174
0.0344747	134.561
0.0346737	134.949
0.0348739	135.338
0.0350752	135.728
0.0352777	136.119
0.0354813	136.511
0.0356862	136.905
0.0358922	137.299
0.0360994	137.695
0.0363078	138.092
0.0365174	138.49
0.0367282	138.889
0.0369403	139.29
0.0371535	139.691
0.037368	140.094
0.0375837	140.497
0.0378007	140.902
0.0380189	141.309
0.0382384	141.716
0.0384592	142.124
0.0386812	142.534
0.0389045	142.945
0.0391291	143.357
0.039355	143.77
0.0395822	144.184
0.0398107	144.6
0.0400405	145.017
0.0402717	145.435
0.0405042	145.854
0.040738	146.274
0.0409732	146.696
0.0412098	147.119
0.0414477	147.543
0.0416869	147.968
0.0419276	148.395
0.0421697	148.822
0.0424131	149.251
0.042658	149.682
0.0429042	150.113
0.0431519	150.546
0.043401	150.98
0.0436516	151.415
0.0439036	151.851
0.044157	152.289
0.044412	152.728
0.0446684	153.168
0.0449262	153.61
0.0451856	154.052
0.0454465	154.496
0.0457088	154.942
0.0459727	155.388
0.0462381	155.836
0.046505	156.285
0.0467735	156.736
0.0470435	157.188
0.0473151	157.641
0.0475883	158.095
0.047863	158.551
0.0481393	159.008
0.0484172	159.466
0.0486968	159.926
0.0489779	160.387
0.0492606	160.849
0.049545	161.313
0.049831	161.778
0.0501187	162.244
0.0504081	162.712
0.0506991	163.181
0.0509918	163.651
0.0512861	164.123
0.0515822	164.596
0.05188	165.07
0.0521795	165.546
0.0524807	166.023
0.0527837	166.502
0.0530884	166.982
0.0533949	167.463
0.0537032	167.946
0.0540132	168.43
0.054325	168.915
0.0546387	169.402
0.0549541	169.89
0.0552713	170.38
0.0555904	170.871
0.0559114	171.364
0.0562341	171.857
0.0565588	172.353
0.0568853	172.85
0.0572137	173.348
0.057544	173.848
0.0578762	174.349
0.0582103	174.851
0.0585464	175.355
0.0588844	175.861
0.0592243	176.367
0.0595662	176.876
0.0599101	177.386
0.060256	177.897
0.0606038	178.41
0.0609537	178.924
0.0613056	179.44
0.0616595	179.957
0.0620155	180.476
0.0623735	180.996
0.0627336	181.517
0.0630957	182.041
0.06346	182.565
0.0638263	183.092
0.0641948	183.619
0.0645654	184.149
0.0649382	184.679
0.0653131	185.212
0.0656901	185.746
0.0660693	186.281
0.0664508	186.818
0.0668344	187.356
0.0672202	187.896
0.0676083	188.438
0.0679986	188.981
0.0683912	189.526
0.068786	190.072
0.0691831	190.62
0.0695825	191.169
0.0699842	191.72
0.0703882	192.273
0.0707946	192.827
0.0712033	193.383
0.0716143	193.94
0.0720278	194.499
0.0724436	195.06
0.0728618	195.622
0.0732825	196.186
0.0737055	196.752
0.074131	197.319
0.074559	197.888
0.0749894	198.458
0.0754223	199.03
0.0758578	199.604
0.0762957	200.179
0.0767361	200.756
0.0771792	201.335
0.0776247	201.915
0.0780728	202.497
0.0785236	203.081
0.0789769	203.666
0.0794328	204.253
0.0798914	204.842
0.0803526	205.432
0.0808165	206.024
0.0812831	206.618
0.0817523	207.214
0.0822243	207.811
0.082699	208.41
0.0831764	209.011
0.0836566	209.613
0.0841395	210.217
0.0846253	210.823
0.0851138	211.431
0.0856052	212.04
0.0860994	212.652
0.0865964	213.264
0.0870964	213.879
0.0875992	214.496
0.0881049	215.114
0.0886135	215.734
0.0891251	216.356
0.0896396	216.979
0.0901571	217.605
0.0906776	218.232
0.0912011	218.861
0.0917276	219.492
0.0922571	220.125
0.0927897	220.759
0.0933254	221.395
0.0938642	222.033
0.0944061	222.673
0.0949511	223.315
0.0954993	223.959
0.0960506	224.605
0.0966051	225.252
0.0971628	225.901
0.0977237	226.552
0.0982879	227.205
0.0988553	227.86
0.099426	228.517
0.1	229.176
0.100577	229.836
0.101158	230.499
0.101742	231.163
0.102329	231.829
0.10292	232.498
0.103514	233.168
0.104112	233.84
0.104713	234.514
0.105317	235.19
0.105925	235.868
0.106537	236.548
0.107152	237.229
0.107771	237.913
0.108393	238.599
0.109018	239.287
0.109648	239.976
0.110281	240.668
0.110917	241.362
0.111558	242.057
0.112202	242.755
0.11285	243.455
0.113501	244.157
0.114156	244.86
0.114815	245.566
0.115478	246.274
0.116145	246.984
0.116815	247.696
0.11749	248.41
0.118168	249.126
0.11885	249.844
0.119536	250.564
0.120226	251.286
0.120921	252.01
0.121619	252.737
0.122321	253.465
0.123027	254.196
0.123737	254.929
0.124451	255.663
0.12517	256.4
0.125893	257.139
0.126619	257.88
0.12735	258.624
0.128086	259.369
0.128825	260.117
0.129569	260.867
0.130317	261.619
0.131069	262.373
0.131826	263.129
0.132587	263.887
0.133352	264.648
0.134122	265.411
0.134896	266.176
0.135675	266.943
0.136458	267.712
0.137246	268.484
0.138038	269.258
0.138835	270.034
0.139637	270.812
0.140443	271.593
0.141254	272.376
0.142069	273.161
0.142889	273.948
0.143714	274.738
0.144544	275.53
0.145378	276.324
0.146218	277.12
0.147062	277.919
0.147911	278.72
0.148765	279.524
0.149624	280.329
0.150487	281.137
0.151356	281.948
0.15223	282.76
0.153109	283.575
0.153993	284.393
0.154882	285.212
0.155776	286.035
0.156675	286.859
0.15758	287.686
0.158489	288.515
0.159404	289.347
0.160325	290.181
0.16125	291.017
0.162181	291.856
0.163117	292.697
0.164059	293.541
0.165006	294.387
0.165959	295.235
0.166917	296.086
0.16788	296.94
0.16885	297.796
0.169824	298.654
0.170805	299.515
0.171791	300.378
0.172783	301.244
0.17378	302.112
0.174783	302.983
0.175792	303.856
0.176807	304.732
0.177828	305.611
0.178855	306.492
0.179887	307.375
0.180926	308.261
0.18197	309.149
0.183021	310.041
0.184077	310.934
0.18514	311.83
0.186209	312.729
0.187284	313.631
0.188365	314.535
0.189452	315.441
0.190546	316.35
0.191646	317.262
0.192752	318.177
0.193865	319.094
0.194984	320.014
0.19611	320.936
0.197242	321.861
0.198381	322.789
0.199526	323.719
0.200678	324.652
0.201837	325.588
0.203002	326.527
0.204174	327.468
0.205353	328.412
0.206538	329.358
0.20773	330.308
0.20893	331.26
0.210136	332.214
0.211349	333.172
0.212569	334.132
0.213796	335.095
0.21503	336.061
0.216272	337.03
0.21752	338.001
0.218776	338.976
0.220039	339.953
0.221309	340.933
0.222587	341.915
0.223872	342.901
0.225165	343.889
0.226464	344.88
0.227772	345.874
0.229087	346.871
0.230409	347.871
0.231739	348.874
0.233077	349.879
0.234423	350.888
0.235776	351.899
0.237137	352.914
0.238506	353.931
0.239883	354.951
0.241268	355.974
0.242661	357
0.244062	358.029
0.245471	359.061
0.246888	360.096
0.248313	361.134
0.249747	362.175
0.251189	363.219
0.252639	364.266
0.254097	365.316
0.255564	366.369
0.25704	367.425
0.258523	368.484
0.260016	369.546
0.261517	370.611
0.263027	371.679
0.264545	372.751
0.266073	373.825
0.267609	374.903
0.269153	375.983
0.270707	377.067
0.27227	378.154
0.273842	379.244
0.275423	380.337
0.277013	381.433
0.278612	382.533
0.280221	383.635
0.281838	384.741
0.283465	385.85
0.285102	386.962
0.286748	388.077
0.288403	389.196
0.290068	390.318
0.291743	391.443
0.293427	392.571
0.295121	393.703
0.296825	394.838
0.298538	395.976
0.300262	397.117
0.301995	398.262
0.303739	399.41
0.305492	400.561
0.307256	401.715
0.30903	402.873
0.310814	404.035
0.312608	405.199
0.314413	406.367
0.316228	407.538
0.318053	408.713
0.31989	409.891
0.321736	411.073
0.323594	412.257
0.325462	413.446
0.327341	414.637
0.32923	415.833
0.331131	417.031
0.333043	418.233
0.334965	419.439
0.336899	420.648
0.338844	421.86
0.3408	423.076
0.342768	424.296
0.344747	425.519
0.346737	426.745
0.348739	427.975
0.350752	429.209
0.352777	430.446
0.354813	431.686
0.356862	432.931
0.358922	434.179
0.360994	435.43
0.363078	436.685
0.365174	437.944
0.367282	439.206
0.369403	440.472
0.371535	441.742
0.37368	443.015
0.375837	444.292
0.378007	445.573
0.380189	446.857
0.382384	448.145
0.384592	449.437
0.386812	450.732
0.389045	452.031
0.391291	453.334
0.39355	454.641
0.395822	455.951
0.398107	457.266
0.400405	458.584
0.402717	459.905
0.405042	461.231
0.40738	462.56
0.409732	463.894
0.412098	465.231
0.414477	466.572
0.416869	467.917
0.419276	469.265
0.421697	470.618
0.424131	471.974
0.42658	473.335
0.429042	474.699
0.431519	476.067
0.43401	477.44
0.436516	478.816
0.439036	480.196
0.44157	481.58
0.44412	482.968
0.446684	484.36
0.449262	485.756
0.451856	487.156
0.454465	488.561
0.457088	489.969
0.459727	491.381
0.462381	492.797
0.46505	494.218
0.467735	495.642
0.470435	497.071
0.473151	498.504
0.475883	499.941
0.47863	501.382
0.481393	502.827
0.484172	504.276
0.486968	505.73
0.489779	507.187
0.492606	508.649
0.49545	510.115
0.49831	511.586
0.501187	513.06
0.504081	514.539
0.506991	516.022
0.509918	517.51
0.512861	519.001
0.515822	520.497
0.5188	521.998
0.521795	523.502
0.524807	525.011
0.527837	526.524
0.530884	528.042
0.533949	529.564
0.537032	531.09
0.540132	532.621
0.54325	534.156
0.546387	535.696
0.549541	537.24
0.552713	538.789
0.555904	540.342
0.559114	541.899
0.562341	543.461
0.565588	545.028
0.568853	546.599
0.572137	548.174
0.57544	549.754
0.578762	551.339
0.582103	552.928
0.585464	554.522
0.588844	556.12
0.592243	557.723
0.595662	559.33
0.599101	560.943
0.60256	562.559
0.606038	564.181
0.609537	565.807
0.613056	567.438
0.616595	569.074
0.620155	570.714
0.623735	572.359
0.627336	574.009
0.630957	575.663
0.6346	577.322
0.638263	578.987
0.641948	580.655
0.645654	582.329
0.649382	584.008
0.653131	585.691
0.656901	587.379
0.660693	589.072
0.664508	590.77
0.668344	592.473
0.672202	594.181
0.676083	595.893
0.679986	597.611
0.683912	599.333
0.68786	601.061
0.691831	602.793
0.695825	604.531
0.699842	606.273
0.703882	608.021
0.707946	609.773
0.712033	611.531
0.716143	613.294
0.720278	615.061
0.724436	616.834
0.728618	618.612
0.732825	620.395
0.737055	622.183
0.74131	623.977
0.74559	625.775
0.749894	627.579
0.754223	629.388
0.758578	631.202
0.762957	633.021
0.767361	634.846
0.771792	636.676
0.776247	638.511
0.780728	640.352
0.785236	642.197
0.789769	644.048
0.794328	645.905
0.798914	647.766
0.803526	649.742
0.808165	651.761
0.812831	653.791
0.817523	655.831
0.822243	657.883
0.82699	659.945
0.831764	662.018
0.836566	664.102
0.841395	666.197
0.846253	668.304
0.851138	670.421
0.856052	672.549
0.860994	674.689
0.865964	676.839
0.870964	679.001
0.875992	681.174
0.881049	683.359
0.886135	685.555
0.891251	687.762
0.896396	689.981
0.901571	692.211
0.906776	694.453
0.912011	696.707
0.917276	698.972
0.922571	701.249
0.927897	703.537
0.933254	705.837
0.938642	708.149
0.944061	710.473
0.949511	712.809
0.954993	715.157
0.960506	717.51
0.966051	719.806
0.971628	722.114
0.977237	724.434
0.982879	726.766
0.988553	729.109
0.99426	731.464
1	733.831
1.00577	736.209
1.01158	738.6
1.01742	741.002
1.02329	743.416
1.0292	745.842
1.03514	748.281
1.04112	750.731
1.04713	753.193
1.05317	755.667
1.05925	758.154
1.06537	760.652
1.07152	763.163
1.07771	765.686
1.08393	768.221
1.09018	770.769
1.09648	773.328
1.10281	775.9
1.10917	778.485
1.11558	781.081
1.12202	783.69
1.1285	786.312
1.13501	788.946
1.14156	791.592
1.14815	794.251
1.15478	796.922
1.16145	799.606
1.16815	802.303
1.1749	805.011
1.18168	807.733
1.1885	810.467
1.19536	813.214
1.20226	815.973
1.20921	818.745
1.21619	821.529
1.22321	824.327
1.23027	827.137
1.23737	829.959
1.24451	832.794
1.2517	835.642
1.25893	838.503
1.26619	841.376
1.2735	844.262
1.28086	847.159
1.28825	850.05
1.29569	852.954
1.30317	855.87
1.31069	858.8
1.31826	861.742
1.32587	864.697
1.33352	867.665
1.34122	870.646
1.34896	873.639
1.35675	876.646
1.36458	879.666
1.37246	882.699
1.38038	885.745
1.38835	888.805
1.39637	891.878
1.40443	894.964
1.41254	898.063
1.42069	901.176
1.42889	904.302
1.43714	907.442
1.44544	910.596
1.45378	913.763
1.46218	916.944
1.47062	920.139
1.47911	923.347
1.48765	926.569
1.49624	929.806
1.50487	933.056
1.51356	936.32
1.5223	939.599
1.53109	942.892
1.53993	946.199
1.54882	949.52
1.55776	952.855
1.56675	956.205
1.5758	959.57
1.58489	962.949
1.59404	966.343
1.60325	969.751
1.6125	973.173
1.62181	976.61
1.63117	980.062
1.64059	983.529
1.65006	987.01
1.65959	990.507
1.66917	994.018
1.6788	997.544
1.6885	1001.08
1.69824	1004.64
1.70805	1008.21
1.71791	1011.8
1.72783	1015.4
1.7378	1019.01
1.74783	1022.64
1.75792	1026.29
1.76807	1029.95
1.77828	1033.62
1.78855	1037.31
1.79887	1041.02
1.80926	1044.74
1.8197	1048.47
1.83021	1052.22
1.84077	1055.99
1.8514	1059.77
1.86209	1063.56
1.87284	1067.37
1.88365	1071.2
1.89452	1075.03
1.90546	1078.89
1.91646	1082.76
1.92752	1086.64
1.93865	1090.54
1.94984	1094.45
1.9611	1098.38
1.97242	1102.33
1.98381	1106.28
1.99526	1110.26
2.00678	1114.24
2.01837	1118.25
2.03002	1122.26
2.04174	1126.3
2.05353	1130.34
2.06538	1134.41
2.0773	1138.48
2.0893	1142.57
2.10136	1146.68
2.11349	1150.8
2.12569	1154.94
2.13796	1159.09
2.1503	1163.25
2.16272	1167.43
2.1752	1171.63
2.18776	1175.84
2.20039	1180.06
2.21309	1184.3
2.22587	1188.56
2.23872	1192.82
2.25165	1197.11
2.26464	1201.4
2.27772	1205.72
2.29087	1210.04
2.30409	1214.38
2.31739	1218.74
2.33077	1223.11
2.34423	1227.49
2.35776	1231.89
2.37137	1236.3
2.38506	1240.73
2.39883	1245.17
2.41268	1249.62
2.42661	1254.09
2.44062	1258.57
2.45471	1263.07
2.46888	1267.58
2.48313	1272.1
2.49747	1276.64
2.51189	1281.19
2.52639	1285.75
2.54097	1290.33
2.55564	1294.92
2.5704	1299.52
2.58523	1304.14
2.60016	1308.77
2.61517	1313.41
2.63027	1318.07
2.64545	1322.73
2.66073	1327.42
2.67609	1332.11
2.69153	1336.82
2.70707	1341.54
2.7227	1346.27
2.73842	1351.02
2.75423	1355.77
2.77013	1360.54
2.78612	1365.33
2.80221	1370.12
2.81838	1374.93
2.83465	1379.75
2.85102	1384.58
2.86748	1389.42
2.88403	1394.28
2.90068	1399.15
2.91743	1404.03
2.93427	1408.92
2.95121	1413.82
2.96825	1418.74
2.98538	1423.67
3.00262	1428.6
3.01995	1433.55
3.03739	1438.51
3.05492	1443.48
3.07256	1448.47
3.0903	1453.46
3.10814	1458.46
3.12608	1463.48
3.14413	1468.5
3.16228	1473.54
3.18053	1478.58
3.1989	1483.63
3.21736	1488.7
3.23594	1493.78
3.25462	1498.87
3.27341	1503.96
3.2923	1509.07
3.31131	1514.18
3.33043	1519.31
3.34965	1524.44
3.36899	1529.58
3.38844	1534.73
3.408	1539.89
3.42768	1545.06
3.44747	1550.24
3.46737	1555.42
3.48739	1560.62
3.50752	1565.82
3.52777	1571.03
3.54813	1576.25
3.56862	1581.47
3.58922	1586.7
3.60994	1591.94
3.63078	1597.19
3.65174	1602.44
3.67282	1607.71
3.69403	1612.97
3.71535	1618.25
3.7368	1623.53
3.75837	1628.82
3.78007	1634.11
3.80189	1639.41
3.82384	1644.72
3.84592	1650.03
3.86812	1655.35
3.89045	1660.67
3.91291	1666
3.9355	1671.33
3.95822	1676.67
3.98107	1682.02
4.00405	1687.37
4.02717	1692.72
4.05042	1698.08
4.0738	1703.44
4.09732	1708.81
4.12098	1714.18
4.14477	1719.55
4.16869	1724.93
4.19276	1730.31
4.21697	1735.7
4.24131	1741.08
4.2658	1746.48
4.29042	1751.87
4.31519	1757.27
4.3401	1762.66
4.36516	1768.07
4.39036	1773.47
4.4157	1778.88
4.4412	1784.28
4.46684	1789.69
4.49262	1795.1
4.51856	1800.51
4.54465	1805.93
4.57088	1811.34
4.59727	1816.76
4.62381	1822.17
4.6505	1827.59
4.67735	1833.01
4.70435	1838.42
4.73151	1843.84
4.75883	1849.26
4.7863	1854.67
4.81393	1860.06
4.84172	1865.42
4.86968	1870.78
4.89779	1876.14
4.92606	1881.5
4.9545	1886.86
4.9831	1892.21
5.01187	1897.56
5.04081	1902.91
5.06991	1908.25
5.09918	1913.59
5.12861	1918.93
5.15822	1924.26
5.188	1929.58
5.21795	1934.91
5.24807	1940.22
5.27837	1945.53
5.30884	1950.84
5.33949	1956.14
5.37032	1961.43
5.40132	1966.71
5.4325	1971.99
5.46387	1977.26
5.49541	1982.52
5.52713	1987.77
5.55904	1993.01
5.59114	1998.25
5.62341	2003.47
5.65588	2008.69
5.68853	2013.89
5.72137	2019.08
5.7544	2024.26
5.78762	2029.43
5.82103	2034.59
5.85464	2039.74
5.88844	2044.87
5.92243	2049.99
5.95662	2055.1
5.99101	2060.19
6.0256	2065.27
6.06038	2070.33
6.09537	2075.38
6.13056	2080.41
6.16595	2085.43
6.20155	2090.43
6.23735	2095.41
6.27336	2100.38
6.30957	2105.33
6.346	2110.25
6.38263	2115.16
6.41948	2120.07
6.45654	2124.96
6.49382	2129.83
6.53131	2134.68
6.56901	2139.51
6.60693	2144.33
6.64508	2149.12
6.68344	2153.88
6.72202	2158.63
6.76083	2163.36
6.79986	2168.06
6.83912	2172.74
6.8786	2177.4
6.91831	2182.04
6.95825	2186.65
6.99842	2191.25
7.03882	2195.81
7.07946	2200.36
7.12033	2204.88
7.16143	2209.37
7.20278	2213.84
7.24436	2218.29
7.28618	2222.71
7.32825	2227.11
7.37055	2231.48
7.4131	2235.83
7.4559	2240.15
7.49894	2244.44
7.54223	2248.71
7.58578	2252.96
7.62957	2257.18
7.67361	2261.37
7.71792	2265.54
7.76247	2269.68
7.80728	2273.79
7.85236	2277.88
7.89769	2281.94
7.94328	2285.97
7.98914	2289.98
8.03526	2293.96
8.08165	2297.92
8.12831	2301.85
8.17523	2305.75
8.22243	2309.62
8.2699	2313.47
8.31764	2317.29
8.36566	2321.08
8.41395	2324.84
8.46253	2328.57
8.51138	2332.28
8.56052	2335.95
8.60994	2339.6
8.65964	2343.22
8.70964	2346.81
8.75992	2350.37
8.81049	2353.9
8.86135	2357.4
8.91251	2360.87
8.96396	2364.31
9.01571	2367.72
9.06776	2371.1
9.12011	2374.45
9.17276	2377.77
9.22571	2381.06
9.27897	2384.32
9.33254	2387.55
9.38642	2390.75
9.44061	2393.92
9.49511	2397.06
9.54993	2400.17
9.60506	2403.25
9.66051	2406.31
9.71628	2409.34
9.77237	2412.34
9.82879	2415.31
9.88553	2418.25
9.9426	2421.16
10	2424.03
10.0577	2426.88
10.1158	2429.69
10.1742	2432.48
10.2329	2435.23
10.292	2437.95
10.3514	2440.64
10.4112	2443.29
10.4713	2445.92
10.5317	2448.51
10.5925	2451.07
10.6537	2453.6
10.7152	2456.09
10.7771	2458.56
10.8393	2460.99
10.9018	2463.39
10.9648	2465.75
11.0281	2468.09
11.0917	2470.39
11.1558	2472.66
11.2202	2474.9
11.285	2477.1
11.3501	2479.28
11.4156	2481.42
11.4815	2483.53
11.5478	2485.61
11.6145	2487.66
11.6815	2489.67
11.749	2491.66
11.8168	2493.61
11.885	2495.54
11.9536	2497.43
12.0226	2499.3
12.0921	2501.13
12.1619	2502.94
12.2321	2504.71
12.3027	2506.46
12.3737	2508.18
12.4451	2509.88
12.517	2511.54
12.5893	2513.18
12.6619	2514.8
12.735	2516.39
12.8086	2517.95
12.8825	2519.46
12.9569	2520.94
13.0317	2522.4
13.1069	2523.83
13.1826	2525.24
13.2587	2526.63
13.3352	2527.99
13.4122	2529.32
13.4896	2530.63
13.5675	2531.91
13.6458	2533.17
13.7246	2534.4
13.8038	2535.61
13.8835	2536.78
13.9637	2537.94
14.0443	2539.06
14.1254	2540.17
14.2069	2541.24
14.2889	2542.29
14.3714	2543.31
14.4544	2544.3
14.5378	2545.27
14.6218	2546.21
14.7062	2547.13
14.7911	2548.02
14.8765	2548.88
14.9624	2549.72
15.0487	2550.52
15.1356	2551.31
15.223	2552.06
15.3109	2552.79
15.3993	2553.5
15.4882	2554.17
15.5776	2554.83
15.6675	2555.45
15.758	2556.05
15.8489	2556.63
15.9404	2557.17
16.0325	2557.7
16.125	2558.21
16.2181	2558.69
16.3117	2559.14
16.4059	2559.57
16.5006	2559.97
16.5959	2560.35
16.6917	2560.71
16.788	2561.04
16.885	2561.34
16.9824	2561.62
17.0805	2561.87
17.1791	2562.1
17.2783	2562.3
17.378	2562.48
17.4783	2562.63
17.5792	2562.76
17.6807	2562.86
17.7828	2562.94
17.8855	2562.99
17.9887	2563.02
18.0926	2563.03
18.197	2563.01
18.3021	2562.96
18.4077	2562.9
18.514	2562.81
18.6209	2562.69
18.7284	2562.55
18.8365	2562.4
18.9452	2562.21
19.0546	2562.01
19.1646	2561.78
19.2752	2561.53
19.3865	2561.26
19.4984	2560.97
19.611	2560.66
19.7242	2560.33
19.8381	2559.97
19.9526	2559.59
20.0678	2559.19
20.1837	2558.77
20.3002	2558.33
20.4174	2557.87
20.5353	2557.38
20.6538	2556.87
20.773	2556.34
20.893	2555.79
21.0136	2555.21
21.1349	2554.62
21.2569	2554
21.3796	2553.36
21.503	2552.7
21.6272	2552.01
21.752	2551.31
21.8776	2550.58
22.0039	2549.83
22.1309	2549.07
22.2587	2548.28
22.3872	2547.46
22.5165	2546.63
22.6464	2545.78
22.7772	2544.91
22.9087	2544.01
23.0409	2543.1
23.1739	2542.16
23.3077	2541.2
23.4423	2540.23
23.5776	2539.23
23.7137	2538.21
23.8506	2537.17
23.9883	2536.11
24.1268	2535.03
24.2661	2533.93
24.4062	2532.81
24.5471	2531.67
24.6888	2530.51
24.8313	2529.33
24.9747	2528.13
25.1189	2526.91
25.2639	2525.67
25.4097	2524.41
25.5564	2523.14
25.704	2521.84
25.8523	2520.53
26.0016	2519.2
26.1517	2517.85
26.3027	2516.48
26.4545	2515.09
26.6073	2513.68
26.7609	2512.26
26.9153	2510.82
27.0707	2509.35
27.227	2507.87
27.3842	2506.37
27.5423	2504.86
27.7013	2503.32
27.8612	2501.77
28.0221	2500.2
28.1838	2498.61
28.3465	2497
28.5102	2495.37
28.6748	2493.73
28.8403	2492.07
29.0068	2490.39
29.1743	2488.69
29.3427	2486.97
29.5121	2485.24
29.6825	2483.49
29.8538	2481.73
30.0262	2479.94
30.1995	2478.14
30.3739	2476.32
30.5492	2474.49
30.7256	2472.64
30.903	2470.77
31.0814	2468.88
31.2608	2466.98
31.4413	2465.07
31.6228	2463.13
31.8053	2461.19
31.989	2459.22
32.1736	2457.25
32.3594	2455.25
32.5462	2453.25
32.7341	2451.22
32.923	2449.18
33.1131	2447.13
33.3043	2445.06
33.4965	2442.98
33.6899	2440.88
33.8844	2438.76
34.08	2436.63
34.2768	2434.48
34.4747	2432.32
34.6737	2430.14
34.8739	2427.95
35.0752	2425.74
35.2777	2423.51
35.4813	2421.27
35.6862	2419.02
35.8922	2416.74
36.0994	2414.45
36.3078	2412.15
36.5174	2409.83
36.7282	2407.49
36.9403	2405.14
37.1535	2402.77
37.368	2400.39
37.5837	2397.99
37.8007	2395.57
38.0189	2393.14
38.2384	2390.69
38.4592	2388.23
38.6812	2385.75
38.9045	2383.26
39.1291	2380.75
39.355	2378.22
39.5822	2375.68
39.8107	2373.12
40.0405	2370.55
40.2717	2367.96
40.5042	2365.36
40.738	2362.74
40.9732	2360.11
41.2098	2357.46
41.4477	2354.8
41.6869	2352.12
41.9276	2349.42
42.1697	2346.71
42.4131	2343.99
42.658	2341.25
42.9042	2338.5
43.1519	2335.73
43.401	2332.95
43.6516	2330.16
43.9036	2327.35
44.157	2324.52
44.412	2321.69
44.6684	2318.84
44.9262	2315.97
45.1856	2313.1
45.4465	2310.21
45.7088	2307.31
45.9727	2304.39
46.2381	2301.46
46.505	2298.52
46.7735	2295.57
47.0435	2292.61
47.3151	2289.64
47.5883	2286.65
47.863	2283.65
48.1393	2280.64
48.4172	2277.62
48.6968	2274.59
48.9779	2271.54
49.2606	2268.49
49.545	2265.43
49.831	2262.35
50.1187	2259.27
50.4081	2256.17
50.6991	2253.06
50.9918	2249.95
51.2861	2246.82
51.5822	2243.68
51.88	2240.53
52.1795	2237.37
52.4807	2234.21
52.7837	2231.03
53.0884	2227.84
53.3949	2224.64
53.7032	2221.43
54.0132	2218.21
54.325	2214.98
54.6387	2211.74
54.9541	2208.48
55.2713	2205.22
55.5904	2201.95
55.9114	2198.67
56.2341	2195.38
56.5588	2192.08
56.8853	2188.77
57.2137	2185.45
57.544	2182.11
57.8762	2178.77
58.2103	2175.42
58.5464	2172.06
58.8844	2168.69
59.2243	2165.31
59.5662	2161.92
59.9101	2158.52
60.256	2155.11
60.6038	2151.69
60.9537	2148.26
61.3056	2144.82
61.6595	2141.37
62.0155	2137.91
62.3735	2134.45
62.7336	2130.97
63.0957	2127.48
63.46	2123.99
63.8263	2120.48
64.1948	2116.97
64.5654	2113.44
64.9382	2109.9
65.3131	2106.36
65.6901	2102.8
66.0693	2099.24
66.4508	2095.66
66.8344	2092.08
67.2202	2088.49
67.6083	2084.89
67.9986	2081.28
68.3912	2077.67
68.786	2074.04
69.1831	2070.41
69.5825	2066.77
69.9842	2063.11
70.3882	2059.46
70.7946	2055.79
71.2033	2052.11
71.6143	2048.43
72.0278	2044.74
72.4436	2041.04
72.8618	2037.33
73.2825	2033.61
73.7055	2029.89
74.131	2026.16
74.559	2022.42
74.9894	2018.68
75.4223	2014.92
75.8578	2011.16
76.2957	2007.39
76.7361	2003.62
77.1792	1999.84
77.6247	1996.05
78.0728	1992.25
78.5236	1988.45
78.9769	1984.64
79.4328	1980.82
79.8914	1977
80.3526	1973.17
80.8165	1969.33
81.2831	1965.49
81.7523	1961.64
82.2243	1957.79
82.699	1953.93
83.1764	1950.06
83.6566	1946.18
84.1395	1942.31
84.6253	1938.42
85.1138	1934.53
85.6052	1930.63
86.0994	1926.73
86.5964	1922.82
87.0964	1918.91
87.5992	1914.99
88.1049	1911.07
88.6135	1907.14
89.1251	1903.2
89.6396	1899.26
90.1571	1895.31
90.6776	1891.36
91.2011	1887.41
91.7276	1883.45
92.2571	1879.48
92.7897	1875.51
93.3254	1871.53
93.8642	1867.55
94.4061	1863.57
94.9511	1859.58
95.4993	1855.59
96.0506	1851.59
96.6051	1847.58
97.1628	1843.57
97.7237	1839.55
98.2879	1835.53
98.8553	1831.51
99.426	1827.48
100	1823.45
100.577	1819.41
101.158	1815.37
101.742	1811.33
102.329	1807.28
102.92	1803.23
103.514	1799.17
104.112	1795.11
104.713	1791.05
105.317	1786.98
105.925	1782.91
106.537	1778.84
107.152	1774.77
107.771	1770.69
108.393	1766.6
109.018	1762.52
109.648	1758.43
110.281	1754.34
110.917	1750.25
111.558	1746.15
112.202	1742.05
112.85	1737.95
113.501	1733.84
114.156	1729.73
114.815	1725.62
115.478	1721.51
116.145	1717.39
116.815	1713.28
117.49	1709.16
118.168	1705.03
118.85	1700.91
119.536	1696.78
120.226	1692.65
120.921	1688.52
121.619	1684.38
122.321	1680.25
123.027	1676.11
123.737	1671.97
124.451	1667.82
125.17	1663.68
125.893	1659.53
126.619	1655.38
127.35	1651.23
128.086	1647.07
128.825	1642.93
129.569	1638.78
130.317	1634.64
131.069	1630.49
131.826	1626.33
132.587	1622.18
133.352	1618.03
134.122	1613.87
134.896	1609.71
135.675	1605.56
136.458	1601.4
137.246	1597.24
138.038	1593.07
138.835	1588.91
139.637	1584.75
140.443	1580.58
141.254	1576.42
142.069	1572.26
142.889	1568.09
143.714	1563.93
144.544	1559.76
145.378	1555.6
146.218	1551.43
147.062	1547.27
147.911	1543.1
148.765	1538.94
149.624	1534.77
150.487	1530.61
151.356	1526.45
152.23	1522.29
153.109	1518.13
153.993	1513.97
154.882	1509.81
155.776	1505.65
156.675	1501.5
157.58	1497.34
158.489	1493.19
159.404	1489.03
160.325	1484.88
161.25	1480.73
162.181	1476.57
163.117	1472.42
164.059	1468.27
165.006	1464.13
165.959	1459.98
166.917	1455.84
167.88	1451.7
168.85	1447.56
169.824	1443.42
170.805	1439.29
171.791	1435.15
172.783	1431.02
173.78	1426.9
174.783	1422.77
175.792	1418.65
176.807	1414.53
177.828	1410.41
178.855	1406.3
179.887	1402.18
180.926	1398.07
181.97	1393.97
183.021	1389.86
184.077	1385.76
185.14	1381.67
186.209	1377.57
187.284	1373.48
188.365	1369.39
189.452	1365.3
190.546	1361.22
191.646	1357.14
192.752	1353.06
193.865	1348.98
194.984	1344.91
196.11	1340.84
197.242	1336.77
198.381	1332.71
199.526	1328.65
200.678	1324.59
201.837	1320.53
203.002	1316.48
204.174	1312.43
205.353	1308.39
206.538	1304.35
207.73	1300.31
208.93	1296.28
210.136	1292.25
211.349	1288.22
212.569	1284.2
213.796	1280.18
215.03	1276.17
216.272	1272.16
217.52	1268.15
218.776	1264.15
220.039	1260.15
221.309	1256.15
222.587	1252.16
223.872	1248.17
225.165	1244.19
226.464	1240.21
227.772	1236.23
229.087	1232.26
230.409	1228.29
231.739	1224.33
233.077	1220.37
234.423	1216.42
235.776	1212.46
237.137	1208.52
238.506	1204.58
239.883	1200.64
241.268	1196.71
242.661	1192.78
244.062	1188.86
245.471	1184.95
246.888	1181.03
248.313	1177.13
249.747	1173.23
251.189	1169.33
252.639	1165.44
254.097	1161.55
255.564	1157.67
257.04	1153.79
258.523	1149.92
260.016	1146.06
261.517	1142.2
263.027	1138.35
264.545	1134.5
266.073	1130.65
267.609	1126.82
269.153	1122.99
270.707	1119.16
272.27	1115.34
273.842	1111.53
275.423	1107.72
277.013	1103.92
278.612	1100.13
280.221	1096.34
281.838	1092.56
283.465	1088.79
285.102	1085.02
286.748	1081.26
288.403	1077.51
290.068	1073.76
291.743	1070.02
293.427	1066.28
295.121	1062.56
296.825	1058.84
298.538	1055.12
300.262	1051.42
301.995	1047.72
303.739	1044.02
305.492	1040.34
307.256	1036.66
309.03	1032.98
310.814	1029.31
312.608	1025.65
314.413	1022
316.228	1018.35
318.053	1014.7
319.89	1011.07
321.736	1007.43
323.594	1003.8
325.462	1000.17
327.341	996.555
329.23	992.942
331.131	989.335
333.043	985.735
334.965	982.142
336.899	978.556
338.844	974.976
340.8	971.404
342.768	967.838
344.747	964.28
346.737	960.73
348.739	957.187
350.752	953.651
352.777	950.124
354.813	946.604
356.862	943.093
358.922	939.589
360.994	936.094
363.078	932.607
365.174	929.129
367.282	925.659
369.403	922.197
371.535	918.745
373.68	915.301
375.837	911.865
378.007	908.439
380.189	905.022
382.384	901.613
384.592	898.214
386.812	894.824
389.045	891.443
391.291	888.071
393.55	884.709
395.822	881.356
398.107	878.012
400.405	874.677
402.717	871.351
405.042	868.035
407.38	864.728
409.732	861.431
412.098	858.142
414.477	854.863
416.869	851.593
419.276	848.332
421.697	845.08
424.131	841.837
426.58	838.603
429.042	835.378
431.519	832.161
434.01	828.953
436.516	825.754
439.036	822.562
441.57	819.379
444.12	816.205
446.684	813.037
449.262	809.878
451.856	806.726
454.465	803.582
457.088	800.444
459.727	797.314
462.381	794.19
465.05	791.072
467.735	787.961
470.435	784.855
473.151	781.754
475.883	778.659
478.63	775.569
481.393	772.515
484.172	769.496
486.968	766.483
489.779	763.475
492.606	760.471
495.45	757.473
498.31	754.481
501.187	751.493
504.081	748.512
506.991	745.536
509.918	742.567
512.861	739.603
515.822	736.645
518.8	733.694
521.795	730.75
524.807	727.812
527.837	724.88
530.884	721.956
533.949	719.038
537.032	716.128
540.132	713.225
543.25	710.329
546.387	707.44
549.541	704.559
552.713	701.686
555.904	698.821
559.114	695.964
562.341	693.114
565.588	690.273
568.853	687.44
572.137	684.616
575.44	681.799
578.762	678.992
582.103	676.193
585.464	673.402
588.844	670.621
592.243	667.848
595.662	665.085
599.101	662.33
602.56	659.585
606.038	656.848
609.537	654.121
613.056	651.403
616.595	648.695
620.155	645.996
623.735	643.306
627.336	640.626
630.957	637.955
634.6	635.294
638.263	632.643
641.948	629.994
645.654	627.348
649.382	624.712
653.131	622.086
656.901	619.47
660.693	616.863
664.508	614.266
668.344	611.679
672.202	609.102
676.083	606.535
679.986	603.977
683.912	601.43
687.86	598.893
691.831	596.366
695.825	593.849
699.842	591.342
703.882	588.845
707.946	586.358
712.033	583.881
716.143	581.414
720.278	578.957
724.436	576.509
728.618	574.072
732.825	571.644
737.055	569.227
741.31	566.818
745.59	564.419
749.894	562.03
754.223	559.65
758.578	557.279
762.957	554.917
767.361	552.565
771.792	550.221
776.247	547.885
780.728	545.558
785.236	543.24
789.769	540.929
794.328	538.626
798.914	536.331
803.526	534.043
808.165	531.762
812.831	529.489
817.523	527.223
822.243	524.964
826.99	522.714
831.764	520.471
836.566	518.236
841.395	516.008
846.253	513.789
851.138	511.577
856.052	509.374
860.994	507.178
865.964	504.991
870.964	502.811
875.992	500.64
881.049	498.477
886.135	496.322
891.251	494.175
896.396	492.036
901.571	489.905
906.776	487.783
912.011	485.668
917.276	483.562
922.571	481.463
927.897	479.373
933.254	477.291
938.642	475.216
944.061	473.15
949.511	471.091
954.993	469.04
960.506	466.996
966.051	464.957
971.628	462.925
977.237	460.901
982.879	458.885
988.553	456.876
994.26	454.876
1000	452.883
1005.77	450.899
1011.58	448.922
1017.42	446.954
1023.29	444.994
1029.2	443.043
1035.14	441.099
1041.12	439.164
1047.13	437.238
1053.17	435.319
1059.25	433.41
1065.37	431.508
1071.52	429.615
1077.71	427.731
1083.93	425.855
1090.18	423.988
1096.48	422.129
1102.81	420.278
1109.17	418.436
1115.58	416.603
1122.02	414.778
1128.5	412.961
1135.01	411.153
1141.56	409.352
1148.15	407.56
1154.78	405.777
1161.45	404.001
1168.15	402.233
1174.9	400.474
1181.68	398.722
1188.5	396.978
1195.36	395.241
1202.26	393.512
1209.21	391.791
1216.19	390.076
1223.21	388.369
1230.27	386.669
1237.37	384.976
1244.51	383.289
1251.7	381.609
1258.93	379.935
1266.19	378.267
1273.5	376.605
1280.86	374.95
1288.25	373.312
1295.69	371.68
1303.17	370.053
1310.69	368.432
1318.26	366.817
1325.87	365.208
1333.52	363.604
1341.22	362.007
1348.96	360.415
1356.75	358.83
1364.58	357.251
1372.46	355.677
1380.38	354.11
1388.35	352.55
1396.37	350.995
1404.43	349.447
1412.54	347.906
1420.69	346.37
1428.89	344.842
1437.14	343.32
1445.44	341.804
1453.78	340.295
1462.18	338.792
1470.62	337.296
1479.11	335.807
1487.65	334.324
1496.24	332.848
1504.87	331.379
1513.56	329.916
1522.3	328.46
1531.09	327.01
1539.93	325.567
1548.82	324.131
1557.76	322.701
1566.75	321.278
1575.8	319.862
1584.89	318.452
1594.04	317.048
1603.25	315.65
1612.5	314.256
1621.81	312.868
1631.17	311.487
1640.59	310.112
1650.06	308.744
1659.59	307.382
1669.17	306.026
1678.8	304.677
1688.5	303.335
1698.24	301.999
1708.05	300.669
1717.91	299.346
1727.83	298.03
1737.8	296.72
1747.83	295.416
1757.92	294.119
1768.07	292.828
1778.28	291.543
1788.55	290.264
1798.87	288.992
1809.26	287.726
1819.7	286.466
1830.21	285.212
1840.77	283.965
1851.4	282.723
1862.09	281.486
1872.84	280.256
1883.65	279.031
1894.52	277.812
1905.46	276.598
1916.46	275.389
1927.52	274.186
1938.65	272.987
1949.84	271.794
1961.1	270.606
1972.42	269.423
1983.81	268.245
1995.26	267.073
2006.78	265.906
2018.37	264.744
2030.02	263.588
2041.74	262.437
2053.53	261.291
2065.38	260.151
2077.3	259.015
2089.3	257.886
2101.36	256.761
2113.49	255.642
2125.69	254.528
2137.96	253.42
2150.3	252.316
2162.72	251.218
2175.2	250.126
2187.76	249.038
2200.39	247.955
2213.09	246.878
2225.87	245.805
2238.72	244.738
2251.65	243.675
2264.64	242.618
2277.72	241.565
2290.87	240.518
2304.09	239.475
2317.39	238.437
2330.77	237.404
2344.23	236.377
2357.76	235.354
2371.37	234.336
2385.06	233.323
2398.83	232.315
2412.68	231.312
2426.61	230.314
2440.62	229.321
2454.71	228.333
2468.88	227.349
2483.13	226.37
2497.47	225.396
2511.89	224.427
2526.39	223.462
2540.97	222.502
2555.64	221.547
2570.4	220.595
2585.23	219.649
2600.16	218.707
2615.17	217.769
2630.27	216.836
2645.45	215.907
2660.73	214.983
2676.09	214.063
2691.53	213.148
2707.07	212.238
2722.7	211.331
2738.42	210.43
2754.23	209.533
2770.13	208.64
2786.12	207.751
2802.21	206.867
2818.38	205.988
2834.65	205.113
2851.02	204.242
2867.48	203.375
2884.03	202.513
2900.68	201.654
2917.43	200.8
2934.27	199.95
2951.21	199.104
2968.25	198.263
2985.38	197.425
3002.62	196.591
3019.95	195.761
3037.39	194.936
3054.92	194.114
3072.56	193.296
3090.3	192.466
3108.14	191.595
3126.08	190.729
3144.13	189.867
3162.28	189.009
3180.53	188.155
3198.9	187.305
3217.36	186.457
3235.94	185.613
3254.62	184.773
3273.41	183.937
3292.3	183.104
3311.31	182.276
3330.43	181.452
3349.65	180.631
3368.99	179.815
3388.44	179.003
3408	178.195
3427.68	177.391
3447.47	176.592
3467.37	175.796
3487.39	175.005
3507.52	174.219
3527.77	173.436
3548.13	172.658
3568.62	171.884
3589.22	171.115
3609.94	170.349
3630.78	169.589
3651.74	168.832
3672.82	168.08
3694.03	167.333
3715.35	166.59
3736.8	165.851
3758.37	165.117
3780.07	164.387
3801.89	163.662
3823.84	162.941
3845.92	162.225
3868.12	161.513
3890.45	160.805
3912.91	160.102
3935.5	159.403
3958.22	158.709
3981.07	158.019
4004.05	157.334
4027.17	156.652
4050.42	155.975
4073.8	155.303
4097.32	154.634
4120.98	153.97
4144.77	153.31
4168.69	152.654
4192.76	152.003
4216.97	151.355
4241.31	150.711
4265.8	150.072
4290.42	149.436
4315.19	148.804
4340.1	148.175
4365.16	147.551
4390.36	146.93
4415.7	146.312
4441.2	145.698
4466.84	145.087
4492.62	144.48
4518.56	143.876
4544.65	143.275
4570.88	142.676
4597.27	142.081
4623.81	141.488
4650.5	140.898
4677.35	140.311
4704.35	139.725
4731.51	139.142
4758.83	138.561
4786.3	137.982
4813.93	137.413
4841.72	136.855
4869.68	136.299
4897.79	135.745
4926.06	135.192
4954.5	134.641
4983.1	134.093
5011.87	133.546
5040.81	133.001
5069.91	132.458
5099.18	131.917
5128.61	131.378
5158.22	130.841
5188	130.306
5217.95	129.773
5248.07	129.243
5278.37	128.714
5308.84	128.188
5339.49	127.664
5370.32	127.142
5401.32	126.623
5432.5	126.105
5463.87	125.591
5495.41	125.078
5527.13	124.568
5559.04	124.06
5591.14	123.554
5623.41	123.051
5655.88	122.551
5688.53	122.053
5721.37	121.557
5754.4	121.064
5787.62	120.573
5821.03	120.085
5854.64	119.599
5888.44	119.117
5922.43	118.636
5956.62	118.158
5991.01	117.683
6025.6	117.211
6060.38	116.741
6095.37	116.274
6130.56	115.809
6165.95	115.347
6201.55	114.888
6237.35	114.432
6273.36	113.978
6309.57	113.527
6346	113.078
6382.63	112.633
6419.48	112.189
6456.54	111.746
6493.82	111.306
6531.31	110.868
6569.01	110.433
6606.93	110.001
6645.08	109.572
6683.44	109.146
6722.02	108.722
6760.83	108.301
6799.86	107.883
6839.12	107.467
6878.6	107.054
6918.31	106.644
6958.25	106.236
6998.42	105.831
7038.82	105.429
7079.46	105.03
7120.33	104.633
7161.43	104.238
7202.78	103.846
7244.36	103.457
7286.18	103.071
7328.25	102.686
7370.55	102.305
7413.1	101.925
7455.9	101.549
7498.94	101.174
7542.23	100.802
7585.78	100.432
7629.57	100.064
7673.61	99.699
7717.92	99.3357
7762.47	98.9745
7807.28	98.6153
7852.36	98.2581
7897.69	97.9027
7943.28	97.5493
7989.14	97.1976
8035.26	96.8475
8081.65	96.499
8128.31	96.1523
8175.23	95.8073
8222.43	95.4639
8269.9	95.1223
8317.64	94.7825
8365.66	94.4444
8413.95	94.108
8462.53	93.7734
8511.38	93.4405
8560.52	93.1094
8609.94	92.78
8659.64	92.4525
8709.64	92.1266
8759.92	91.8026
8810.49	91.4803
8861.35	91.1598
8912.51	90.8411
8963.96	90.5241
9015.71	90.2089
9067.76	89.8954
9120.11	89.5837
9172.76	89.2737
9225.71	88.9654
9278.97	88.6589
9332.54	88.354
9386.42	88.0509
9440.61	87.7494
9495.11	87.4497
9549.93	87.1515
9605.06	86.8549
9660.51	86.5594
9716.28	86.2654
9772.37	85.9731
9828.79	85.6824
9885.53	85.3934
9942.6	85.106
10000	84.8203
10057.7	84.5362
10115.8	84.2539
10174.2	83.9732
10232.9	83.6942
10292	83.4169
10351.4	83.1413
10411.2	82.8674
10471.3	82.5952
10531.7	82.3248
10592.5	82.056
10653.7	81.7889
10715.2	81.5236
10777.1	81.2599
10839.3	80.998
10901.8	80.7377
10964.8	80.4792
11028.1	80.2223
11091.7	79.9671
11155.8	79.7136
11220.2	79.4617
11285	79.2115
11350.1	78.9629
11415.6	78.716
11481.5	78.4707
11547.8	78.227
11614.5	77.9848
11681.5	77.7442
11749	77.5052
11816.8	77.2677
11885	77.0317
11953.6	76.7972
12022.6	76.5641
12092.1	76.3324
12161.9	76.1022
12232.1	75.8733
12302.7	75.6457
12373.7	75.4195
12445.1	75.1945
12517	74.9707
12589.3	74.7481
12661.9	74.5266
12735	74.3062
12808.6	74.0872
12882.5	73.871
12956.9	73.656
13031.7	73.4419
13106.9	73.2289
13182.6	73.017
13258.7	72.8061
13335.2	72.5963
13412.2	72.3876
13489.6	72.1799
13567.5	71.9734
13645.8	71.768
13724.6	71.5637
13803.8	71.3605
13883.5	71.1584
13963.7	70.9575
14044.3	70.7577
14125.4	70.5591
14206.9	70.3616
14288.9	70.1652
14371.4	69.97
14454.4	69.776
14537.8	69.5831
14621.8	69.3914
14706.2	69.2009
14791.1	69.0115
14876.5	68.8233
14962.4	68.6363
15048.7	68.4504
15135.6	68.2657
15223	68.0822
15310.9	67.8998
15399.3	67.7186
15488.2	67.5385
15577.6	67.3596
15667.5	67.1819
15758	67.0052
15848.9	66.8298
15940.4	66.6554
16032.5	66.482
16125	66.3093
16218.1	66.1378
16311.7	65.9674
16405.9	65.7981
16500.6	65.63
16595.9	65.4629
16691.7	65.2969
16788	65.1321
16885	64.9684
16982.4	64.8058
17080.5	64.6443
17179.1	64.4839
17278.3	64.3246
17378	64.1664
17478.3	64.0092
17579.2	63.8532
17680.7	63.6982
17782.8	63.5444
17885.5	63.3915
17988.7	63.2398
18092.6	63.089
18197	62.9393
18302.1	62.7906
18407.7	62.643
18514	62.4963
18620.9	62.3506
18728.4	62.2058
18836.5	62.062
18945.2	61.9191
19054.6	61.7771
19164.6	61.636
19275.2	61.4958
19386.5	61.3564
19498.4	61.2178
19611	61.0801
19724.2	60.9433
19838.1	60.8074
19952.6	60.6723
20067.8	60.5381
20183.7	60.4047
20300.2	60.2723
20417.4	60.1407
20535.3	60.0099
20653.8	59.88
20773	59.751
20893	59.6229
21013.6	59.4956
21134.9	59.3691
21256.9	59.2435
21379.6	59.1188
21503	58.9949
21627.2	58.8718
21752	58.7495
21877.6	58.6281
22003.9	58.5075
22130.9	58.3877
22258.7	58.2686
22387.2	58.1504
22516.5	58.0329
22646.4	57.9162
22777.2	57.8003
22908.7	57.6851
23040.9	57.5708
23173.9	57.4572
23307.7	57.3444
23442.3	57.2324
23577.6	57.1211
23713.7	57.0107
23850.6	56.9011
23988.3	56.7922
24126.8	56.6842
24266.1	56.5769
24406.2	56.4704
24547.1	56.3647
24688.8	56.2598
24831.3	56.1557
24974.7	56.0523
25118.9	55.9498
25263.9	55.848
25409.7	55.7469
25556.4	55.6467
25704	55.5471
25852.3	55.4484
26001.6	55.3504
26151.7	55.2531
26302.7	55.1566
26454.5	55.0608
26607.3	54.9658
26760.9	54.8715
26915.3	54.7779
27070.7	54.6851
27227	54.593
27384.2	54.5015
27542.3	54.4108
27701.3	54.3208
27861.2	54.2314
28022.1	54.1427
28183.8	54.0547
28346.5	53.9674
28510.2	53.8806
28674.8	53.7945
28840.3	53.709
29006.8	53.6242
29174.3	53.5399
29342.7	53.4561
29512.1	53.373
29682.5	53.2903
29853.8	53.2082
30026.2	53.1266
30199.5	53.0454
30373.9	52.9647
30549.2	52.8845
30725.6	52.8046
30903	52.7251
31081.4	52.646
31260.8	52.5672
31441.3	52.4888
31622.8	52.4106
31805.3	52.3326
31989	52.2549
32173.6	52.1743
32359.4	52.0941
32546.2	52.0146
32734.1	51.9356
32923	51.8571
33113.1	51.7793
33304.3	51.7021
33496.5	51.6254
33689.9	51.5493
33884.4	51.4737
34080	51.3988
34276.8	51.3244
34474.7	51.2505
34673.7	51.1773
34873.9	51.1045
35075.2	51.0324
35277.7	50.9607
35481.3	50.8896
35686.2	50.8191
35892.2	50.7491
36099.4	50.6796
36307.8	50.6107
36517.4	50.5423
36728.2	50.4744
36940.3	50.4071
37153.5	50.3402
37368	50.2739
37583.7	50.2081
37800.7	50.1428
38018.9	50.0781
38238.4	50.0138
38459.2	49.95
38681.2	49.8867
38904.5	49.824
39129.1	49.7617
39355	49.6999
39582.2	49.6386
39810.7	49.5778
40040.5	49.5175
40271.7	49.4576
40504.2	49.3983
40738	49.3394
40973.2	49.2809
41209.8	49.223
41447.7	49.1655
41686.9	49.1085
41927.6	49.0519
42169.7	48.9958
42413.1	48.9402
42658	48.885
42904.2	48.8302
43151.9	48.7759
43401	48.7221
43651.6	48.6687
43903.6	48.6157
44157	48.5632
44412	48.5111
44668.4	48.4594
44926.2	48.4082
45185.6	48.3573
45446.5	48.307
45708.8	48.257
45972.7	48.2075
46238.1	48.1583
46505	48.1096
46773.5	48.0613
47043.5	48.0134
47315.1	47.9659
47588.3	47.9189
47863	47.8722
48139.3	47.8259
48417.2	47.78
48696.8	47.7345
48977.9	47.6894
49260.6	47.6447
49545	47.6004
49831	47.5565
50118.7	47.5129
50408.1	47.4698
50699.1	47.427
50991.8	47.3845
51286.1	47.3425
51582.2	47.3008
51880	47.2595
52179.5	47.2186
52480.7	47.178
52783.7	47.1378
53088.4	47.098
53394.9	47.0585
53703.2	47.0193
54013.2	46.9806
54325	46.9421
54638.7	46.904
54954.1	46.8663
55271.3	46.8289
55590.4	46.7918
55911.4	46.7551
56234.1	46.7188
56558.8	46.6827
56885.3	46.647
57213.7	46.6116
57544	46.5766
57876.2	46.5419
58210.3	46.5075
58546.4	46.4734
58884.4	46.4397
59224.3	46.4062
59566.2	46.3731
59910.1	46.3403
60256	46.3078
60603.8	46.2756
60953.7	46.2438
61305.6	46.2122
61659.5	46.1809
62015.5	46.15
62373.5	46.1193
62733.6	46.089
63095.7	46.0589
63460	46.0291
63826.3	45.9997
64194.8	45.9705
64565.4	45.9416
64938.2	45.913
65313.1	45.8846
65690.1	45.8566
66069.3	45.8288
66450.8	45.8014
66834.4	45.7741
67220.2	45.7472
67608.3	45.7206
67998.6	45.6942
68391.2	45.6681
68786	45.6422
69183.1	45.6166
69582.5	45.5913
69984.2	45.5662
70388.2	45.5414
70794.6	45.5169
71203.3	45.4926
71614.3	45.4686
72027.8	45.4448
72443.6	45.4213
72861.8	45.398
73282.5	45.375
73705.5	45.3522
74131	45.3297
74559	45.3074
74989.4	45.2854
75422.3	45.2636
75857.8	45.242
76295.7	45.2206
76736.1	45.1995
77179.2	45.1787
77624.7	45.158
78072.8	45.1376
78523.6	45.1174
78976.9	45.0975
79432.8	45.0777
79891.4	45.0582
80352.6	45.0389
80816.5	45.0199
81283.1	45.001
81752.3	44.9824
82224.3	44.964
82699	44.9457
83176.4	44.9277
83656.6	44.91
84139.5	44.8924
84625.3	44.875
85113.8	44.8578
85605.2	44.8409
86099.4	44.8241
86596.4	44.8075
87096.4	44.7912
87599.2	44.775
88104.9	44.759
88613.5	44.7433
89125.1	44.7277
89639.6	44.7123
90157.1	44.6971
90677.6	44.6821
91201.1	44.6672
91727.6	44.6526
92257.1	44.6381
92789.7	44.6239
93325.4	44.6098
93864.2	44.5959
94406.1	44.5821
94951.1	44.5686
95499.3	44.5552
96050.6	44.542
96605.1	44.5289
97162.8	44.5161
97723.7	44.5034
98287.9	44.4909
98855.3	44.4785
99426	44.4663
100000	44.4543
100577	44.4424
101158	44.4307
101742	44.4192
102329	44.4078
102920	44.3965
103514	44.3855
104112	44.3746
104713	44.3638
105317	44.3532
105925	44.3427
106537	44.3324
107152	44.3223
107771	44.3123
108393	44.3024
109018	44.2927
109648	44.2831
110281	44.2737
110917	44.2644
111558	44.2552
112202	44.2462
112850	44.2374
113501	44.2286
114156	44.22
114815	44.2116
115478	44.2032
116145	44.195
116815	44.1869
117490	44.179
118168	44.1712
118850	44.1635
119536	44.1559
120226	44.1485
120921	44.1412
121619	44.134
122321	44.1269
123027	44.12
123737	44.1132
124451	44.1065
125170	44.0999
125893	44.0934
126619	44.087
127350	44.0808
128086	44.0747
128825	44.0687
129569	44.0627
130317	44.0569
131069	44.0513
131826	44.0457
132587	44.0402
133352	44.0348
134122	44.0296
134896	44.0244
135675	44.0193
136458	44.0144
137246	44.0095
138038	44.0048
138835	44.0001
139637	43.9956
140443	43.9911
141254	43.9867
142069	43.9824
142889	43.9783
143714	43.9742
144544	43.9702
145378	43.9663
146218	43.9625
147062	43.9588
147911	43.9551
148765	43.9516
149624	43.9481
150487	43.9447
151356	43.9415
152230	43.9383
153109	43.9351
153993	43.9321
154882	43.9291
155776	43.9263
156675	43.9235
157580	43.9207
158489	43.9181
159404	43.9155
160325	43.913
161250	43.9106
162181	43.9083
163117	43.906
164059	43.9038
165006	43.9017
165959	43.8997
166917	43.8977
167880	43.8958
168850	43.894
169824	43.8922
170805	43.8905
171791	43.8889
172783	43.8873
173780	43.8858
174783	43.8843
175792	43.883
176807	43.8817
177828	43.8804
178855	43.8792
179887	43.8781
180926	43.877
181970	43.876
183021	43.8751
184077	43.8742
185140	43.8734
186209	43.8726
187284	43.8719
188365	43.8712
189452	43.8706
190546	43.87
191646	43.8695
192752	43.8691
193865	43.8687
194984	43.8683
196110	43.868
197242	43.8678
198381	43.8676
199526	43.8674
200678	43.8673
201837	43.8673
203002	43.8673
204174	43.8673
205353	43.8674
206538	43.8675
207730	43.8677
208930	43.8679
210136	43.8682
211349	43.8685
212569	43.8688
213796	43.8692
215030	43.8697
216272	43.8701
217520	43.8706
218776	43.8712
220039	43.8718
221309	43.8724
222587	43.873
223872	43.8737
225165	43.8745
226464	43.8753
227772	43.8761
229087	43.8769
230409	43.8778
231739	43.8787
233077	43.8796
234423	43.8806
235776	43.8816
237137	43.8827
238506	43.8837
239883	43.8848
241268	43.886
242661	43.8871
244062	43.8883
245471	43.8895
246888	43.8908
248313	43.8921
249747	43.8934
251189	43.8947
252639	43.8961
254097	43.8974
255564	43.8989
257040	43.9003
258523	43.9018
260016	43.9032
261517	43.9047
263027	43.9063
264545	43.9078
266073	43.9094
267609	43.911
269153	43.9126
270707	43.9143
272270	43.9159
273842	43.9176
275423	43.9193
277013	43.9211
278612	43.9228
280221	43.9246
281838	43.9263
283465	43.9281
285102	43.93
286748	43.9318
288403	43.9336
290068	43.9355
291743	43.9374
293427	43.9393
295121	43.9412
296825	43.9432
298538	43.9451
300262	43.9471
301995	43.949
303739	43.951
305492	43.953
307256	43.955
309030	43.9571
310814	43.9591
312608	43.9612
314413	43.9632
316228	43.9653
318053	43.9674
319890	43.9695
321736	43.9716
323594	43.9737
325462	43.9759
327341	43.978
329230	43.9802
331131	43.9823
333043	43.9845
334965	43.9867
336899	43.9889
338844	43.9911
340800	43.9933
342768	43.9955
344747	43.9977
346737	43.9999
348739	44.0021
350752	44.0044
352777	44.0066
354813	44.0089
356862	44.0111
358922	44.0134
360994	44.0156
363078	44.0179
365174	44.0202
367282	44.0225
369403	44.0247
371535	44.027
373680	44.0293
375837	44.0316
378007	44.0339
380189	44.0362
382384	44.0385
384592	44.0408
386812	44.0431
389045	44.0454
391291	44.0477
393550	44.0501
395822	44.0524
398107	44.0547
400405	44.057
402717	44.0593
405042	44.0616
407380	44.064
409732	44.0663
412098	44.0686
414477	44.0709
416869	44.0732
419276	44.0756
421697	44.0779
424131	44.0802
426580	44.0825
429042	44.0848
431519	44.0871
434010	44.0894
436516	44.0917
439036	44.0941
441570	44.0964
444120	44.0987
446684	44.101
449262	44.1033
451856	44.1056
454465	44.1078
457088	44.1101
459727	44.1124
462381	44.1147
465050	44.117
467735	44.1193
470435	44.1215
473151	44.1238
475883	44.1261
478630	44.1283
481393	44.1306
484172	44.1328
486968	44.1351
489779	44.1373
492606	44.1395
495450	44.1418
498310	44.144
501187	44.1462
504081	44.1484
506991	44.1506
509918	44.1528
512861	44.155
515822	44.1572
518800	44.1594
521795	44.1616
524807	44.1638
527837	44.1659
530884	44.1681
533949	44.1702
537032	44.1724
540132	44.1745
543250	44.1767
546387	44.1788
549541	44.1809
552713	44.183
555904	44.1851
559114	44.1872
562341	44.1893
565588	44.1914
568853	44.1935
572137	44.1955
575440	44.1976
578762	44.1996
582103	44.2017
585464	44.2037
588844	44.2058
592243	44.2078
595662	44.2098
599101	44.2118
602560	44.2138
606038	44.2158
609537	44.2177
613056	44.2197
616595	44.2217
620155	44.2236
623735	44.2256
627336	44.2275
630957	44.2294
634600	44.2313
638263	44.2333
641948	44.2351
645654	44.237
649382	44.2389
653131	44.2408
656901	44.2426
660693	44.2445
664508	44.2463
668344	44.2482
672202	44.25
676083	44.2518
679986	44.2536
683912	44.2554
687860	44.2572
691831	44.259
695825	44.2607
699842	44.2625
703882	44.2642
707946	44.266
712033	44.2677
716143	44.2694
720278	44.2711
724436	44.2728
728618	44.2745
732825	44.2762
737055	44.2778
741310	44.2795
745590	44.2811
749894	44.2828
754223	44.2844
758578	44.286
762957	44.2876
767361	44.2892
771792	44.2908
776247	44.2923
780728	44.2939
785236	44.2955
789769	44.297
794328	44.2985
798914	44.3001
803526	44.3016
808165	44.3031
812831	44.3045
817523	44.306
822243	44.3075
826990	44.309
831764	44.3104
836566	44.3118
841395	44.3133
846253	44.3147
851138	44.3161
856052	44.3175
860994	44.3189
865964	44.3202
870964	44.3216
875992	44.3229
881049	44.3243
886135	44.3256
891251	44.3269
896396	44.3282
901571	44.3295
906776	44.3308
912011	44.3321
917276	44.3334
922571	44.3346
927897	44.3359
933254	44.3371
938642	44.3383
944061	44.3395
949511	44.3407
954993	44.3419
960506	44.3431
966051	44.3443
971628	44.3454
977237	44.3466
982879	44.3477
988553	44.3489
994260	44.35
1e+06	44.3511
1.00577e+06	44.3522
1.01158e+06	44.3533
1.01742e+06	44.3544
1.02329e+06	44.3554
1.0292e+06	44.3565
1.03514e+06	44.3575
1.04112e+06	44.3586
1.04713e+06	44.3596
1.05317e+06	44.3606
1.05925e+06	44.3616
1.06537e+06	44.3626
1.07152e+06	44.3636
1.07771e+06	44.3646
1.08393e+06	44.3655
1.09018e+06	44.3665
1.09648e+06	44.3674
1.10281e+06	44.3684
1.10917e+06	44.3693
1.11558e+06	44.3702
1.12202e+06	44.3711
1.1285e+06	44.372
1.13501e+06	44.3729
1.14156e+06	44.3737
1.14815e+06	44.3746
1.15478e+06	44.3755
1.16145e+06	44.3763
1.16815e+06	44.3771
1.1749e+06	44.378
1.18168e+06	44.3788
1.1885e+06	44.3796
1.19536e+06	44.3804
1.20226e+06	44.3812
1.20921e+06	44.3819
1.21619e+06	44.3827
1.22321e+06	44.3835
1.23027e+06	44.3842
1.23737e+06	44.385
1.24451e+06	44.3857
1.2517e+06	44.3864
1.25893e+06	44.3871
1.26619e+06	44.3878
1.2735e+06	44.3885
1.28086e+06	44.3892
1.28825e+06	44.3899
1.29569e+06	44.3905
1.30317e+06	44.3912
1.31069e+06	44.3918
1.31826e+06	44.3925
1.32587e+06	44.3931
1.33352e+06	44.3937
1.34122e+06	44.3943
1.34896e+06	44.3949
1.35675e+06	44.3955
1.36458e+06	44.3961
1.37246e+06	44.3967
1.38038e+06	44.3972
1.38835e+06	44.3978
1.39637e+06	44.3983
1.40443e+06	44.3989
1.41254e+06	44.3994
1.42069e+06	44.3999
1.42889e+06	44.4004
1.43714e+06	44.401
1.44544e+06	44.4014
1.45378e+06	44.4019
1.46218e+06	44.4024
1.47062e+06	44.4029
1.47911e+06	44.4034
1.48765e+06	44.4038
1.49624e+06	44.4043
1.50487e+06	44.4047
1.51356e+06	44.4051
1.5223e+06	44.4056
1.53109e+06	44.406
1.53993e+06	44.4064
1.54882e+06	44.4068
1.55776e+06	44.4072
1.56675e+06	44.4076
1.5758e+06	44.4079
1.58489e+06	44.4083
1.59404e+06	44.4087
1.60325e+06	44.409
1.6125e+06	44.4094
1.62181e+06	44.4097
1.63117e+06	44.4101
1.64059e+06	44.4104
1.65006e+06	44.4107
1.65959e+06	44.411
1.66917e+06	44.4113
1.6788e+06	44.4116
1.6885e+06	44.4119
1.69824e+06	44.4122
1.70805e+06	44.4125
1.71791e+06	44.4128
1.72783e+06	44.413
1.7378e+06	44.4133
1.74783e+06	44.4135
1.75792e+06	44.4138
1.76807e+06	44.414
1.77828e+06	44.4142
1.78855e+06	44.4145
1.79887e+06	44.4147
1.80926e+06	44.4149
1.8197e+06	44.4151
1.83021e+06	44.4153
1.84077e+06	44.4155
1.8514e+06	44.4157
1.86209e+06	44.4159
1.87284e+06	44.4161
1.88365e+06	44.4162
1.89452e+06	44.4164
1.90546e+06	44.4166
1.91646e+06	44.4167
1.92752e+06	44.4169
1.93865e+06	44.417
1.94984e+06	44.4171
1.9611e+06	44.4173
1.97242e+06	44.4174
1.98381e+06	44.4175
1.99526e+06	44.4176
2.00678e+06	44.4177
2.01837e+06	44.4179
2.03002e+06	44.418
2.04174e+06	44.418
2.05353e+06	44.4181
2.06538e+06	44.4182
2.0773e+06	44.4183
2.0893e+06	44.4184
2.10136e+06	44.4185
2.11349e+06	44.4185
2.12569e+06	44.4186
2.13796e+06	44.4187
2.1503e+06	44.4187
2.16272e+06	44.4188
2.1752e+06	44.4188
2.18776e+06	44.4188
2.20039e+06	44.4189
2.21309e+06	44.4189
2.22587e+06	44.4189
2.23872e+06	44.419
2.25165e+06	44.419
2.26464e+06	44.419
2.27772e+06	44.419
2.29087e+06	44.419
2.30409e+06	44.4191
2.31739e+06	44.4191
2.33077e+06	44.4191
2.34423e+06	44.4191
2.35776e+06	44.419
2.37137e+06	44.419
2.38506e+06	44.419
2.39883e+06	44.419
2.41268e+06	44.419
2.42661e+06	44.419
2.44062e+06	44.419
2.45471e+06	44.4189
2.46888e+06	44.4189
2.48313e+06	44.4189
2.49747e+06	44.4188
2.51189e+06	44.4188
2.52639e+06	44.4188
2.54097e+06	44.4187
2.55564e+06	44.4187
2.5704e+06	44.4186
2.58523e+06	44.4186
2.60016e+06	44.4185
2.61517e+06	44.4185
2.63027e+06	44.4184
2.64545e+06	44.4184
2.66073e+06	44.4183
2.67609e+06	44.4182
2.69153e+06	44.4182
2.70707e+06	44.4181
2.7227e+06	44.4181
2.73842e+06	44.418
2.75423e+06	44.4179
2.77013e+06	44.4179
2.78612e+06	44.4178
2.80221e+06	44.4177
2.81838e+06	44.4176
2.83465e+06	44.4176
2.85102e+06	44.4175
2.86748e+06	44.4174
2.88403e+06	44.4173
2.90068e+06	44.4173
2.91743e+06	44.4172
2.93427e+06	44.4171
2.95121e+06	44.417
2.96825e+06	44.417
2.98538e+06	44.4169
3.00262e+06	44.4168
3.01995e+06	44.4167
3.03739e+06	44.4166
3.05492e+06	44.4166
3.07256e+06	44.4165
3.0903e+06	44.4164
3.10814e+06	44.4163
3.12608e+06	44.4163
3.14413e+06	44.4162
3.16228e+06	44.4161
3.18053e+06	44.416
3.1989e+06	44.4159
3.21736e+06	44.4159
3.23594e+06	44.4158
3.25462e+06	44.4157
3.27341e+06	44.4156
3.2923e+06	44.4156
3.31131e+06	44.4155
3.33043e+06	44.4154
3.34965e+06	44.4154
3.36899e+06	44.4153
3.38844e+06	44.4152
3.408e+06	44.4151
3.42768e+06	44.4151
3.44747e+06	44.415
3.46737e+06	44.4149
3.48739e+06	44.4149
3.50752e+06	44.4148
3.52777e+06	44.4147
3.54813e+06	44.4147
3.56862e+06	44.4146
3.58922e+06	44.4145
3.60994e+06	44.4145
3.63078e+06	44.4144
3.65174e+06	44.4144
3.67282e+06	44.4143
3.69403e+06	44.4142
3.71535e+06	44.4142
3.7368e+06	44.4141
3.75837e+06	44.4141
3.78007e+06	44.414
3.80189e+06	44.4139
3.82384e+06	44.4139
3.84592e+06	44.4138
3.86812e+06	44.4138
3.89045e+06	44.4137
3.91291e+06	44.4137
3.9355e+06	44.4136
3.95822e+06	44.4135
3.98107e+06	44.4135
4.00405e+06	44.4134
4.02717e+06	44.4134
4.05042e+06	44.4133
4.0738e+06	44.4133
4.09732e+06	44.4132
4.12098e+06	44.4132
4.14477e+06	44.4131
4.16869e+06	44.4131
4.19276e+06	44.413
4.21697e+06	44.413
4.24131e+06	44.4129
4.2658e+06	44.4129
4.29042e+06	44.4128
4.31519e+06	44.4128
4.3401e+06	44.4127
4.36516e+06	44.4127
4.39036e+06	44.4126
4.4157e+06	44.4126
4.4412e+06	44.4125
4.46684e+06	44.4125
4.49262e+06	44.4124
4.51856e+06	44.4124
4.54465e+06	44.4124
4.57088e+06	44.4123
4.59727e+06	44.4123
4.62381e+06	44.4122
4.6505e+06	44.4122
4.67735e+06	44.4121
4.70435e+06	44.4121
4.73151e+06	44.4121
4.75883e+06	44.412
4.7863e+06	44.412
4.81393e+06	44.4119
4.84172e+06	44.4119
4.86968e+06	44.4118
4.89779e+06	44.4118
4.92606e+06	44.4118
4.9545e+06	44.4117
4.9831e+06	44.4117
5.01187e+06	44.4117
5.04081e+06	44.4116
5.06991e+06	44.4116
5.09918e+06	44.4115
5.12861e+06	44.4115
5.15822e+06	44.4115
5.188e+06	44.4114
5.21795e+06	44.4114
5.24807e+06	44.4114
5.27837e+06	44.4113
5.30884e+06	44.4113
5.33949e+06	44.4112
5.37032e+06	44.4112
5.40132e+06	44.4112
5.4325e+06	44.4111
5.46387e+06	44.4111
5.49541e+06	44.4111
5.52713e+06	44.411
5.55904e+06	44.411
5.59114e+06	44.411
5.62341e+06	44.4109
5.65588e+06	44.4109
5.68853e+06	44.4109
5.72137e+06	44.4108
5.7544e+06	44.4108
5.78762e+06	44.4108
5.82103e+06	44.4108
5.85464e+06	44.4107
5.88844e+06	44.4107
5.92243e+06	44.4107
5.95662e+06	44.4106
5.99101e+06	44.4106
6.0256e+06	44.4106
6.06038e+06	44.4105
6.09537e+06	44.4105
6.13056e+06	44.4105
6.16595e+06	44.4105
6.20155e+06	44.4104
6.23735e+06	44.4104
6.27336e+06	44.4104
6.30957e+06	44.4103
6.346e+06	44.4103
6.38263e+06	44.4103
6.41948e+06	44.4103
6.45654e+06	44.4102
6.49382e+06	44.4102
6.53131e+06	44.4102
6.56901e+06	44.4102
6.60693e+06	44.4101
6.64508e+06	44.4101
6.68344e+06	44.4101
6.72202e+06	44.41
6.76083e+06	44.41
6.79986e+06	44.41
6.83912e+06	44.41
6.8786e+06	44.4099
6.91831e+06	44.4099
6.95825e+06	44.4099
6.99842e+06	44.4099
7.03882e+06	44.4099
7.07946e+06	44.4098
7.12033e+06	44.4098
7.16143e+06	44.4098
7.20278e+06	44.4098
7.24436e+06	44.4097
7.28618e+06	44.4097
7.32825e+06	44.4097
7.37055e+06	44.4097
7.4131e+06	44.4096
7.4559e+06	44.4096
7.49894e+06	44.4096
7.54223e+06	44.4096
7.58578e+06	44.4096
7.62957e+06	44.4095
7.67361e+06	44.4095
7.71792e+06	44.4095
7.76247e+06	44.4095
7.80728e+06	44.4095
7.85236e+06	44.4094
7.89769e+06	44.4094
7.94328e+06	44.4094
7.98914e+06	44.4094
8.03526e+06	44.4094
8.08165e+06	44.4093
8.12831e+06	44.4093
8.17523e+06	44.4093
8.22243e+06	44.4093
8.2699e+06	44.4093
8.31764e+06	44.4092
8.36566e+06	44.4092
8.41395e+06	44.4092
8.46253e+06	44.4092
8.51138e+06	44.4092
8.56052e+06	44.4091
8.60994e+06	44.4091
8.65964e+06	44.4091
8.70964e+06	44.4091
8.75992e+06	44.4091
8.81049e+06	44.4091
8.86135e+06	44.409
8.91251e+06	44.409
8.96396e+06	44.409
9.01571e+06	44.409
9.06776e+06	44.409
9.12011e+06	44.409
9.17276e+06	44.4089
9.22571e+06	44.4089
9.27897e+06	44.4089
9.33254e+06	44.4089
9.38642e+06	44.4089
9.44061e+06	44.4089
9.49511e+06	44.4088
9.54993e+06	44.4088
9.60506e+06	44.4088
9.66051e+06	44.4088
9.71628e+06	44.4088
9.77237e+06	44.4088
9.82879e+06	44.4087
9.88553e+06	44.4087
9.9426e+06	44.4087
1e+07	44.4087
