Stopping power dEdx from Ionisation for S32[0.0] Z = 16 in G4_TISSUE_SOFT_ICRP, process name: ionIoni
E [MeV]	dEdx [MeV/mm]
0.001	61.2606
0.00100577	61.4372
0.00101158	61.6143
0.00101742	61.7919
0.00102329	61.97
0.0010292	62.1486
0.00103514	62.3277
0.00104112	62.5074
0.00104713	62.6875
0.00105317	62.8682
0.00105925	63.0494
0.00106537	63.2312
0.00107152	63.4134
0.00107771	63.5962
0.00108393	63.7795
0.00109018	63.9634
0.00109648	64.1477
0.00110281	64.3326
0.00110917	64.5181
0.00111558	64.704
0.00112202	64.8905
0.0011285	65.0776
0.00113501	65.2651
0.00114156	65.4533
0.00114815	65.6419
0.00115478	65.8311
0.00116145	66.0209
0.00116815	66.2112
0.0011749	66.402
0.00118168	66.5934
0.0011885	66.7854
0.00119536	66.9779
0.00120226	67.1709
0.00120921	67.3645
0.00121619	67.5587
0.00122321	67.7534
0.00123027	67.9487
0.00123737	68.1446
0.00124451	68.341
0.0012517	68.538
0.00125893	68.7355
0.00126619	68.9337
0.0012735	69.1323
0.00128086	69.3316
0.00128825	69.5314
0.00129569	69.7319
0.00130317	69.9329
0.00131069	70.1344
0.00131826	70.3366
0.00132587	70.5393
0.00133352	70.7426
0.00134122	70.9466
0.00134896	71.151
0.00135675	71.3561
0.00136458	71.5618
0.00137246	71.7681
0.00138038	71.9749
0.00138835	72.1824
0.00139637	72.3905
0.00140443	72.5991
0.00141254	72.8084
0.00142069	73.0182
0.00142889	73.2287
0.00143714	73.4398
0.00144544	73.6514
0.00145378	73.8637
0.00146218	74.0766
0.00147062	74.2902
0.00147911	74.5043
0.00148765	74.719
0.00149624	74.9344
0.00150487	75.1504
0.00151356	75.367
0.0015223	75.5842
0.00153109	75.8021
0.00153993	76.0206
0.00154882	76.2397
0.00155776	76.4595
0.00156675	76.6799
0.0015758	76.9009
0.00158489	77.1225
0.00159404	77.3448
0.00160325	77.5678
0.0016125	77.7913
0.00162181	78.0156
0.00163117	78.2404
0.00164059	78.466
0.00165006	78.6921
0.00165959	78.9189
0.00166917	79.1464
0.0016788	79.3746
0.0016885	79.6033
0.00169824	79.8328
0.00170805	80.0629
0.00171791	80.2937
0.00172783	80.5251
0.0017378	80.7572
0.00174783	80.99
0.00175792	81.2234
0.00176807	81.4575
0.00177828	81.6923
0.00178855	81.9278
0.00179887	82.1639
0.00180926	82.4008
0.0018197	82.6383
0.00183021	82.8765
0.00184077	83.1154
0.0018514	83.3549
0.00186209	83.5952
0.00187284	83.8361
0.00188365	84.0778
0.00189452	84.3201
0.00190546	84.5632
0.00191646	84.8069
0.00192752	85.0514
0.00193865	85.2965
0.00194984	85.5424
0.0019611	85.7889
0.00197242	86.0362
0.00198381	86.2842
0.00199526	86.5329
0.00200678	86.7823
0.00201837	87.0325
0.00203002	87.2833
0.00204174	87.5349
0.00205353	87.7872
0.00206538	88.0403
0.0020773	88.294
0.0020893	88.5485
0.00210136	88.8037
0.00211349	89.0597
0.00212569	89.3164
0.00213796	89.5739
0.0021503	89.832
0.00216272	90.091
0.0021752	90.3507
0.00218776	90.6111
0.00220039	90.8723
0.00221309	91.1342
0.00222587	91.3969
0.00223872	91.6603
0.00225165	91.9245
0.00226464	92.1895
0.00227772	92.4552
0.00229087	92.7217
0.00230409	92.9889
0.00231739	93.257
0.00233077	93.5258
0.00234423	93.7953
0.00235776	94.0657
0.00237137	94.3368
0.00238506	94.6087
0.00239883	94.8814
0.00241268	95.1549
0.00242661	95.4292
0.00244062	95.7043
0.00245471	95.9801
0.00246888	96.2568
0.00248313	96.5342
0.00249747	96.8125
0.00251189	97.0915
0.00252639	97.3714
0.00254097	97.652
0.00255564	97.9335
0.0025704	98.2158
0.00258523	98.4989
0.00260016	98.7828
0.00261517	99.0675
0.00263027	99.3531
0.00264545	99.6394
0.00266073	99.9266
0.00267609	100.215
0.00269153	100.504
0.00270707	100.793
0.0027227	101.084
0.00273842	101.375
0.00275423	101.667
0.00277013	101.96
0.00278612	102.254
0.00280221	102.549
0.00281838	102.845
0.00283465	103.141
0.00285102	103.438
0.00286748	103.736
0.00288403	104.035
0.00290068	104.335
0.00291743	104.636
0.00293427	104.938
0.00295121	105.24
0.00296825	105.543
0.00298538	105.848
0.00300262	106.153
0.00301995	106.459
0.00303739	106.766
0.00305492	107.073
0.00307256	107.382
0.0030903	107.691
0.00310814	108.002
0.00312608	108.313
0.00314413	108.625
0.00316228	108.938
0.00318053	109.252
0.0031989	109.567
0.00321736	109.883
0.00323594	110.2
0.00325462	110.518
0.00327341	110.836
0.0032923	111.156
0.00331131	111.476
0.00333043	111.797
0.00334965	112.12
0.00336899	112.443
0.00338844	112.767
0.003408	113.092
0.00342768	113.418
0.00344747	113.745
0.00346737	114.073
0.00348739	114.401
0.00350752	114.731
0.00352777	115.062
0.00354813	115.393
0.00356862	115.726
0.00358922	116.06
0.00360994	116.394
0.00363078	116.73
0.00365174	117.066
0.00367282	117.404
0.00369403	117.742
0.00371535	118.081
0.0037368	118.422
0.00375837	118.763
0.00378007	119.105
0.00380189	119.449
0.00382384	119.793
0.00384592	120.138
0.00386812	120.485
0.00389045	120.832
0.00391291	121.18
0.0039355	121.529
0.00395822	121.88
0.00398107	122.231
0.00400405	122.583
0.00402717	122.937
0.00405042	123.291
0.0040738	123.646
0.00409732	124.003
0.00412098	124.36
0.00414477	124.719
0.00416869	125.078
0.00419276	125.439
0.00421697	125.8
0.00424131	126.163
0.0042658	126.526
0.00429042	126.891
0.00431519	127.257
0.0043401	127.624
0.00436516	127.992
0.00439036	128.36
0.0044157	128.73
0.0044412	129.101
0.00446684	129.474
0.00449262	129.847
0.00451856	130.221
0.00454465	130.596
0.00457088	130.973
0.00459727	131.35
0.00462381	131.729
0.0046505	132.109
0.00467735	132.489
0.00470435	132.871
0.00473151	133.254
0.00475883	133.638
0.0047863	134.024
0.00481393	134.41
0.00484172	134.797
0.00486968	135.186
0.00489779	135.576
0.00492606	135.966
0.0049545	136.358
0.0049831	136.751
0.00501187	137.145
0.00504081	137.541
0.00506991	137.937
0.00509918	138.335
0.00512861	138.733
0.00515822	139.133
0.005188	139.534
0.00521795	139.937
0.00524807	140.34
0.00527837	140.744
0.00530884	141.15
0.00533949	141.557
0.00537032	141.965
0.00540132	142.374
0.0054325	142.785
0.00546387	143.196
0.00549541	143.609
0.00552713	144.023
0.00555904	144.438
0.00559114	144.854
0.00562341	145.272
0.00565588	145.691
0.00568853	146.11
0.00572137	146.532
0.0057544	146.954
0.00578762	147.378
0.00582103	147.802
0.00585464	148.228
0.00588844	148.656
0.00592243	149.084
0.00595662	149.514
0.00599101	149.945
0.0060256	150.377
0.00606038	150.81
0.00609537	151.245
0.00613056	151.681
0.00616595	152.118
0.00620155	152.557
0.00623735	152.996
0.00627336	153.437
0.00630957	153.88
0.006346	154.323
0.00638263	154.768
0.00641948	155.214
0.00645654	155.662
0.00649382	156.11
0.00653131	156.56
0.00656901	157.011
0.00660693	157.464
0.00664508	157.918
0.00668344	158.373
0.00672202	158.83
0.00676083	159.287
0.00679986	159.746
0.00683912	160.207
0.0068786	160.669
0.00691831	161.132
0.00695825	161.596
0.00699842	162.062
0.00703882	162.529
0.00707946	162.998
0.00712033	163.467
0.00716143	163.939
0.00720278	164.411
0.00724436	164.885
0.00728618	165.36
0.00732825	165.837
0.00737055	166.315
0.0074131	166.794
0.0074559	167.275
0.00749894	167.757
0.00754223	168.241
0.00758578	168.726
0.00762957	169.212
0.00767361	169.7
0.00771792	170.189
0.00776247	170.679
0.00780728	171.171
0.00785236	171.665
0.00789769	172.16
0.00794328	172.656
0.00798914	173.153
0.00803526	173.64
0.00808165	174.129
0.00812831	174.618
0.00817523	175.11
0.00822243	175.602
0.0082699	176.096
0.00831764	176.592
0.00836566	177.089
0.00841395	177.587
0.00846253	178.087
0.00851138	178.588
0.00856052	179.091
0.00860994	179.595
0.00865964	180.1
0.00870964	180.607
0.00875992	181.116
0.00881049	181.626
0.00886135	182.137
0.00891251	182.65
0.00896396	183.164
0.00901571	183.68
0.00906776	184.198
0.00912011	184.716
0.00917276	185.237
0.00922571	185.759
0.00927897	186.282
0.00933254	186.807
0.00938642	187.333
0.00944061	187.861
0.00949511	188.39
0.00954993	188.921
0.00960506	189.454
0.00966051	189.988
0.00971628	190.523
0.00977237	191.06
0.00982879	191.599
0.00988553	192.139
0.0099426	192.681
0.01	193.224
0.0100577	193.769
0.0101158	194.315
0.0101742	194.863
0.0102329	195.413
0.010292	195.964
0.0103514	196.517
0.0104112	197.071
0.0104713	197.627
0.0105317	198.184
0.0105925	198.744
0.0106537	199.304
0.0107152	199.867
0.0107771	200.431
0.0108393	200.996
0.0109018	201.564
0.0109648	202.133
0.0110281	202.703
0.0110917	203.275
0.0111558	203.849
0.0112202	204.425
0.011285	205.002
0.0113501	205.581
0.0114156	206.161
0.0114815	206.744
0.0115478	207.328
0.0116145	207.913
0.0116815	208.5
0.011749	209.089
0.0118168	209.68
0.011885	210.272
0.0119536	210.867
0.0120226	211.462
0.0120921	212.06
0.0121619	212.659
0.0122321	213.26
0.0123027	213.863
0.0123737	214.467
0.0124451	215.074
0.012517	215.682
0.0125893	216.291
0.0126619	216.903
0.012735	217.516
0.0128086	218.131
0.0128825	218.748
0.0129569	219.367
0.0130317	219.987
0.0131069	220.609
0.0131826	221.233
0.0132587	221.859
0.0133352	222.487
0.0134122	223.116
0.0134896	223.747
0.0135675	224.38
0.0136458	225.015
0.0137246	225.652
0.0138038	226.291
0.0138835	226.931
0.0139637	227.573
0.0140443	228.218
0.0141254	228.864
0.0142069	229.512
0.0142889	230.161
0.0143714	230.813
0.0144544	231.467
0.0145378	232.122
0.0146218	232.78
0.0147062	233.439
0.0147911	234.1
0.0148765	234.763
0.0149624	235.428
0.0150487	236.095
0.0151356	236.764
0.015223	237.435
0.0153109	238.108
0.0153993	238.782
0.0154882	239.459
0.0155776	240.138
0.0156675	240.818
0.015758	241.501
0.0158489	242.185
0.0159404	242.872
0.0160325	243.56
0.016125	244.251
0.0162181	244.944
0.0163117	245.638
0.0164059	246.335
0.0165006	247.033
0.0165959	247.734
0.0166917	248.437
0.016788	249.141
0.016885	249.848
0.0169824	250.557
0.0170805	251.268
0.0171791	251.981
0.0172783	252.696
0.017378	253.413
0.0174783	254.132
0.0175792	254.853
0.0176807	255.577
0.0177828	256.302
0.0178855	257.03
0.0179887	257.759
0.0180926	258.491
0.018197	259.225
0.0183021	259.961
0.0184077	260.699
0.018514	261.44
0.0186209	262.182
0.0187284	262.927
0.0188365	263.674
0.0189452	264.423
0.0190546	265.174
0.0191646	265.927
0.0192752	266.683
0.0193865	267.44
0.0194984	268.2
0.019611	268.963
0.0197242	269.727
0.0198381	270.494
0.0199526	271.262
0.0200678	272.034
0.0201837	272.807
0.0203002	273.582
0.0204174	274.36
0.0205353	275.14
0.0206538	275.923
0.020773	276.707
0.020893	277.494
0.0210136	278.284
0.0211349	279.075
0.0212569	279.869
0.0213796	280.665
0.021503	281.464
0.0216272	282.264
0.021752	283.068
0.0218776	283.873
0.0220039	284.681
0.0221309	285.491
0.0222587	286.304
0.0223872	287.119
0.0225165	287.936
0.0226464	288.755
0.0227772	289.578
0.0229087	290.402
0.0230409	291.229
0.0231739	292.058
0.0233077	292.89
0.0234423	293.724
0.0235776	294.56
0.0237137	295.399
0.0238506	296.241
0.0239883	297.085
0.0241268	297.931
0.0242661	298.78
0.0244062	299.631
0.0245471	300.485
0.0246888	301.341
0.0248313	302.2
0.0249747	303.061
0.0251189	303.925
0.0252639	304.792
0.0254097	305.66
0.0255564	306.532
0.025704	307.406
0.0258523	308.282
0.0260016	309.161
0.0261517	310.043
0.0263027	310.927
0.0264545	311.814
0.0266073	312.703
0.0267609	313.595
0.0269153	314.49
0.0270707	315.387
0.027227	316.287
0.0273842	317.189
0.0275423	318.094
0.0277013	319.002
0.0278612	319.912
0.0280221	320.825
0.0281838	321.741
0.0283465	322.66
0.0285102	323.581
0.0286748	324.504
0.0288403	325.431
0.0290068	326.36
0.0291743	327.292
0.0293427	328.227
0.0295121	329.164
0.0296825	330.104
0.0298538	331.047
0.0300262	331.992
0.0301995	332.941
0.0303739	333.892
0.0305492	334.846
0.0307256	335.803
0.030903	336.762
0.0310814	337.724
0.0312608	338.69
0.0314413	339.658
0.0316228	340.628
0.0318053	341.602
0.031989	342.474
0.0321736	342.701
0.0323594	342.93
0.0325462	343.162
0.0327341	343.396
0.032923	343.633
0.0331131	343.872
0.0333043	344.113
0.0334965	344.356
0.0336899	344.602
0.0338844	344.85
0.03408	345.1
0.0342768	345.353
0.0344747	345.607
0.0346737	345.864
0.0348739	346.122
0.0350752	346.383
0.0352777	346.645
0.0354813	346.91
0.0356862	347.177
0.0358922	347.445
0.0360994	347.716
0.0363078	347.988
0.0365174	348.263
0.0367282	348.539
0.0369403	348.817
0.0371535	349.096
0.037368	349.378
0.0375837	349.661
0.0378007	349.946
0.0380189	350.233
0.0382384	350.522
0.0384592	350.812
0.0386812	351.104
0.0389045	351.397
0.0391291	351.692
0.039355	351.989
0.0395822	352.287
0.0398107	352.587
0.0400405	352.889
0.0402717	353.192
0.0405042	353.496
0.040738	353.803
0.0409732	354.11
0.0412098	354.419
0.0414477	354.73
0.0416869	355.042
0.0419276	355.355
0.0421697	355.67
0.0424131	355.986
0.042658	356.304
0.0429042	356.623
0.0431519	356.944
0.043401	357.266
0.0436516	357.589
0.0439036	357.914
0.044157	358.239
0.044412	358.567
0.0446684	358.895
0.0449262	359.225
0.0451856	359.557
0.0454465	359.889
0.0457088	360.223
0.0459727	360.558
0.0462381	360.894
0.046505	361.232
0.0467735	361.571
0.0470435	361.911
0.0473151	362.253
0.0475883	362.595
0.047863	362.939
0.0481393	363.284
0.0484172	363.631
0.0486968	363.978
0.0489779	364.327
0.0492606	364.677
0.049545	365.028
0.049831	365.381
0.0501187	365.734
0.0504081	366.089
0.0506991	366.445
0.0509918	366.802
0.0512861	367.16
0.0515822	367.52
0.05188	367.881
0.0521795	368.243
0.0524807	368.606
0.0527837	368.97
0.0530884	369.335
0.0533949	369.702
0.0537032	370.069
0.0540132	370.438
0.054325	370.808
0.0546387	371.179
0.0549541	371.552
0.0552713	371.925
0.0555904	372.3
0.0559114	372.676
0.0562341	373.053
0.0565588	373.431
0.0568853	373.81
0.0572137	374.191
0.057544	374.572
0.0578762	374.955
0.0582103	375.339
0.0585464	375.724
0.0588844	376.111
0.0592243	376.498
0.0595662	376.887
0.0599101	377.277
0.060256	377.668
0.0606038	378.06
0.0609537	378.453
0.0613056	378.848
0.0616595	379.244
0.0620155	379.641
0.0623735	380.039
0.0627336	380.438
0.0630957	380.839
0.06346	381.24
0.0638263	381.643
0.0641948	382.047
0.0645654	382.453
0.0649382	382.859
0.0653131	383.267
0.0656901	383.676
0.0660693	384.086
0.0664508	384.498
0.0668344	384.911
0.0672202	385.325
0.0676083	385.74
0.0679986	386.157
0.0683912	386.574
0.068786	386.993
0.0691831	387.414
0.0695825	387.835
0.0699842	388.258
0.0703882	388.683
0.0707946	389.108
0.0712033	389.535
0.0716143	389.963
0.0720278	390.392
0.0724436	390.823
0.0728618	391.255
0.0732825	391.689
0.0737055	392.123
0.074131	392.56
0.074559	392.997
0.0749894	393.436
0.0754223	393.876
0.0758578	394.318
0.0762957	394.761
0.0767361	395.205
0.0771792	395.651
0.0776247	396.098
0.0780728	396.547
0.0785236	396.997
0.0789769	397.448
0.0794328	397.901
0.0798914	398.355
0.0803526	398.811
0.0808165	399.268
0.0812831	399.727
0.0817523	400.187
0.0822243	400.649
0.082699	401.112
0.0831764	401.577
0.0836566	402.043
0.0841395	402.511
0.0846253	402.98
0.0851138	403.451
0.0856052	403.923
0.0860994	404.397
0.0865964	404.872
0.0870964	405.349
0.0875992	405.828
0.0881049	406.308
0.0886135	406.79
0.0891251	407.273
0.0896396	407.758
0.0901571	408.245
0.0906776	408.733
0.0912011	409.223
0.0917276	409.715
0.0922571	410.208
0.0927897	410.703
0.0933254	411.199
0.0938642	411.698
0.0944061	412.198
0.0949511	412.699
0.0954993	413.203
0.0960506	413.708
0.0966051	414.215
0.0971628	414.724
0.0977237	415.234
0.0982879	415.746
0.0988553	416.26
0.099426	416.776
0.1	417.293
0.100577	417.813
0.101158	418.334
0.101742	418.857
0.102329	419.382
0.10292	419.909
0.103514	420.437
0.104112	420.968
0.104713	421.5
0.105317	422.034
0.105925	422.57
0.106537	423.108
0.107152	423.648
0.107771	424.19
0.108393	424.734
0.109018	425.28
0.109648	425.827
0.110281	426.377
0.110917	426.929
0.111558	427.482
0.112202	428.038
0.11285	428.596
0.113501	429.156
0.114156	429.717
0.114815	430.281
0.115478	430.847
0.116145	431.415
0.116815	431.985
0.11749	432.557
0.118168	433.131
0.11885	433.708
0.119536	434.286
0.120226	434.867
0.120921	435.45
0.121619	436.034
0.122321	436.621
0.123027	437.211
0.123737	437.802
0.124451	438.396
0.12517	438.992
0.125893	439.59
0.126619	440.19
0.12735	440.792
0.128086	441.397
0.128825	442.004
0.129569	442.613
0.130317	443.225
0.131069	443.839
0.131826	444.455
0.132587	445.074
0.133352	445.694
0.134122	446.318
0.134896	446.943
0.135675	447.571
0.136458	448.201
0.137246	448.834
0.138038	449.469
0.138835	450.106
0.139637	450.746
0.140443	451.388
0.141254	452.033
0.142069	452.68
0.142889	453.33
0.143714	453.982
0.144544	454.636
0.145378	455.294
0.146218	455.953
0.147062	456.615
0.147911	457.28
0.148765	457.947
0.149624	458.616
0.150487	459.289
0.151356	459.963
0.15223	460.641
0.153109	461.321
0.153993	462.003
0.154882	462.689
0.155776	463.376
0.156675	464.067
0.15758	464.76
0.158489	465.455
0.159404	466.154
0.160325	466.855
0.16125	467.559
0.162181	468.265
0.163117	468.974
0.164059	469.686
0.165006	470.401
0.165959	471.118
0.166917	471.838
0.16788	472.561
0.16885	473.287
0.169824	474.015
0.170805	474.746
0.171791	475.48
0.172783	476.217
0.17378	476.957
0.174783	477.699
0.175792	478.444
0.176807	479.193
0.177828	479.944
0.178855	480.698
0.179887	481.454
0.180926	482.214
0.18197	482.977
0.183021	483.742
0.184077	484.511
0.18514	485.282
0.186209	486.057
0.187284	486.834
0.188365	487.614
0.189452	488.397
0.190546	489.184
0.191646	489.973
0.192752	490.765
0.193865	491.561
0.194984	492.359
0.19611	493.161
0.197242	493.965
0.198381	494.773
0.199526	495.583
0.200678	496.397
0.201837	497.214
0.203002	498.034
0.204174	498.857
0.205353	499.683
0.206538	500.512
0.20773	501.345
0.20893	502.18
0.210136	503.019
0.211349	503.861
0.212569	504.706
0.213796	505.555
0.21503	506.406
0.216272	507.261
0.21752	508.119
0.218776	508.98
0.220039	509.845
0.221309	510.713
0.222587	511.584
0.223872	512.458
0.225165	513.336
0.226464	514.217
0.227772	515.101
0.229087	515.988
0.230409	516.879
0.231739	517.773
0.233077	518.671
0.234423	519.572
0.235776	520.476
0.237137	521.384
0.238506	522.295
0.239883	523.209
0.241268	524.127
0.242661	525.048
0.244062	525.973
0.245471	526.901
0.246888	527.833
0.248313	528.768
0.249747	529.706
0.251189	530.648
0.252639	531.594
0.254097	532.542
0.255564	533.495
0.25704	534.451
0.258523	535.41
0.260016	536.373
0.261517	537.339
0.263027	538.309
0.264545	539.283
0.266073	540.26
0.267609	541.241
0.269153	542.225
0.270707	543.213
0.27227	544.204
0.273842	545.199
0.275423	546.198
0.277013	547.2
0.278612	548.206
0.280221	549.215
0.281838	550.229
0.283465	551.245
0.285102	552.266
0.286748	553.29
0.288403	554.318
0.290068	555.349
0.291743	556.384
0.293427	557.423
0.295121	558.466
0.296825	559.512
0.298538	560.562
0.300262	561.615
0.301995	562.673
0.303739	563.734
0.305492	564.799
0.307256	565.868
0.30903	566.94
0.310814	568.016
0.312608	569.096
0.314413	570.18
0.316228	571.267
0.318053	572.359
0.31989	573.454
0.321736	574.553
0.323594	575.656
0.325462	576.762
0.327341	577.873
0.32923	578.987
0.331131	580.105
0.333043	581.227
0.334965	582.352
0.336899	583.482
0.338844	584.616
0.3408	585.753
0.342768	586.894
0.344747	588.039
0.346737	589.188
0.348739	590.341
0.350752	591.498
0.352777	592.659
0.354813	593.823
0.356862	594.992
0.358922	596.164
0.360994	597.34
0.363078	598.521
0.365174	599.705
0.367282	600.893
0.369403	602.085
0.371535	603.281
0.37368	604.481
0.375837	605.685
0.378007	606.892
0.380189	608.104
0.382384	609.32
0.384592	610.539
0.386812	611.763
0.389045	612.991
0.391291	614.222
0.39355	615.458
0.395822	616.697
0.398107	617.941
0.400405	619.188
0.402717	620.44
0.405042	621.695
0.40738	622.955
0.409732	624.218
0.412098	625.486
0.414477	626.757
0.416869	628.032
0.419276	629.312
0.421697	630.595
0.424131	631.882
0.42658	633.174
0.429042	634.469
0.431519	635.769
0.43401	637.072
0.436516	638.379
0.439036	639.691
0.44157	641.006
0.44412	642.325
0.446684	643.649
0.449262	644.976
0.451856	646.307
0.454465	647.643
0.457088	648.982
0.459727	650.325
0.462381	651.672
0.46505	653.024
0.467735	654.379
0.470435	655.738
0.473151	657.101
0.475883	658.468
0.47863	659.84
0.481393	661.215
0.484172	662.594
0.486968	663.977
0.489779	665.364
0.492606	666.755
0.49545	668.15
0.49831	669.548
0.501187	670.951
0.504081	672.358
0.506991	673.768
0.509918	675.183
0.512861	676.601
0.515822	678.024
0.5188	679.45
0.521795	680.88
0.524807	682.314
0.527837	683.752
0.530884	685.194
0.533949	686.64
0.537032	688.089
0.540132	689.542
0.54325	691
0.546387	692.461
0.549541	693.926
0.552713	695.394
0.555904	696.867
0.559114	698.343
0.562341	699.823
0.565588	701.307
0.568853	702.795
0.572137	704.286
0.57544	705.781
0.578762	707.28
0.582103	708.783
0.585464	710.289
0.588844	711.799
0.592243	713.313
0.595662	714.83
0.599101	716.351
0.60256	717.876
0.606038	719.404
0.609537	720.936
0.613056	722.471
0.616595	724.01
0.620155	725.553
0.623735	727.099
0.627336	728.649
0.630957	730.202
0.6346	731.759
0.638263	733.319
0.641948	734.883
0.645654	736.45
0.649382	738.02
0.653131	739.594
0.656901	741.172
0.660693	742.752
0.664508	744.336
0.668344	745.924
0.672202	747.515
0.676083	749.109
0.679986	750.706
0.683912	752.306
0.68786	753.91
0.691831	755.517
0.695825	757.127
0.699842	758.74
0.703882	760.357
0.707946	761.976
0.712033	763.599
0.716143	765.225
0.720278	766.853
0.724436	768.485
0.728618	770.12
0.732825	771.757
0.737055	773.398
0.74131	775.041
0.74559	776.687
0.749894	778.337
0.754223	781.975
0.758578	785.843
0.762957	789.741
0.767361	793.669
0.771792	797.627
0.776247	801.615
0.780728	805.635
0.785236	809.685
0.789769	813.766
0.794328	817.88
0.798914	822.024
0.803526	826.129
0.808165	829.65
0.812831	833.19
0.817523	836.75
0.822243	840.329
0.82699	843.927
0.831764	847.545
0.836566	851.183
0.841395	854.841
0.846253	858.518
0.851138	862.215
0.856052	865.932
0.860994	869.669
0.865964	873.426
0.870964	877.204
0.875992	881.001
0.881049	884.819
0.886135	888.657
0.891251	892.515
0.896396	896.394
0.901571	900.293
0.906776	904.213
0.912011	908.154
0.917276	912.115
0.922571	916.097
0.927897	920.1
0.933254	924.124
0.938642	928.168
0.944061	932.234
0.949511	936.321
0.954993	940.429
0.960506	944.558
0.966051	948.708
0.971628	952.88
0.977237	957.073
0.982879	961.287
0.988553	965.523
0.99426	969.781
1	974.06
1.00577	978.361
1.01158	982.683
1.01742	987.027
1.02329	991.393
1.0292	995.781
1.03514	1000.19
1.04112	1004.62
1.04713	1009.08
1.05317	1013.55
1.05925	1018.05
1.06537	1022.57
1.07152	1027.11
1.07771	1031.67
1.08393	1036.26
1.09018	1040.87
1.09648	1045.5
1.10281	1050.15
1.10917	1054.83
1.11558	1059.53
1.12202	1064.25
1.1285	1068.99
1.13501	1073.76
1.14156	1078.55
1.14815	1083.36
1.15478	1088.19
1.16145	1093.05
1.16815	1097.93
1.1749	1102.83
1.18168	1107.75
1.1885	1112.7
1.19536	1117.67
1.20226	1122.66
1.20921	1127.68
1.21619	1132.72
1.22321	1137.78
1.23027	1142.86
1.23737	1147.97
1.24451	1153.1
1.2517	1158.25
1.25893	1163.43
1.26619	1168.62
1.2735	1173.85
1.28086	1179.09
1.28825	1184.36
1.29569	1189.65
1.30317	1194.96
1.31069	1200.3
1.31826	1205.66
1.32587	1211.04
1.33352	1216.44
1.34122	1221.87
1.34896	1227.32
1.35675	1232.79
1.36458	1238.29
1.37246	1243.81
1.38038	1249.35
1.38835	1254.92
1.39637	1260.5
1.40443	1266.12
1.41254	1271.75
1.42069	1277.4
1.42889	1283.08
1.43714	1288.78
1.44544	1294.51
1.45378	1300.25
1.46218	1306.02
1.47062	1311.81
1.47911	1317.63
1.48765	1323.46
1.49624	1329.32
1.50487	1335.2
1.51356	1341.1
1.5223	1347.03
1.53109	1352.98
1.53993	1358.95
1.54882	1364.94
1.55776	1370.95
1.56675	1376.99
1.5758	1383.04
1.58489	1389.12
1.59404	1395.22
1.60325	1401.34
1.6125	1407.49
1.62181	1413.65
1.63117	1419.84
1.64059	1426.05
1.65006	1432.27
1.65959	1438.52
1.66917	1444.79
1.6788	1451.09
1.6885	1457.4
1.69824	1463.73
1.70805	1470.08
1.71791	1476.46
1.72783	1482.85
1.7378	1489.27
1.74783	1495.7
1.75792	1502.16
1.76807	1508.63
1.77828	1515.12
1.78855	1521.64
1.79887	1528.17
1.80926	1534.72
1.8197	1541.3
1.83021	1547.89
1.84077	1554.5
1.8514	1561.12
1.86209	1567.77
1.87284	1574.44
1.88365	1581.12
1.89452	1587.82
1.90546	1594.54
1.91646	1601.28
1.92752	1608.04
1.93865	1614.81
1.94984	1621.6
1.9611	1628.41
1.97242	1635.24
1.98381	1642.08
1.99526	1648.93
2.00678	1655.81
2.01837	1662.7
2.03002	1669.61
2.04174	1676.53
2.05353	1683.47
2.06538	1690.42
2.0773	1697.39
2.0893	1704.38
2.10136	1711.37
2.11349	1718.39
2.12569	1725.42
2.13796	1732.46
2.1503	1739.51
2.16272	1746.58
2.1752	1753.67
2.18776	1760.76
2.20039	1767.87
2.21309	1774.99
2.22587	1782.13
2.23872	1789.27
2.25165	1796.43
2.26464	1803.6
2.27772	1810.78
2.29087	1817.98
2.30409	1825.18
2.31739	1832.39
2.33077	1839.62
2.34423	1846.85
2.35776	1854.1
2.37137	1861.35
2.38506	1868.62
2.39883	1875.89
2.41268	1883.17
2.42661	1890.46
2.44062	1897.76
2.45471	1905.06
2.46888	1912.37
2.48313	1919.69
2.49747	1927.02
2.51189	1934.35
2.52639	1941.69
2.54097	1949.04
2.55564	1956.39
2.5704	1963.75
2.58523	1971.11
2.60016	1978.47
2.61517	1985.84
2.63027	1993.22
2.64545	2000.59
2.66073	2007.97
2.67609	2015.36
2.69153	2022.74
2.70707	2030.13
2.7227	2037.52
2.73842	2044.91
2.75423	2052.3
2.77013	2059.7
2.78612	2067.09
2.80221	2074.48
2.81838	2081.88
2.83465	2089.27
2.85102	2096.66
2.86748	2104.05
2.88403	2111.44
2.90068	2118.83
2.91743	2126.21
2.93427	2133.59
2.95121	2140.96
2.96825	2148.34
2.98538	2155.71
3.00262	2163.07
3.01995	2170.43
3.03739	2177.78
3.05492	2185.13
3.07256	2191.08
3.0903	2198.4
3.10814	2205.71
3.12608	2213.01
3.14413	2220.31
3.16228	2227.59
3.18053	2234.87
3.1989	2242.14
3.21736	2249.4
3.23594	2256.65
3.25462	2263.89
3.27341	2271.12
3.2923	2278.33
3.31131	2285.54
3.33043	2292.73
3.34965	2299.91
3.36899	2307.08
3.38844	2314.23
3.408	2321.37
3.42768	2328.5
3.44747	2335.61
3.46737	2342.71
3.48739	2349.79
3.50752	2356.85
3.52777	2363.9
3.54813	2370.93
3.56862	2377.94
3.58922	2384.94
3.60994	2391.92
3.63078	2398.88
3.65174	2405.82
3.67282	2412.74
3.69403	2419.64
3.71535	2426.52
3.7368	2433.38
3.75837	2440.22
3.78007	2447.03
3.80189	2453.83
3.82384	2460.6
3.84592	2467.35
3.86812	2474.08
3.89045	2480.78
3.91291	2487.46
3.9355	2494.11
3.95822	2500.74
3.98107	2507.34
4.00405	2513.92
4.02717	2520.47
4.05042	2526.99
4.0738	2533.49
4.09732	2539.96
4.12098	2546.4
4.14477	2552.82
4.16869	2559.2
4.19276	2565.56
4.21697	2571.88
4.24131	2578.18
4.2658	2584.45
4.29042	2590.68
4.31519	2596.88
4.3401	2603.06
4.36516	2609.2
4.39036	2615.3
4.4157	2621.38
4.4412	2627.42
4.46684	2633.43
4.49262	2639.41
4.51856	2645.35
4.54465	2651.25
4.57088	2657.12
4.59727	2662.96
4.62381	2668.76
4.6505	2674.53
4.67735	2680.25
4.70435	2685.95
4.73151	2691.6
4.75883	2697.22
4.7863	2702.8
4.81393	2708.34
4.84172	2713.84
4.86968	2719.3
4.89779	2724.73
4.92606	2730.11
4.9545	2735.46
4.9831	2740.77
5.01187	2746.03
5.04081	2751.26
5.06991	2756.44
5.09918	2761.58
5.12861	2766.68
5.15822	2771.74
5.188	2776.76
5.21795	2781.74
5.24807	2786.67
5.27837	2791.56
5.30884	2796.41
5.33949	2801.21
5.37032	2805.97
5.40132	2810.69
5.4325	2815.36
5.46387	2819.99
5.49541	2824.57
5.52713	2829.11
5.55904	2833.6
5.59114	2838.05
5.62341	2842.46
5.65588	2846.81
5.68853	2851.13
5.72137	2855.39
5.7544	2859.61
5.78762	2863.78
5.82103	2867.91
5.85464	2871.99
5.88844	2876.02
5.92243	2880.01
5.95662	2883.95
5.99101	2887.84
6.0256	2891.69
6.06038	2895.48
6.09537	2899.23
6.13056	2902.93
6.16595	2906.59
6.20155	2910.19
6.23735	2913.75
6.27336	2917.26
6.30957	2920.72
6.346	2924.13
6.38263	2927.5
6.41948	2930.81
6.45654	2934.08
6.49382	2937.3
6.53131	2940.47
6.56901	2943.59
6.60693	2946.66
6.64508	2949.68
6.68344	2952.65
6.72202	2955.58
6.76083	2958.45
6.79986	2961.28
6.83912	2964.06
6.8786	2966.79
6.91831	2969.47
6.95825	2972.1
6.99842	2974.68
7.03882	2977.21
7.07946	2979.7
7.12033	2982.13
7.16143	2984.52
7.20278	2986.85
7.24436	2989.14
7.28618	2991.38
7.32825	2993.57
7.37055	2995.71
7.4131	2997.81
7.4559	2999.85
7.49894	3001.85
7.54223	3003.8
7.58578	3005.7
7.62957	3007.55
7.67361	3009.35
7.71792	3011.11
7.76247	3012.82
7.80728	3014.48
7.85236	3016.09
7.89769	3017.65
7.94328	3019.17
7.98914	3020.64
8.03526	3022.06
8.08165	3023.44
8.12831	3024.77
8.17523	3026.05
8.22243	3027.29
8.2699	3028.48
8.31764	3029.62
8.36566	3030.72
8.41395	3031.77
8.46253	3032.78
8.51138	3033.74
8.56052	3034.66
8.60994	3035.53
8.65964	3036.35
8.70964	3037.14
8.75992	3037.87
8.81049	3038.57
8.86135	3039.21
8.91251	3039.82
8.96396	3040.38
9.01571	3040.9
9.06776	3041.37
9.12011	3041.81
9.17276	3042.2
9.22571	3042.54
9.27897	3042.85
9.33254	3043.11
9.38642	3043.33
9.44061	3043.51
9.49511	3043.65
9.54993	3043.75
9.60506	3043.81
9.66051	3043.82
9.71628	3043.8
9.77237	3043.74
9.82879	3043.63
9.88553	3043.49
9.9426	3043.31
10	3043.09
10.0577	3042.83
10.1158	3042.54
10.1742	3042.2
10.2329	3041.83
10.292	3041.42
10.3514	3040.98
10.4112	3040.5
10.4713	3039.98
10.5317	3039.42
10.5925	3038.83
10.6537	3038.21
10.7152	3037.55
10.7771	3027.49
10.8393	3026.86
10.9018	3026.2
10.9648	3025.5
11.0281	3024.77
11.0917	3024
11.1558	3023.21
11.2202	3022.37
11.285	3021.51
11.3501	3020.61
11.4156	3019.68
11.4815	3018.72
11.5478	3017.72
11.6145	3016.69
11.6815	3015.64
11.749	3014.55
11.8168	3013.43
11.885	3012.28
11.9536	3011.1
12.0226	3009.9
12.0921	3008.66
12.1619	3007.39
12.2321	3006.1
12.3027	3004.78
12.3737	3003.43
12.4451	3002.05
12.517	3000.64
12.5893	2999.21
12.6619	2997.75
12.735	2996.27
12.8086	2994.76
12.8825	2993.22
12.9569	2991.66
13.0317	2990.07
13.1069	2988.46
13.1826	2986.83
13.2587	2985.17
13.3352	2983.49
13.4122	2981.78
13.4896	2980.05
13.5675	2978.3
13.6458	2976.53
13.7246	2974.74
13.8038	2972.92
13.8835	2971.08
13.9637	2969.22
14.0443	2967.34
14.1254	2965.44
14.2069	2963.52
14.2889	2961.58
14.3714	2959.62
14.4544	2957.64
14.5378	2955.65
14.6218	2953.63
14.7062	2951.6
14.7911	2949.55
14.8765	2947.48
14.9624	2945.39
15.0487	2943.29
15.1356	2941.16
15.223	2939.03
15.3109	2936.87
15.3993	2934.71
15.4882	2932.52
15.5776	2930.32
15.6675	2928.1
15.758	2925.87
15.8489	2923.63
15.9404	2921.37
16.0325	2919.1
16.125	2916.81
16.2181	2914.51
16.3117	2912.2
16.4059	2909.87
16.5006	2907.54
16.5959	2905.18
16.6917	2902.82
16.788	2900.45
16.885	2898.06
16.9824	2895.66
17.0805	2893.25
17.1791	2890.83
17.2783	2888.4
17.378	2885.96
17.4783	2883.51
17.5792	2881.05
17.6807	2878.57
17.7828	2876.09
17.8855	2873.6
17.9887	2871.1
18.0926	2868.59
18.197	2866.08
18.3021	2863.55
18.4077	2861.02
18.514	2858.47
18.6209	2855.92
18.7284	2853.37
18.8365	2850.8
18.9452	2848.23
19.0546	2845.65
19.1646	2843.06
19.2752	2840.46
19.3865	2837.86
19.4984	2835.26
19.611	2832.64
19.7242	2830.02
19.8381	2827.4
19.9526	2824.76
20.0678	2822.13
20.1837	2819.48
20.3002	2816.83
20.4174	2814.18
20.5353	2811.52
20.6538	2808.86
20.773	2806.19
20.893	2803.52
21.0136	2800.84
21.1349	2798.15
21.2569	2795.47
21.3796	2792.78
21.503	2790.08
21.6272	2787.38
21.752	2784.68
21.8776	2781.97
22.0039	2779.26
22.1309	2776.55
22.2587	2773.83
22.3872	2771.11
22.5165	2768.39
22.6464	2765.66
22.7772	2762.93
22.9087	2760.2
23.0409	2757.46
23.1739	2754.72
23.3077	2751.98
23.4423	2749.24
23.5776	2746.49
23.7137	2743.74
23.8506	2740.99
23.9883	2738.23
24.1268	2735.48
24.2661	2732.72
24.4062	2729.96
24.5471	2727.19
24.6888	2724.43
24.8313	2721.66
24.9747	2718.89
25.1189	2716.12
25.2639	2713.35
25.4097	2710.57
25.5564	2707.8
25.704	2705.02
25.8523	2702.24
26.0016	2699.46
26.1517	2696.68
26.3027	2693.89
26.4545	2691.1
26.6073	2688.32
26.7609	2685.53
26.9153	2682.74
27.0707	2679.94
27.227	2677.15
27.3842	2674.35
27.5423	2671.56
27.7013	2668.76
27.8612	2665.96
28.0221	2663.16
28.1838	2660.35
28.3465	2657.55
28.5102	2654.74
28.6748	2651.94
28.8403	2649.13
29.0068	2646.32
29.1743	2643.51
29.3427	2640.7
29.5121	2637.88
29.6825	2635.07
29.8538	2632.25
30.0262	2629.43
30.1995	2626.61
30.3739	2623.79
30.5492	2620.97
30.7256	2618.14
30.903	2615.32
31.0814	2612.49
31.2608	2609.66
31.4413	2606.83
31.6228	2604
31.8053	2601.17
31.989	2598.33
32.1736	2595.5
32.3594	2592.66
32.5462	2589.82
32.7341	2586.98
32.923	2584.14
33.1131	2581.29
33.3043	2578.44
33.4965	2575.6
33.6899	2572.75
33.8844	2569.89
34.08	2567.04
34.2768	2564.18
34.4747	2561.33
34.6737	2558.47
34.8739	2555.6
35.0752	2552.74
35.2777	2549.87
35.4813	2547.01
35.6862	2544.14
35.8922	2541.26
36.0994	2538.39
36.3078	2535.51
36.5174	2532.63
36.7282	2529.75
36.9403	2526.87
37.1535	2523.98
37.368	2521.09
37.5837	2518.2
37.8007	2515.31
38.0189	2512.41
38.2384	2509.51
38.4592	2506.61
38.6812	2503.7
38.9045	2500.8
39.1291	2497.89
39.355	2494.97
39.5822	2492.06
39.8107	2489.14
40.0405	2486.22
40.2717	2483.29
40.5042	2480.37
40.738	2477.44
40.9732	2474.51
41.2098	2471.57
41.4477	2468.63
41.6869	2465.69
41.9276	2462.74
42.1697	2459.79
42.4131	2456.84
42.658	2453.88
42.9042	2450.92
43.1519	2447.96
43.401	2444.99
43.6516	2442.02
43.9036	2439.04
44.157	2436.06
44.412	2433.08
44.6684	2430.1
44.9262	2427.11
45.1856	2424.11
45.4465	2421.12
45.7088	2418.12
45.9727	2415.11
46.2381	2412.1
46.505	2409.09
46.7735	2406.07
47.0435	2403.05
47.3151	2400.03
47.5883	2397
47.863	2393.96
48.1393	2390.92
48.4172	2387.88
48.6968	2384.83
48.9779	2381.78
49.2606	2378.73
49.545	2375.67
49.831	2372.6
50.1187	2369.53
50.4081	2366.46
50.6991	2363.38
50.9918	2360.3
51.2861	2357.21
51.5822	2354.12
51.88	2351.02
52.1795	2347.92
52.4807	2344.81
52.7837	2341.7
53.0884	2338.58
53.3949	2335.46
53.7032	2332.33
54.0132	2329.2
54.325	2326.06
54.6387	2322.92
54.9541	2319.77
55.2713	2316.62
55.5904	2313.46
55.9114	2310.3
56.2341	2307.13
56.5588	2303.95
56.8853	2300.77
57.2137	2297.59
57.544	2294.4
57.8762	2291.2
58.2103	2288
58.5464	2284.8
58.8844	2281.58
59.2243	2278.37
59.5662	2275.14
59.9101	2271.91
60.256	2268.68
60.6038	2265.44
60.9537	2262.19
61.3056	2258.94
61.6595	2255.68
62.0155	2252.42
62.3735	2249.15
62.7336	2245.88
63.0957	2242.6
63.46	2239.31
63.8263	2234.86
64.1948	2230.34
64.5654	2225.82
64.9382	2221.32
65.3131	2216.82
65.6901	2212.32
66.0693	2207.96
66.4508	2203.46
66.8344	2198.97
67.2202	2194.48
67.6083	2190
67.9986	2185.51
68.3912	2181.03
68.786	2176.55
69.1831	2172.07
69.5825	2167.59
69.9842	2163.11
70.3882	2158.64
70.7946	2154.45
71.2033	2149.98
71.6143	2145.59
72.0278	2141.12
72.4436	2136.66
72.8618	2132.19
73.2825	2127.72
73.7055	2123.26
74.131	2118.8
74.559	2114.33
74.9894	2109.88
75.4223	2105.42
75.8578	2100.96
76.2957	2096.5
76.7361	2092.04
77.1792	2087.58
77.6247	2084.36
78.0728	2079.89
78.5236	2075.43
78.9769	2070.97
79.4328	2066.5
79.8914	2057.85
80.3526	2053.69
80.8165	2049.16
81.2831	2044.62
81.7523	2040.09
82.2243	2035.57
82.699	2031.05
83.1764	2026.53
83.6566	2022.01
84.1395	2017.5
84.6253	2012.98
85.1138	2008.46
85.6052	2003.95
86.0994	1999.43
86.5964	1994.91
87.0964	1990.39
87.5992	1985.88
88.1049	1981.36
88.6135	1976.84
89.1251	1972.32
89.6396	1967.8
90.1571	1963.28
90.6776	1958.76
91.2011	1954.23
91.7276	1949.71
92.2571	1945.19
92.7897	1940.66
93.3254	1936.13
93.8642	1931.61
94.4061	1927.08
94.9511	1923.78
95.4993	1919.25
96.0506	1914.71
96.6051	1910.18
97.1628	1905.64
97.7237	1901.11
98.2879	1896.57
98.8553	1892.03
99.426	1887.49
100	1882.95
100.577	1878.41
101.158	1873.87
101.742	1869.33
102.329	1864.78
102.92	1860.24
103.514	1855.7
104.112	1851.16
104.713	1846.62
105.317	1842.08
105.925	1837.54
106.537	1833
107.152	1828.45
107.771	1823.99
108.393	1819.45
109.018	1814.91
109.648	1810.37
110.281	1805.83
110.917	1801.29
111.558	1796.77
112.202	1792.43
112.85	1788.08
113.501	1783.73
114.156	1779.38
114.815	1775.03
115.478	1770.67
116.145	1766.32
116.815	1761.97
117.49	1757.61
118.168	1753.25
118.85	1748.9
119.536	1744.54
120.226	1740.18
120.921	1735.82
121.619	1731.46
122.321	1727.1
123.027	1722.75
123.737	1718.39
124.451	1714.03
125.17	1709.67
125.893	1705.31
126.619	1700.95
127.35	1696.6
128.086	1692.24
128.825	1687.88
129.569	1683.53
130.317	1679.64
131.069	1675.28
131.826	1670.92
132.587	1666.56
133.352	1662.2
134.122	1657.85
134.896	1653.49
135.675	1649.14
136.458	1644.79
137.246	1640.44
138.038	1636.09
138.835	1631.74
139.637	1627.4
140.443	1623.06
141.254	1618.72
142.069	1615.51
142.889	1611.16
143.714	1606.82
144.544	1602.48
145.378	1598.14
146.218	1593.81
147.062	1589.47
147.911	1585.15
148.765	1580.82
149.624	1576.5
150.487	1572.18
151.356	1567.86
152.23	1563.55
153.109	1559.24
153.993	1554.93
154.882	1550.63
155.776	1546.33
156.675	1542.04
157.58	1537.75
158.489	1533.46
159.404	1529.17
160.325	1524.89
161.25	1520.62
162.181	1516.34
163.117	1512.08
164.059	1507.81
165.006	1503.55
165.959	1499.29
166.917	1495.04
167.88	1490.79
168.85	1486.54
169.824	1482.3
170.805	1478.06
171.791	1473.83
172.783	1469.6
173.78	1465.38
174.783	1461.16
175.792	1456.94
176.807	1452.73
177.828	1448.52
178.855	1444.32
179.887	1440.15
180.926	1435.95
181.97	1432.08
183.021	1427.89
184.077	1423.7
185.14	1419.52
186.209	1415.34
187.284	1411.17
188.365	1407
189.452	1402.83
190.546	1398.67
191.646	1394.52
192.752	1390.37
193.865	1386.22
194.984	1382.08
196.11	1377.94
197.242	1373.81
198.381	1369.69
199.526	1365.56
200.678	1361.44
201.837	1357.33
203.002	1353.22
204.174	1349.12
205.353	1345.02
206.538	1340.92
207.73	1336.84
208.93	1332.75
210.136	1328.67
211.349	1324.6
212.569	1320.53
213.796	1316.46
215.03	1312.4
216.272	1308.35
217.52	1304.3
218.776	1300.25
220.039	1296.21
221.309	1292.18
222.587	1288.15
223.872	1284.12
225.165	1280.1
226.464	1276.09
227.772	1272.08
229.087	1268.08
230.409	1264.08
231.739	1260.09
233.077	1256.1
234.423	1252.12
235.776	1248.14
237.137	1244.17
238.506	1240.61
239.883	1236.64
241.268	1232.68
242.661	1228.72
244.062	1224.77
245.471	1220.83
246.888	1216.89
248.313	1212.95
249.747	1209.02
251.189	1205.1
252.639	1201.2
254.097	1197.28
255.564	1193.38
257.04	1189.48
258.523	1185.58
260.016	1181.69
261.517	1177.81
263.027	1173.93
264.545	1170.06
266.073	1166.19
267.609	1162.33
269.153	1158.48
270.707	1154.63
272.27	1150.78
273.842	1146.95
275.423	1143.12
277.013	1139.29
278.612	1135.47
280.221	1131.66
281.838	1127.85
283.465	1124.63
285.102	1120.83
286.748	1117.04
288.403	1113.25
290.068	1109.47
291.743	1105.69
293.427	1101.92
295.121	1098.16
296.825	1094.4
298.538	1090.65
300.262	1086.91
301.995	1083.17
303.739	1079.44
305.492	1075.71
307.256	1071.99
309.03	1068.28
310.814	1064.57
312.608	1060.87
314.413	1057.18
316.228	1053.5
318.053	1049.82
319.89	1046.14
321.736	1042.48
323.594	1038.82
325.462	1035.16
327.341	1031.52
329.23	1027.88
331.131	1024.25
333.043	1020.62
334.965	1017.26
336.899	1013.65
338.844	1010.04
340.8	1006.44
342.768	1002.84
344.747	999.256
346.737	995.676
348.739	992.103
350.752	988.538
352.777	984.979
354.813	981.428
356.862	977.884
358.922	974.347
360.994	970.818
363.078	967.296
365.174	963.781
367.282	960.274
369.403	956.774
371.535	953.282
373.68	949.797
375.837	946.32
378.007	942.851
380.189	939.388
382.384	935.934
384.592	932.487
386.812	929.048
389.045	925.616
391.291	922.193
393.55	918.777
395.822	915.369
398.107	911.968
400.405	908.576
402.717	905.192
405.042	901.815
407.38	898.446
409.732	895.085
412.098	891.732
414.477	888.387
416.869	885.049
419.276	881.72
421.697	878.399
424.131	875.085
426.58	871.78
429.042	868.482
431.519	865.193
434.01	861.912
436.516	858.639
439.036	855.374
441.57	852.117
444.12	848.868
446.684	845.628
449.262	842.395
451.856	839.171
454.465	835.956
457.088	832.748
459.727	829.549
462.381	826.357
465.05	823.175
467.735	820
470.435	816.834
473.151	813.676
475.883	810.527
478.63	807.384
481.393	804.251
484.172	801.128
486.968	798.013
489.779	794.906
492.606	791.808
495.45	788.718
498.31	785.636
501.187	782.563
504.081	779.498
506.991	776.442
509.918	773.394
512.861	770.355
515.822	767.324
518.8	764.301
521.795	761.287
524.807	758.281
527.837	755.284
530.884	752.296
533.949	749.316
537.032	746.345
540.132	743.383
543.25	740.428
546.387	737.483
549.541	734.545
552.713	731.617
555.904	728.696
559.114	725.785
562.341	722.881
565.588	719.987
568.853	717.101
572.137	714.223
575.44	711.354
578.762	708.493
582.103	705.641
585.464	702.798
588.844	699.963
592.243	697.136
595.662	694.318
599.101	691.509
602.56	688.708
606.038	685.917
609.537	683.133
613.056	680.358
616.595	677.591
620.155	674.833
623.735	672.084
627.336	669.343
630.957	666.611
634.6	663.887
638.263	661.172
641.948	658.465
645.654	655.767
649.382	653.078
653.131	650.397
656.901	647.724
660.693	645.06
664.508	642.405
668.344	639.758
672.202	637.12
676.083	634.49
679.986	631.869
683.912	629.257
687.86	626.653
691.831	624.057
695.825	621.47
699.842	618.892
703.882	616.322
707.946	613.76
712.033	611.207
716.143	608.663
720.278	606.127
724.436	603.599
728.618	601.08
732.825	598.57
737.055	596.068
741.31	593.574
745.59	591.089
749.894	588.613
754.223	586.144
758.578	583.685
762.957	581.233
767.361	578.791
771.792	576.356
776.247	573.93
780.728	571.513
785.236	569.104
789.769	566.703
794.328	564.311
798.914	561.927
803.526	559.552
808.165	557.184
812.831	554.825
817.523	552.475
822.243	550.133
826.99	547.799
831.764	545.474
836.566	543.157
841.395	540.849
846.253	538.548
851.138	536.256
856.052	533.973
860.994	531.697
865.964	529.43
870.964	527.172
875.992	524.921
881.049	522.679
886.135	520.444
891.251	518.219
896.396	516.001
901.571	513.792
906.776	511.59
912.011	509.397
917.276	507.212
922.571	505.035
927.897	502.866
933.254	500.706
938.642	498.553
944.061	496.409
949.511	494.273
954.993	492.145
960.506	490.025
966.051	487.912
971.628	485.808
977.237	483.712
982.879	481.624
988.553	479.544
994.26	477.472
1000	475.408
1005.77	473.352
1011.58	471.303
1017.42	469.263
1023.29	467.231
1029.2	465.207
1035.14	463.19
1041.12	461.181
1047.13	459.18
1053.17	457.187
1059.25	455.202
1065.37	453.224
1071.52	451.255
1077.71	449.293
1083.93	447.339
1090.18	445.392
1096.48	443.453
1102.81	441.522
1109.17	439.599
1115.58	437.683
1122.02	435.775
1128.5	433.875
1135.01	431.982
1141.56	430.097
1148.15	428.219
1154.78	426.349
1161.45	424.487
1168.15	422.632
1174.9	420.785
1181.68	418.945
1188.5	417.112
1195.36	415.287
1202.26	413.47
1209.21	411.659
1216.19	409.857
1223.21	408.061
1230.27	406.273
1237.37	404.493
1244.51	402.719
1251.7	400.953
1258.93	399.195
1266.19	397.443
1273.5	395.699
1280.86	393.962
1288.25	392.233
1295.69	390.51
1303.17	388.795
1310.69	387.087
1318.26	385.386
1325.87	383.692
1333.52	382.005
1341.22	380.325
1348.96	378.653
1356.75	376.987
1364.58	375.329
1372.46	373.678
1380.38	372.033
1388.35	370.396
1396.37	368.765
1404.43	367.142
1412.54	365.525
1420.69	363.915
1428.89	362.312
1437.14	360.716
1445.44	359.127
1453.78	357.545
1462.18	355.969
1470.62	354.401
1479.11	352.839
1487.65	351.284
1496.24	349.735
1504.87	348.193
1513.56	346.658
1522.3	345.13
1531.09	343.608
1539.93	342.093
1548.82	340.584
1557.76	339.082
1566.75	337.587
1575.8	336.098
1584.89	334.616
1594.04	333.14
1603.25	331.67
1612.5	330.208
1621.81	328.751
1631.17	327.301
1640.59	325.858
1650.06	324.42
1659.59	322.99
1669.17	321.565
1678.8	320.147
1688.5	318.735
1698.24	317.329
1708.05	315.93
1717.91	314.537
1727.83	313.15
1737.8	311.77
1747.83	310.395
1757.92	309.027
1768.07	307.665
1778.28	306.309
1788.55	304.959
1798.87	303.615
1809.26	302.277
1819.7	300.945
1830.21	299.62
1840.77	298.3
1851.4	296.986
1862.09	295.678
1872.84	294.377
1883.65	293.081
1894.52	291.791
1905.46	290.506
1916.46	289.228
1927.52	287.956
1938.65	286.689
1949.84	285.428
1961.1	284.173
1972.42	282.924
1983.81	281.68
1995.26	280.442
2006.78	279.21
2018.37	277.984
2030.02	276.763
2041.74	275.548
2053.53	274.338
2065.38	273.134
2077.3	271.936
2089.3	270.743
2101.36	269.555
2113.49	268.374
2125.69	267.197
2137.96	266.026
2150.3	264.861
2162.72	263.701
2175.2	262.547
2187.76	261.397
2200.39	260.254
2213.09	259.115
2225.87	257.982
2238.72	256.854
2251.65	255.732
2264.64	254.615
2277.72	253.503
2290.87	252.396
2304.09	251.294
2317.39	250.198
2330.77	249.107
2344.23	248.021
2357.76	246.94
2371.37	245.864
2385.06	244.793
2398.83	243.728
2412.68	242.667
2426.61	241.612
2440.62	240.561
2454.71	239.516
2468.88	238.475
2483.13	237.44
2497.47	236.409
2511.89	235.383
2526.39	234.362
2540.97	233.347
2555.64	232.335
2570.4	231.329
2585.23	230.328
2600.16	229.331
2615.17	228.339
2630.27	227.352
2645.45	226.37
2660.73	225.392
2676.09	224.419
2691.53	223.451
2707.07	222.488
2722.7	221.529
2738.42	220.575
2754.23	219.625
2770.13	218.68
2786.12	217.739
2802.21	216.803
2818.38	215.872
2834.65	214.945
2851.02	214.023
2867.48	213.105
2884.03	212.192
2900.68	211.283
2917.43	210.378
2934.27	209.478
2951.21	208.582
2968.25	207.691
2985.38	206.804
3002.62	205.921
3019.95	205.043
3037.39	204.169
3054.92	203.299
3072.56	202.433
3090.3	201.572
3108.14	200.715
3126.08	199.862
3144.13	199.013
3162.28	198.169
3180.53	197.329
3198.9	196.492
3217.36	195.66
3235.94	194.832
3254.62	194.009
3273.41	193.189
3292.3	192.373
3311.31	191.561
3330.43	190.754
3349.65	189.95
3368.99	189.15
3388.44	188.355
3408	187.563
3427.68	186.775
3447.47	185.991
3467.37	185.211
3487.39	184.435
3507.52	183.663
3527.77	182.894
3548.13	182.129
3568.62	181.369
3589.22	180.612
3609.94	179.858
3630.78	179.109
3651.74	178.363
3672.82	177.621
3694.03	176.883
3715.35	176.149
3736.8	175.418
3758.37	174.691
3780.07	173.967
3801.89	173.247
3823.84	172.531
3845.92	171.818
3868.12	171.109
3890.45	170.404
3912.91	169.702
3935.5	169.003
3958.22	168.308
3981.07	167.617
4004.05	166.929
4027.17	166.245
4050.42	165.564
4073.8	164.886
4097.32	164.212
4120.98	163.541
4144.77	162.874
4168.69	162.21
4192.76	161.55
4216.97	160.893
4241.31	160.239
4265.8	159.588
4290.42	158.941
4315.19	158.297
4340.1	157.657
4365.16	157.02
4390.36	156.386
4415.7	155.755
4441.2	155.127
4466.84	154.503
4492.62	153.882
4518.56	153.264
4544.65	152.649
4570.88	152.037
4597.27	151.429
4623.81	150.823
4650.5	150.221
4677.35	149.622
4704.35	149.025
4731.51	148.432
4758.83	147.842
4786.3	147.255
4813.93	146.672
4841.72	146.091
4869.68	145.513
4897.79	144.938
4926.06	144.366
4954.5	143.797
4983.1	143.231
5011.87	142.668
5040.81	142.107
5069.91	141.55
5099.18	140.996
5128.61	140.444
5158.22	139.895
5188	139.35
5217.95	138.807
5248.07	138.266
5278.37	137.729
5308.84	137.195
5339.49	136.663
5370.32	136.134
5401.32	135.608
5432.5	135.084
5463.87	134.563
5495.41	134.045
5527.13	133.53
5559.04	133.017
5591.14	132.508
5623.41	132
5655.88	131.496
5688.53	130.994
5721.37	130.495
5754.4	129.998
5787.62	129.504
5821.03	129.012
5854.64	128.524
5888.44	128.037
5922.43	127.554
5956.62	127.072
5991.01	126.594
6025.6	126.118
6060.38	125.644
6095.37	125.173
6130.56	124.705
6165.95	124.239
6201.55	123.775
6237.35	123.314
6273.36	122.855
6309.57	122.399
6346	121.945
6382.63	121.494
6419.48	121.045
6456.54	120.598
6493.82	120.154
6531.31	119.712
6569.01	119.273
6606.93	118.836
6645.08	118.401
6683.44	117.968
6722.02	117.538
6760.83	117.11
6799.86	116.685
6839.12	116.262
6878.6	115.841
6918.31	115.422
6958.25	115.005
6998.42	114.591
7038.82	114.179
7079.46	113.769
7120.33	113.362
7161.43	112.957
7202.78	112.553
7244.36	112.153
7286.18	111.754
7328.25	111.357
7370.55	110.963
7413.1	110.57
7455.9	110.18
7498.94	109.792
7542.23	109.406
7585.78	109.022
7629.57	108.641
7673.61	108.261
7717.92	107.883
7762.47	107.508
7807.28	107.134
7852.36	106.763
7897.69	106.393
7943.28	106.026
7989.14	105.661
8035.26	105.297
8081.65	104.936
8128.31	104.577
8175.23	104.219
8222.43	103.864
8269.9	103.511
8317.64	103.159
8365.66	102.809
8413.95	102.462
8462.53	102.116
8511.38	101.772
8560.52	101.431
8609.94	101.091
8659.64	100.753
8709.64	100.416
8759.92	100.082
8810.49	99.7497
8861.35	99.4191
8912.51	99.0904
8963.96	98.7635
9015.71	98.4384
9067.76	98.1151
9120.11	97.7937
9172.76	97.4741
9225.71	97.1563
9278.97	96.8402
9332.54	96.526
9386.42	96.2135
9440.61	95.9028
9495.11	95.5938
9549.93	95.2866
9605.06	94.9811
9660.51	94.6774
9716.28	94.3754
9772.37	94.075
9828.79	93.7764
9885.53	93.4796
9942.6	93.1843
10000	92.8908
10057.7	92.599
10115.8	92.3088
10174.2	92.0203
10232.9	91.7335
10292	91.4483
10351.4	91.1647
10411.2	90.8827
10471.3	90.6024
10531.7	90.3237
10592.5	90.0466
10653.7	89.7711
10715.2	89.4972
10777.1	89.2249
10839.3	88.9541
10901.8	88.685
10964.8	88.4174
11028.1	88.1513
11091.7	87.8868
11155.8	87.6239
11220.2	87.3625
11285	87.1026
11350.1	86.8442
11415.6	86.5874
11481.5	86.332
11547.8	86.0782
11614.5	85.8258
11681.5	85.575
11749	85.3256
11816.8	85.0777
11885	84.8313
11953.6	84.5863
12022.6	84.3427
12092.1	84.1007
12161.9	83.86
12232.1	83.6208
12302.7	83.383
12373.7	83.1467
12445.1	82.9117
12517	82.6782
12589.3	82.4461
12661.9	82.2153
12735	81.986
12808.6	81.758
12882.5	81.5314
12956.9	81.3062
13031.7	81.0823
13106.9	80.8598
13182.6	80.6387
13258.7	80.4189
13335.2	80.2004
13412.2	79.9832
13489.6	79.7674
13567.5	79.5529
13645.8	79.3398
13724.6	79.1279
13803.8	78.9173
13883.5	78.708
13963.7	78.5001
14044.3	78.2934
14125.4	78.0879
14206.9	77.8838
14288.9	77.6809
14371.4	77.4793
14454.4	77.2789
14537.8	77.0798
14621.8	76.8819
14706.2	76.6853
14791.1	76.4899
14876.5	76.2957
14962.4	76.1027
15048.7	75.911
15135.6	75.7205
15223	75.5312
15310.9	75.343
15399.3	75.1561
15488.2	74.9704
15577.6	74.7858
15667.5	74.6024
15758	74.4202
15848.9	74.2392
15940.4	74.0593
16032.5	73.8806
16125	73.703
16218.1	73.5266
16311.7	73.3513
16405.9	73.1771
16500.6	73.0041
16595.9	72.8322
16691.7	72.6614
16788	72.4918
16885	72.3232
16982.4	72.1558
17080.5	71.9894
17179.1	71.8242
17278.3	71.66
17378	71.4969
17478.3	71.335
17579.2	71.174
17680.7	71.0142
17782.8	70.8554
17885.5	70.6977
17988.7	70.541
18092.6	70.3854
18197	70.2308
18302.1	70.0773
18407.7	69.9248
18514	69.7734
18620.9	69.6229
18728.4	69.4735
18836.5	69.3251
18945.2	69.1778
19054.6	69.0314
19164.6	68.886
19275.2	68.7417
19386.5	68.5983
19498.4	68.4559
19611	68.3146
19724.2	68.1741
19838.1	68.0347
19952.6	67.8963
20067.8	67.7588
20183.7	67.6223
20300.2	67.4867
20417.4	67.3521
20535.3	67.2185
20653.8	67.0858
20773	66.954
20893	66.8232
21013.6	66.6933
21134.9	66.5643
21256.9	66.4363
21379.6	66.3092
21503	66.183
21627.2	66.0577
21752	65.9334
21877.6	65.8099
22003.9	65.6874
22130.9	65.5657
22258.7	65.4449
22387.2	65.3251
22516.5	65.2061
22646.4	65.088
22777.2	64.9707
22908.7	64.8544
23040.9	64.7389
23173.9	64.6243
23307.7	64.5105
23442.3	64.3976
23577.6	64.2855
23713.7	64.1743
23850.6	64.064
23988.3	63.9545
24126.8	63.8458
24266.1	63.738
24406.2	63.631
24547.1	63.5248
24688.8	63.4194
24831.3	63.3149
24974.7	63.2112
25118.9	63.1083
25263.9	63.0062
25409.7	62.9049
25556.4	62.8044
25704	62.7047
25852.3	62.6058
26001.6	62.5077
26151.7	62.4104
26302.7	62.3139
26454.5	62.2181
26607.3	62.1232
26760.9	62.029
26915.3	61.9355
27070.7	61.8429
27227	61.751
27384.2	61.6598
27542.3	61.5694
27701.3	61.4798
27861.2	61.3909
28022.1	61.3028
28183.8	61.2154
28346.5	61.1287
28510.2	61.0428
28674.8	60.9576
28840.3	60.8732
29006.8	60.7894
29174.3	60.7064
29342.7	60.6241
29512.1	60.5426
29682.5	60.4617
29853.8	60.3816
30026.2	60.3021
30199.5	60.2234
30373.9	60.1453
30549.2	60.068
30725.6	59.9913
30903	59.9138
31081.4	59.8322
31260.8	59.7512
31441.3	59.6709
31622.8	59.5913
31805.3	59.5123
31989	59.434
32173.6	59.3564
32359.4	59.2794
32546.2	59.2031
32734.1	59.1274
32923	59.0524
33113.1	58.978
33304.3	58.9043
33496.5	58.8312
33689.9	58.7587
33884.4	58.6869
34080	58.6156
34276.8	58.545
34474.7	58.4751
34673.7	58.4057
34873.9	58.337
35075.2	58.2689
35277.7	58.2014
35481.3	58.1344
35686.2	58.0681
35892.2	58.0024
36099.4	57.9373
36307.8	57.8728
36517.4	57.8089
36728.2	57.7456
36940.3	57.6829
37153.5	57.6207
37368	57.5591
37583.7	57.4981
37800.7	57.4377
38018.9	57.3778
38238.4	57.3186
38459.2	57.2598
38681.2	57.2017
38904.5	57.1441
39129.1	57.0871
39355	57.0306
39582.2	56.9747
39810.7	56.9193
40040.5	56.8644
40271.7	56.8102
40504.2	56.7564
40738	56.7032
40973.2	56.6505
41209.8	56.5984
41447.7	56.5468
41686.9	56.4957
41927.6	56.4452
42169.7	56.3951
42413.1	56.3456
42658	56.2966
42904.2	56.2481
43151.9	56.2002
43401	56.1527
43651.6	56.1058
43903.6	56.0593
44157	56.0134
44412	55.9679
44668.4	55.923
44926.2	55.8785
45185.6	55.8346
45446.5	55.7911
45708.8	55.7481
45972.7	55.7056
46238.1	55.6636
46505	55.622
46773.5	55.581
47043.5	55.5404
47315.1	55.5003
47588.3	55.4606
47863	55.4214
48139.3	55.3827
48417.2	55.3444
48696.8	55.3066
48977.9	55.2693
49260.6	55.2324
49545	55.196
49831	55.16
50118.7	55.1244
50408.1	55.0894
50699.1	55.0547
50991.8	55.0205
51286.1	54.9867
51582.2	54.9534
51880	54.9205
52179.5	54.888
52480.7	54.856
52783.7	54.8243
53088.4	54.7931
53394.9	54.7624
53703.2	54.732
54013.2	54.7021
54325	54.6726
54638.7	54.6435
54954.1	54.6148
55271.3	54.5865
55590.4	54.5586
55911.4	54.5311
56234.1	54.504
56558.8	54.4773
56885.3	54.4511
57213.7	54.4252
57544	54.3997
57876.2	54.3746
58210.3	54.3499
58546.4	54.3255
58884.4	54.3016
59224.3	54.278
59566.2	54.2549
59910.1	54.232
60256	54.2096
60603.8	54.1876
60953.7	54.1659
61305.6	54.1446
61659.5	54.1236
62015.5	54.103
62373.5	54.0828
62733.6	54.063
63095.7	54.0435
63460	54.0243
63826.3	54.0055
64194.8	53.9871
64565.4	53.969
64938.2	53.9513
65313.1	53.9339
65690.1	53.9169
66069.3	53.9002
66450.8	53.8838
66834.4	53.8678
67220.2	53.8521
67608.3	53.8368
67998.6	53.8218
68391.2	53.8071
68786	53.7927
69183.1	53.7787
69582.5	53.765
69984.2	53.7516
70388.2	53.7386
70794.6	53.7258
71203.3	53.7134
71614.3	53.7013
72027.8	53.6895
72443.6	53.678
72861.8	53.6669
73282.5	53.656
73705.5	53.6455
74131	53.6352
74559	53.6253
74989.4	53.6156
75422.3	53.6063
75857.8	53.5972
76295.7	53.5885
76736.1	53.58
77179.2	53.5719
77624.7	53.564
78072.8	53.5564
78523.6	53.5491
78976.9	53.5421
79432.8	53.5354
79891.4	53.5289
80352.6	53.5227
80816.5	53.5168
81283.1	53.5112
81752.3	53.5059
82224.3	53.5008
82699	53.496
83176.4	53.4915
83656.6	53.4872
84139.5	53.4832
84625.3	53.4795
85113.8	53.476
85605.2	53.4728
86099.4	53.4698
86596.4	53.4672
87096.4	53.4647
87599.2	53.4625
88104.9	53.4606
88613.5	53.4589
89125.1	53.4575
89639.6	53.4563
90157.1	53.4554
90677.6	53.4547
91201.1	53.4542
91727.6	53.454
92257.1	53.4541
92789.7	53.4543
93325.4	53.4548
93864.2	53.4556
94406.1	53.4565
94951.1	53.4578
95499.3	53.4592
96050.6	53.4609
96605.1	53.4627
97162.8	53.4649
97723.7	53.4672
98287.9	53.4698
98855.3	53.4726
99426	53.4756
100000	53.4788
100577	53.4822
101158	53.4859
101742	53.4898
102329	53.4939
102920	53.4982
103514	53.5027
104112	53.5074
104713	53.5123
105317	53.5174
105925	53.5227
106537	53.5283
107152	53.534
107771	53.5399
108393	53.5461
109018	53.5524
109648	53.5589
110281	53.5656
110917	53.5725
111558	53.5796
112202	53.5869
112850	53.5944
113501	53.6021
114156	53.6099
114815	53.618
115478	53.6262
116145	53.6346
116815	53.6432
117490	53.6519
118168	53.6609
118850	53.67
119536	53.6793
120226	53.6887
120921	53.6984
121619	53.7082
122321	53.7182
123027	53.7283
123737	53.7386
124451	53.7491
125170	53.7598
125893	53.7706
126619	53.7816
127350	53.7927
128086	53.804
128825	53.8154
129569	53.8271
130317	53.8388
131069	53.8508
131826	53.8628
132587	53.8751
133352	53.8875
134122	53.9
134896	53.9127
135675	53.9255
136458	53.9385
137246	53.9517
138038	53.9649
138835	53.9784
139637	53.9919
140443	54.0056
141254	54.0195
142069	54.0335
142889	54.0476
143714	54.0618
144544	54.0762
145378	54.0908
146218	54.1054
147062	54.1203
147911	54.1352
148765	54.1503
149624	54.1654
150487	54.1808
151356	54.1962
152230	54.2118
153109	54.2275
153993	54.2433
154882	54.2593
155776	54.2754
156675	54.2916
157580	54.3079
158489	54.3243
159404	54.3409
160325	54.3576
161250	54.3744
162181	54.3913
163117	54.4083
164059	54.4254
165006	54.4427
165959	54.46
166917	54.4775
167880	54.4951
168850	54.5128
169824	54.5306
170805	54.5485
171791	54.5665
172783	54.5846
173780	54.6029
174783	54.6212
175792	54.6396
176807	54.6582
177828	54.6768
178855	54.6955
179887	54.7144
180926	54.7333
181970	54.7523
183021	54.7715
184077	54.7907
185140	54.81
186209	54.8294
187284	54.8489
188365	54.8685
189452	54.8882
190546	54.908
191646	54.9279
192752	54.9478
193865	54.9679
194984	54.988
196110	55.0082
197242	55.0286
198381	55.0489
199526	55.0694
200678	55.09
201837	55.1106
203002	55.1314
204174	55.1522
205353	55.1731
206538	55.194
207730	55.2151
208930	55.2362
210136	55.2574
211349	55.2787
212569	55.3001
213796	55.3215
215030	55.343
216272	55.3646
217520	55.3863
218776	55.408
220039	55.4298
221309	55.4517
222587	55.4736
223872	55.4956
225165	55.5177
226464	55.5399
227772	55.5621
229087	55.5844
230409	55.6067
231739	55.6291
233077	55.6516
234423	55.6742
235776	55.6968
237137	55.7195
238506	55.7422
239883	55.765
241268	55.7879
242661	55.8108
244062	55.8338
245471	55.8568
246888	55.8799
248313	55.9031
249747	55.9263
251189	55.9496
252639	55.9729
254097	55.9963
255564	56.0197
257040	56.0432
258523	56.0668
260016	56.0904
261517	56.114
263027	56.1377
264545	56.1615
266073	56.1853
267609	56.2092
269153	56.2331
270707	56.2571
272270	56.2811
273842	56.3051
275423	56.3293
277013	56.3534
278612	56.3776
280221	56.4019
281838	56.4262
283465	56.4505
285102	56.4749
286748	56.4993
288403	56.5238
290068	56.5483
291743	56.5729
293427	56.5975
295121	56.6221
296825	56.6468
298538	56.6716
300262	56.6963
301995	56.7211
303739	56.746
305492	56.7709
307256	56.7958
309030	56.8208
310814	56.8458
312608	56.8708
314413	56.8959
316228	56.921
318053	56.9462
319890	56.9714
321736	56.9966
323594	57.0218
325462	57.0471
327341	57.0725
329230	57.0978
331131	57.1232
333043	57.1486
334965	57.1741
336899	57.1996
338844	57.2251
340800	57.2506
342768	57.2762
344747	57.3018
346737	57.3275
348739	57.3531
350752	57.3788
352777	57.4046
354813	57.4303
356862	57.4561
358922	57.4819
360994	57.5077
363078	57.5336
365174	57.5595
367282	57.5854
369403	57.6114
371535	57.6373
373680	57.6633
375837	57.6893
378007	57.7154
380189	57.7414
382384	57.7675
384592	57.7936
386812	57.8198
389045	57.8459
391291	57.8721
393550	57.8983
395822	57.9245
398107	57.9508
400405	57.977
402717	58.0033
405042	58.0296
407380	58.056
409732	58.0823
412098	58.1087
414477	58.1351
416869	58.1615
419276	58.1879
421697	58.2143
424131	58.2408
426580	58.2672
429042	58.2937
431519	58.3202
434010	58.3468
436516	58.3733
439036	58.3999
441570	58.4264
444120	58.453
446684	58.4796
449262	58.5062
451856	58.5329
454465	58.5595
457088	58.5862
459727	58.6129
462381	58.6396
465050	58.6663
467735	58.693
470435	58.7197
473151	58.7465
475883	58.7732
478630	58.8
481393	58.8268
484172	58.8535
486968	58.8803
489779	58.9072
492606	58.934
495450	58.9608
498310	58.9877
501187	59.0145
504081	59.0414
506991	59.0683
509918	59.0951
512861	59.122
515822	59.1489
518800	59.1759
521795	59.2028
524807	59.2297
527837	59.2567
530884	59.2836
533949	59.3106
537032	59.3375
540132	59.3645
543250	59.3915
546387	59.4184
549541	59.4454
552713	59.4724
555904	59.4994
559114	59.5265
562341	59.5535
565588	59.5805
568853	59.6075
572137	59.6346
575440	59.6616
578762	59.6886
582103	59.7157
585464	59.7428
588844	59.7698
592243	59.7969
595662	59.8239
599101	59.851
602560	59.8781
606038	59.9052
609537	59.9323
613056	59.9593
616595	59.9864
620155	60.0135
623735	60.0406
627336	60.0677
630957	60.0948
634600	60.1219
638263	60.149
641948	60.1762
645654	60.2033
649382	60.2304
653131	60.2575
656901	60.2846
660693	60.3117
664508	60.3389
668344	60.366
672202	60.3931
676083	60.4202
679986	60.4474
683912	60.4745
687860	60.5016
691831	60.5287
695825	60.5559
699842	60.583
703882	60.6101
707946	60.6372
712033	60.6644
716143	60.6915
720278	60.7186
724436	60.7457
728618	60.7729
732825	60.8
737055	60.8271
741310	60.8542
745590	60.8813
749894	60.9085
754223	60.9356
758578	60.9627
762957	60.9898
767361	61.0169
771792	61.044
776247	61.0711
780728	61.0982
785236	61.1253
789769	61.1524
794328	61.1795
798914	61.2066
803526	61.2337
808165	61.2608
812831	61.2879
817523	61.315
822243	61.3421
826990	61.3692
831764	61.3962
836566	61.4233
841395	61.4504
846253	61.4774
851138	61.5045
856052	61.5316
860994	61.5586
865964	61.5857
870964	61.6127
875992	61.6397
881049	61.6668
886135	61.6938
891251	61.7208
896396	61.7479
901571	61.7749
906776	61.8019
912011	61.8289
917276	61.8559
922571	61.8829
927897	61.9099
933254	61.9369
938642	61.9639
944061	61.9909
949511	62.0178
954993	62.0448
960506	62.0718
966051	62.0987
971628	62.1257
977237	62.1526
982879	62.1796
988553	62.2065
994260	62.2334
1e+06	62.2604
1.00577e+06	62.2873
1.01158e+06	62.3142
1.01742e+06	62.3411
1.02329e+06	62.368
1.0292e+06	62.3949
1.03514e+06	62.4218
1.04112e+06	62.4487
1.04713e+06	62.4756
1.05317e+06	62.5024
1.05925e+06	62.5293
1.06537e+06	62.5561
1.07152e+06	62.583
1.07771e+06	62.6098
1.08393e+06	62.6367
1.09018e+06	62.6635
1.09648e+06	62.6903
1.10281e+06	62.7171
1.10917e+06	62.7439
1.11558e+06	62.7707
1.12202e+06	62.7975
1.1285e+06	62.8243
1.13501e+06	62.8511
1.14156e+06	62.8779
1.14815e+06	62.9046
1.15478e+06	62.9314
1.16145e+06	62.9581
1.16815e+06	62.9849
1.1749e+06	63.0116
1.18168e+06	63.0384
1.1885e+06	63.0651
1.19536e+06	63.0918
1.20226e+06	63.1185
1.20921e+06	63.1452
1.21619e+06	63.1719
1.22321e+06	63.1986
1.23027e+06	63.2252
1.23737e+06	63.2519
1.24451e+06	63.2785
1.2517e+06	63.3052
1.25893e+06	63.3318
1.26619e+06	63.3585
1.2735e+06	63.3851
1.28086e+06	63.4117
1.28825e+06	63.4383
1.29569e+06	63.4649
1.30317e+06	63.4915
1.31069e+06	63.5181
1.31826e+06	63.5447
1.32587e+06	63.5712
1.33352e+06	63.5978
1.34122e+06	63.6243
1.34896e+06	63.6509
1.35675e+06	63.6774
1.36458e+06	63.7039
1.37246e+06	63.7305
1.38038e+06	63.757
1.38835e+06	63.7835
1.39637e+06	63.8099
1.40443e+06	63.8364
1.41254e+06	63.8629
1.42069e+06	63.8894
1.42889e+06	63.9158
1.43714e+06	63.9423
1.44544e+06	63.9687
1.45378e+06	63.9951
1.46218e+06	64.0215
1.47062e+06	64.0479
1.47911e+06	64.0743
1.48765e+06	64.1007
1.49624e+06	64.1271
1.50487e+06	64.1535
1.51356e+06	64.1798
1.5223e+06	64.2062
1.53109e+06	64.2325
1.53993e+06	64.2589
1.54882e+06	64.2852
1.55776e+06	64.3115
1.56675e+06	64.3378
1.5758e+06	64.3641
1.58489e+06	64.3904
1.59404e+06	64.4167
1.60325e+06	64.4429
1.6125e+06	64.4692
1.62181e+06	64.4955
1.63117e+06	64.5217
1.64059e+06	64.5479
1.65006e+06	64.5741
1.65959e+06	64.6004
1.66917e+06	64.6266
1.6788e+06	64.6527
1.6885e+06	64.6789
1.69824e+06	64.7051
1.70805e+06	64.7313
1.71791e+06	64.7574
1.72783e+06	64.7836
1.7378e+06	64.8097
1.74783e+06	64.8358
1.75792e+06	64.8619
1.76807e+06	64.888
1.77828e+06	64.9141
1.78855e+06	64.9402
1.79887e+06	64.9663
1.80926e+06	64.9923
1.8197e+06	65.0184
1.83021e+06	65.0444
1.84077e+06	65.0705
1.8514e+06	65.0965
1.86209e+06	65.1225
1.87284e+06	65.1485
1.88365e+06	65.1745
1.89452e+06	65.2005
1.90546e+06	65.2264
1.91646e+06	65.2524
1.92752e+06	65.2783
1.93865e+06	65.3043
1.94984e+06	65.3302
1.9611e+06	65.3561
1.97242e+06	65.382
1.98381e+06	65.4079
1.99526e+06	65.4338
2.00678e+06	65.4597
2.01837e+06	65.4856
2.03002e+06	65.5114
2.04174e+06	65.5373
2.05353e+06	65.5631
2.06538e+06	65.589
2.0773e+06	65.6148
2.0893e+06	65.6406
2.10136e+06	65.6664
2.11349e+06	65.6922
2.12569e+06	65.7179
2.13796e+06	65.7437
2.1503e+06	65.7694
2.16272e+06	65.7952
2.1752e+06	65.8209
2.18776e+06	65.8466
2.20039e+06	65.8724
2.21309e+06	65.8981
2.22587e+06	65.9237
2.23872e+06	65.9494
2.25165e+06	65.9751
2.26464e+06	66.0008
2.27772e+06	66.0264
2.29087e+06	66.052
2.30409e+06	66.0777
2.31739e+06	66.1033
2.33077e+06	66.1289
2.34423e+06	66.1545
2.35776e+06	66.1801
2.37137e+06	66.2056
2.38506e+06	66.2312
2.39883e+06	66.2567
2.41268e+06	66.2823
2.42661e+06	66.3078
2.44062e+06	66.3333
2.45471e+06	66.3588
2.46888e+06	66.3843
2.48313e+06	66.4098
2.49747e+06	66.4353
2.51189e+06	66.4608
2.52639e+06	66.4862
2.54097e+06	66.5116
2.55564e+06	66.5371
2.5704e+06	66.5625
2.58523e+06	66.5879
2.60016e+06	66.6133
2.61517e+06	66.6387
2.63027e+06	66.6641
2.64545e+06	66.6894
2.66073e+06	66.7148
2.67609e+06	66.7401
2.69153e+06	66.7655
2.70707e+06	66.7908
2.7227e+06	66.8161
2.73842e+06	66.8414
2.75423e+06	66.8667
2.77013e+06	66.892
2.78612e+06	66.9172
2.80221e+06	66.9425
2.81838e+06	66.9677
2.83465e+06	66.993
2.85102e+06	67.0182
2.86748e+06	67.0434
2.88403e+06	67.0686
2.90068e+06	67.0938
2.91743e+06	67.119
2.93427e+06	67.1441
2.95121e+06	67.1693
2.96825e+06	67.1944
2.98538e+06	67.2195
3.00262e+06	67.2447
3.01995e+06	67.2698
3.03739e+06	67.2949
3.05492e+06	67.32
3.07256e+06	67.345
3.0903e+06	67.3701
3.10814e+06	67.3952
3.12608e+06	67.4202
3.14413e+06	67.4452
3.16228e+06	67.4703
3.18053e+06	67.4953
3.1989e+06	67.5203
3.21736e+06	67.5452
3.23594e+06	67.5702
3.25462e+06	67.5952
3.27341e+06	67.6201
3.2923e+06	67.6451
3.31131e+06	67.67
3.33043e+06	67.6949
3.34965e+06	67.7198
3.36899e+06	67.7447
3.38844e+06	67.7696
3.408e+06	67.7945
3.42768e+06	67.8193
3.44747e+06	67.8442
3.46737e+06	67.869
3.48739e+06	67.8939
3.50752e+06	67.9187
3.52777e+06	67.9435
3.54813e+06	67.9683
3.56862e+06	67.993
3.58922e+06	68.0178
3.60994e+06	68.0426
3.63078e+06	68.0673
3.65174e+06	68.0921
3.67282e+06	68.1168
3.69403e+06	68.1415
3.71535e+06	68.1662
3.7368e+06	68.1909
3.75837e+06	68.2156
3.78007e+06	68.2402
3.80189e+06	68.2649
3.82384e+06	68.2895
3.84592e+06	68.3141
3.86812e+06	68.3388
3.89045e+06	68.3634
3.91291e+06	68.388
3.9355e+06	68.4126
3.95822e+06	68.4371
3.98107e+06	68.4617
4.00405e+06	68.4862
4.02717e+06	68.5108
4.05042e+06	68.5353
4.0738e+06	68.5598
4.09732e+06	68.5843
4.12098e+06	68.6088
4.14477e+06	68.6333
4.16869e+06	68.6578
4.19276e+06	68.6822
4.21697e+06	68.7067
4.24131e+06	68.7311
4.2658e+06	68.7555
4.29042e+06	68.7799
4.31519e+06	68.8043
4.3401e+06	68.8287
4.36516e+06	68.8531
4.39036e+06	68.8774
4.4157e+06	68.9018
4.4412e+06	68.9261
4.46684e+06	68.9505
4.49262e+06	68.9748
4.51856e+06	68.9991
4.54465e+06	69.0234
4.57088e+06	69.0477
4.59727e+06	69.0719
4.62381e+06	69.0962
4.6505e+06	69.1204
4.67735e+06	69.1447
4.70435e+06	69.1689
4.73151e+06	69.1931
4.75883e+06	69.2173
4.7863e+06	69.2415
4.81393e+06	69.2656
4.84172e+06	69.2898
4.86968e+06	69.3139
4.89779e+06	69.3381
4.92606e+06	69.3622
4.9545e+06	69.3863
4.9831e+06	69.4104
5.01187e+06	69.4345
5.04081e+06	69.4586
5.06991e+06	69.4827
5.09918e+06	69.5067
5.12861e+06	69.5308
5.15822e+06	69.5548
5.188e+06	69.5788
5.21795e+06	69.6028
5.24807e+06	69.6268
5.27837e+06	69.6508
5.30884e+06	69.6748
5.33949e+06	69.6987
5.37032e+06	69.7227
5.40132e+06	69.7466
5.4325e+06	69.7705
5.46387e+06	69.7944
5.49541e+06	69.8183
5.52713e+06	69.8422
5.55904e+06	69.8661
5.59114e+06	69.8899
5.62341e+06	69.9138
5.65588e+06	69.9376
5.68853e+06	69.9614
5.72137e+06	69.9853
5.7544e+06	70.0091
5.78762e+06	70.0328
5.82103e+06	70.0566
5.85464e+06	70.0804
5.88844e+06	70.1041
5.92243e+06	70.1279
5.95662e+06	70.1516
5.99101e+06	70.1753
6.0256e+06	70.199
6.06038e+06	70.2227
6.09537e+06	70.2464
6.13056e+06	70.2701
6.16595e+06	70.2937
6.20155e+06	70.3173
6.23735e+06	70.341
6.27336e+06	70.3646
6.30957e+06	70.3882
6.346e+06	70.4118
6.38263e+06	70.4354
6.41948e+06	70.4589
6.45654e+06	70.4825
6.49382e+06	70.506
6.53131e+06	70.5296
6.56901e+06	70.5531
6.60693e+06	70.5766
6.64508e+06	70.6001
6.68344e+06	70.6236
6.72202e+06	70.647
6.76083e+06	70.6705
6.79986e+06	70.6939
6.83912e+06	70.7173
6.8786e+06	70.7408
6.91831e+06	70.7642
6.95825e+06	70.7876
6.99842e+06	70.8109
7.03882e+06	70.8343
7.07946e+06	70.8577
7.12033e+06	70.881
7.16143e+06	70.9043
7.20278e+06	70.9277
7.24436e+06	70.951
7.28618e+06	70.9743
7.32825e+06	70.9975
7.37055e+06	71.0208
7.4131e+06	71.0441
7.4559e+06	71.0673
7.49894e+06	71.0905
7.54223e+06	71.1137
7.58578e+06	71.137
7.62957e+06	71.1601
7.67361e+06	71.1833
7.71792e+06	71.2065
7.76247e+06	71.2296
7.80728e+06	71.2528
7.85236e+06	71.2759
7.89769e+06	71.299
7.94328e+06	71.3221
7.98914e+06	71.3452
8.03526e+06	71.3683
8.08165e+06	71.3914
8.12831e+06	71.4144
8.17523e+06	71.4375
8.22243e+06	71.4605
8.2699e+06	71.4835
8.31764e+06	71.5065
8.36566e+06	71.5295
8.41395e+06	71.5525
8.46253e+06	71.5754
8.51138e+06	71.5984
8.56052e+06	71.6213
8.60994e+06	71.6442
8.65964e+06	71.6671
8.70964e+06	71.69
8.75992e+06	71.7129
8.81049e+06	71.7358
8.86135e+06	71.7586
8.91251e+06	71.7815
8.96396e+06	71.8043
9.01571e+06	71.8271
9.06776e+06	71.85
9.12011e+06	71.8727
9.17276e+06	71.8955
9.22571e+06	71.9183
9.27897e+06	71.941
9.33254e+06	71.9638
9.38642e+06	71.9865
9.44061e+06	72.0092
9.49511e+06	72.0319
9.54993e+06	72.0546
9.60506e+06	72.0773
9.66051e+06	72.1
9.71628e+06	72.1226
9.77237e+06	72.1453
9.82879e+06	72.1679
9.88553e+06	72.1905
9.9426e+06	72.2131
1e+07	72.2357
