Stopping power dEdx from Ionisation for Sc45[0.0] Z = 21 in Water, process name: ionIoni
E [MeV]	dEdx [MeV/mm]
0.001	22.8878
0.00100577	22.9541
0.00101158	23.0207
0.00101742	23.0874
0.00102329	23.1543
0.0010292	23.2214
0.00103514	23.2888
0.00104112	23.3563
0.00104713	23.424
0.00105317	23.4919
0.00105925	23.56
0.00106537	23.6283
0.00107152	23.6967
0.00107771	23.7654
0.00108393	23.8343
0.00109018	23.9034
0.00109648	23.9727
0.00110281	24.0422
0.00110917	24.1118
0.00111558	24.1817
0.00112202	24.2518
0.0011285	24.3221
0.00113501	24.3926
0.00114156	24.4633
0.00114815	24.5342
0.00115478	24.6053
0.00116145	24.6766
0.00116815	24.7481
0.0011749	24.8198
0.00118168	24.8917
0.0011885	24.9638
0.00119536	25.0362
0.00120226	25.1087
0.00120921	25.1815
0.00121619	25.2544
0.00122321	25.3276
0.00123027	25.401
0.00123737	25.4746
0.00124451	25.5484
0.0012517	25.6224
0.00125893	25.6967
0.00126619	25.7711
0.0012735	25.8458
0.00128086	25.9207
0.00128825	25.9957
0.00129569	26.0711
0.00130317	26.1466
0.00131069	26.2223
0.00131826	26.2983
0.00132587	26.3745
0.00133352	26.4509
0.00134122	26.5275
0.00134896	26.6043
0.00135675	26.6814
0.00136458	26.7587
0.00137246	26.8362
0.00138038	26.9139
0.00138835	26.9919
0.00139637	27.0701
0.00140443	27.1485
0.00141254	27.2271
0.00142069	27.306
0.00142889	27.3851
0.00143714	27.4644
0.00144544	27.5439
0.00145378	27.6237
0.00146218	27.7037
0.00147062	27.784
0.00147911	27.8644
0.00148765	27.9451
0.00149624	28.026
0.00150487	28.1072
0.00151356	28.1886
0.0015223	28.2702
0.00153109	28.3521
0.00153993	28.4342
0.00154882	28.5165
0.00155776	28.5991
0.00156675	28.6819
0.0015758	28.765
0.00158489	28.8483
0.00159404	28.9318
0.00160325	29.0156
0.0016125	29.0996
0.00162181	29.1839
0.00163117	29.2684
0.00164059	29.3531
0.00165006	29.4381
0.00165959	29.5233
0.00166917	29.6088
0.0016788	29.6945
0.0016885	29.7805
0.00169824	29.8667
0.00170805	29.9532
0.00171791	30.0399
0.00172783	30.1269
0.0017378	30.2141
0.00174783	30.3016
0.00175792	30.3893
0.00176807	30.4773
0.00177828	30.5655
0.00178855	30.654
0.00179887	30.7427
0.00180926	30.8317
0.0018197	30.921
0.00183021	31.0105
0.00184077	31.1002
0.0018514	31.1903
0.00186209	31.2806
0.00187284	31.3711
0.00188365	31.4619
0.00189452	31.553
0.00190546	31.6443
0.00191646	31.7359
0.00192752	31.8278
0.00193865	31.9199
0.00194984	32.0123
0.0019611	32.1049
0.00197242	32.1978
0.00198381	32.291
0.00199526	32.3845
0.00200678	32.4782
0.00201837	32.5722
0.00203002	32.6665
0.00204174	32.761
0.00205353	32.8558
0.00206538	32.9509
0.0020773	33.0463
0.0020893	33.1419
0.00210136	33.2378
0.00211349	33.334
0.00212569	33.4305
0.00213796	33.5272
0.0021503	33.6242
0.00216272	33.7215
0.0021752	33.8191
0.00218776	33.917
0.00220039	34.0151
0.00221309	34.1135
0.00222587	34.2122
0.00223872	34.3112
0.00225165	34.4105
0.00226464	34.5101
0.00227772	34.6099
0.00229087	34.7101
0.00230409	34.8105
0.00231739	34.9112
0.00233077	35.0122
0.00234423	35.1135
0.00235776	35.2151
0.00237137	35.317
0.00238506	35.4192
0.00239883	35.5217
0.00241268	35.6244
0.00242661	35.7275
0.00244062	35.8309
0.00245471	35.9345
0.00246888	36.0385
0.00248313	36.1427
0.00249747	36.2473
0.00251189	36.3521
0.00252639	36.4573
0.00254097	36.5628
0.00255564	36.6685
0.0025704	36.7746
0.00258523	36.881
0.00260016	36.9877
0.00261517	37.0947
0.00263027	37.202
0.00264545	37.3096
0.00266073	37.4175
0.00267609	37.5258
0.00269153	37.6343
0.00270707	37.7432
0.0027227	37.8523
0.00273842	37.9618
0.00275423	38.0716
0.00277013	38.1817
0.00278612	38.2922
0.00280221	38.4029
0.00281838	38.514
0.00283465	38.6254
0.00285102	38.7371
0.00286748	38.8491
0.00288403	38.9615
0.00290068	39.0742
0.00291743	39.1872
0.00293427	39.3005
0.00295121	39.4142
0.00296825	39.5282
0.00298538	39.6425
0.00300262	39.7571
0.00301995	39.8721
0.00303739	39.9874
0.00305492	40.1031
0.00307256	40.219
0.0030903	40.3354
0.00310814	40.452
0.00312608	40.569
0.00314413	40.6863
0.00316228	40.8039
0.00318053	40.9219
0.0031989	41.0403
0.00321736	41.159
0.00323594	41.278
0.00325462	41.3973
0.00327341	41.517
0.0032923	41.6371
0.00331131	41.7575
0.00333043	41.8782
0.00334965	41.9993
0.00336899	42.1208
0.00338844	42.2425
0.003408	42.3647
0.00342768	42.4872
0.00344747	42.61
0.00346737	42.7332
0.00348739	42.8568
0.00350752	42.9807
0.00352777	43.105
0.00354813	43.2296
0.00356862	43.3546
0.00358922	43.4799
0.00360994	43.6056
0.00363078	43.7317
0.00365174	43.8581
0.00367282	43.9849
0.00369403	44.1121
0.00371535	44.2396
0.0037368	44.3675
0.00375837	44.4958
0.00378007	44.6244
0.00380189	44.7534
0.00382384	44.8828
0.00384592	45.0125
0.00386812	45.1427
0.00389045	45.2732
0.00391291	45.404
0.0039355	45.5353
0.00395822	45.6669
0.00398107	45.7989
0.00400405	45.9313
0.00402717	46.0641
0.00405042	46.1973
0.0040738	46.3308
0.00409732	46.4647
0.00412098	46.599
0.00414477	46.7337
0.00416869	46.8688
0.00419276	47.0043
0.00421697	47.1402
0.00424131	47.2764
0.0042658	47.4131
0.00429042	47.5501
0.00431519	47.6876
0.0043401	47.8254
0.00436516	47.9636
0.00439036	48.1023
0.0044157	48.2413
0.0044412	48.3807
0.00446684	48.5206
0.00449262	48.6608
0.00451856	48.8014
0.00454465	48.9425
0.00457088	49.0839
0.00459727	49.2258
0.00462381	49.3681
0.0046505	49.5107
0.00467735	49.6538
0.00470435	49.7973
0.00473151	49.9412
0.00475883	50.0856
0.0047863	50.2303
0.00481393	50.3755
0.00484172	50.5211
0.00486968	50.6671
0.00489779	50.8135
0.00492606	50.9603
0.0049545	51.1076
0.0049831	51.2553
0.00501187	51.4034
0.00504081	51.552
0.00506991	51.7009
0.00509918	51.8504
0.00512861	52.0002
0.00515822	52.1505
0.005188	51.7602
0.00521795	51.9095
0.00524807	52.0593
0.00527837	52.2095
0.00530884	52.3601
0.00533949	52.5112
0.00537032	52.6627
0.00540132	52.8146
0.0054325	52.967
0.00546387	53.1198
0.00549541	53.2731
0.00552713	53.4268
0.00555904	53.581
0.00559114	53.7355
0.00562341	53.8906
0.00565588	54.0461
0.00568853	54.202
0.00572137	54.3584
0.0057544	54.5153
0.00578762	54.6725
0.00582103	54.8303
0.00585464	54.9885
0.00588844	55.1472
0.00592243	55.3063
0.00595662	55.4659
0.00599101	55.6259
0.0060256	55.7864
0.00606038	55.9474
0.00609537	56.1088
0.00613056	56.2707
0.00616595	56.4331
0.00620155	56.5959
0.00623735	56.7592
0.00627336	56.923
0.00630957	57.0872
0.006346	57.2519
0.00638263	57.4171
0.00641948	57.5828
0.00645654	57.749
0.00649382	57.9156
0.00653131	58.0827
0.00656901	58.2503
0.00660693	58.4184
0.00664508	58.587
0.00668344	58.756
0.00672202	58.9256
0.00676083	59.0956
0.00679986	59.2661
0.00683912	59.4371
0.0068786	59.6086
0.00691831	59.7807
0.00695825	59.9532
0.00699842	60.1262
0.00703882	60.2997
0.00707946	60.4737
0.00712033	60.6482
0.00716143	60.8232
0.00720278	60.9987
0.00724436	61.1747
0.00728618	61.3512
0.00732825	61.5283
0.00737055	61.7058
0.0074131	61.8839
0.0074559	62.0625
0.00749894	62.2416
0.00754223	62.4212
0.00758578	62.6013
0.00762957	62.782
0.00767361	62.9631
0.00771792	63.1448
0.00776247	63.3271
0.00780728	63.5098
0.00785236	63.6931
0.00789769	63.8769
0.00794328	64.0612
0.00798914	64.2461
0.00803526	64.4315
0.00808165	64.6175
0.00812831	64.8039
0.00817523	64.9909
0.00822243	65.1785
0.0082699	65.3666
0.00831764	65.5552
0.00836566	65.7444
0.00841395	65.9342
0.00846253	66.1244
0.00851138	66.3153
0.00856052	66.5067
0.00860994	66.6986
0.00865964	66.8911
0.00870964	67.0841
0.00875992	67.2777
0.00881049	67.4719
0.00886135	67.6666
0.00891251	67.8619
0.00896396	68.0578
0.00901571	68.2542
0.00906776	68.4512
0.00912011	68.6487
0.00917276	68.8468
0.00922571	69.0455
0.00927897	69.2448
0.00933254	69.4447
0.00938642	69.6451
0.00944061	69.8461
0.00949511	70.0477
0.00954993	70.2499
0.00960506	70.4526
0.00966051	70.6559
0.00971628	70.8599
0.00977237	71.0644
0.00982879	71.2695
0.00988553	71.4752
0.0099426	71.6815
0.01	71.8884
0.0100577	72.0959
0.0101158	72.304
0.0101742	72.5126
0.0102329	72.7219
0.010292	72.9318
0.0103514	73.1423
0.0104112	73.3534
0.0104713	73.5652
0.0105317	73.7775
0.0105925	73.9905
0.0106537	74.204
0.0107152	74.4182
0.0107771	74.633
0.0108393	74.8484
0.0109018	75.0645
0.0109648	75.2811
0.0110281	75.4984
0.0110917	75.7163
0.0111558	75.9349
0.0112202	76.1541
0.011285	76.3739
0.0113501	76.5944
0.0114156	76.8154
0.0114815	77.0372
0.0115478	77.2595
0.0116145	77.4826
0.0116815	77.7062
0.011749	77.9305
0.0118168	78.1555
0.011885	78.3811
0.0119536	78.6073
0.0120226	78.8342
0.0120921	79.0618
0.0121619	79.29
0.0122321	79.5189
0.0123027	79.7484
0.0123737	79.9787
0.0124451	80.2095
0.012517	80.4411
0.0125893	80.6733
0.0126619	80.9062
0.012735	81.1397
0.0128086	81.3739
0.0128825	81.6089
0.0129569	81.8444
0.0130317	82.0807
0.0131069	82.3177
0.0131826	82.5553
0.0132587	82.7936
0.0133352	83.0326
0.0134122	83.2723
0.0134896	83.5127
0.0135675	83.7538
0.0136458	83.9956
0.0137246	84.2381
0.0138038	84.4813
0.0138835	84.7252
0.0139637	84.9698
0.0140443	85.2151
0.0141254	85.4611
0.0142069	85.7078
0.0142889	85.9552
0.0143714	86.2034
0.0144544	86.4523
0.0145378	86.7019
0.0146218	86.9522
0.0147062	87.2032
0.0147911	87.455
0.0148765	87.7075
0.0149624	87.9607
0.0150487	88.2146
0.0151356	88.4693
0.015223	88.7247
0.0153109	88.9809
0.0153993	89.2378
0.0154882	89.4955
0.0155776	89.7538
0.0156675	90.013
0.015758	90.2729
0.0158489	90.5335
0.0159404	90.7949
0.0160325	91.0571
0.016125	91.32
0.0162181	91.5836
0.0163117	91.8481
0.0164059	92.1133
0.0165006	92.3792
0.0165959	92.6459
0.0166917	92.9135
0.016788	93.1817
0.016885	93.4508
0.0169824	93.7206
0.0170805	93.9912
0.0171791	94.2626
0.0172783	94.5348
0.017378	94.8078
0.0174783	95.0815
0.0175792	95.3561
0.0176807	95.6314
0.0177828	95.9075
0.0178855	96.1845
0.0179887	96.4622
0.0180926	96.7408
0.018197	97.0201
0.0183021	97.3003
0.0184077	97.5812
0.018514	97.863
0.0186209	98.1456
0.0187284	98.429
0.0188365	98.7132
0.0189452	98.9983
0.0190546	99.2842
0.0191646	99.5709
0.0192752	99.8584
0.0193865	100.147
0.0194984	100.436
0.019611	100.726
0.0197242	101.017
0.0198381	101.309
0.0199526	101.601
0.0200678	101.895
0.0201837	102.189
0.0203002	102.484
0.0204174	102.78
0.0205353	103.077
0.0206538	103.374
0.020773	103.673
0.020893	103.972
0.0210136	104.273
0.0211349	104.574
0.0212569	104.876
0.0213796	105.179
0.021503	105.482
0.0216272	105.787
0.021752	106.093
0.0218776	106.399
0.0220039	106.706
0.0221309	107.014
0.0222587	107.324
0.0223872	107.633
0.0225165	107.944
0.0226464	108.256
0.0227772	108.569
0.0229087	108.882
0.0230409	109.197
0.0231739	109.512
0.0233077	109.828
0.0234423	110.146
0.0235776	110.464
0.0237137	110.783
0.0238506	111.103
0.0239883	111.424
0.0241268	111.746
0.0242661	112.068
0.0244062	112.392
0.0245471	112.717
0.0246888	113.042
0.0248313	113.369
0.0249747	113.696
0.0251189	114.025
0.0252639	114.354
0.0254097	114.684
0.0255564	115.016
0.025704	115.348
0.0258523	115.681
0.0260016	116.015
0.0261517	116.35
0.0263027	116.686
0.0264545	117.023
0.0266073	117.362
0.0267609	117.701
0.0269153	118.041
0.0270707	118.382
0.027227	118.724
0.0273842	119.066
0.0275423	119.41
0.0277013	119.755
0.0278612	120.101
0.0280221	120.448
0.0281838	120.796
0.0283465	121.145
0.0285102	121.495
0.0286748	121.846
0.0288403	122.198
0.0290068	122.551
0.0291743	122.905
0.0293427	123.26
0.0295121	123.616
0.0296825	123.974
0.0298538	124.332
0.0300262	124.691
0.0301995	125.051
0.0303739	125.412
0.0305492	125.775
0.0307256	126.138
0.030903	126.503
0.0310814	126.868
0.0312608	127.235
0.0314413	127.602
0.0316228	127.971
0.0318053	128.341
0.031989	128.711
0.0321736	129.083
0.0323594	129.456
0.0325462	129.83
0.0327341	130.205
0.032923	130.582
0.0331131	130.959
0.0333043	131.337
0.0334965	131.717
0.0336899	132.097
0.0338844	132.479
0.03408	132.862
0.0342768	133.246
0.0344747	133.631
0.0346737	134.017
0.0348739	134.404
0.0350752	134.793
0.0352777	135.182
0.0354813	135.573
0.0356862	135.964
0.0358922	136.357
0.0360994	136.751
0.0363078	137.147
0.0365174	137.543
0.0367282	137.94
0.0369403	138.339
0.0371535	138.739
0.037368	139.14
0.0375837	139.542
0.0378007	139.945
0.0380189	140.349
0.0382384	140.755
0.0384592	141.162
0.0386812	141.57
0.0389045	141.979
0.0391291	142.389
0.039355	142.801
0.0395822	143.213
0.0398107	143.627
0.0400405	144.042
0.0402717	144.459
0.0405042	144.876
0.040738	145.295
0.0409732	145.715
0.0412098	146.136
0.0414477	146.558
0.0416869	146.982
0.0419276	147.407
0.0421697	147.833
0.0424131	148.26
0.042658	148.689
0.0429042	149.118
0.0431519	149.549
0.043401	149.982
0.0436516	150.415
0.0439036	150.85
0.044157	151.286
0.044412	151.723
0.0446684	152.162
0.0449262	152.602
0.0451856	153.043
0.0454465	153.485
0.0457088	153.929
0.0459727	154.374
0.0462381	154.82
0.046505	155.267
0.0467735	155.716
0.0470435	156.166
0.0473151	156.618
0.0475883	157.071
0.047863	157.525
0.0481393	157.98
0.0484172	158.437
0.0486968	158.895
0.0489779	159.354
0.0492606	159.815
0.049545	160.277
0.049831	160.74
0.0501187	161.205
0.0504081	161.671
0.0506991	162.138
0.0509918	162.607
0.0512861	163.077
0.0515822	163.549
0.05188	164.021
0.0521795	164.496
0.0524807	164.971
0.0527837	165.448
0.0530884	165.927
0.0533949	166.406
0.0537032	166.887
0.0540132	167.37
0.054325	167.854
0.0546387	168.339
0.0549541	168.826
0.0552713	169.314
0.0555904	169.804
0.0559114	170.295
0.0562341	170.787
0.0565588	171.281
0.0568853	171.776
0.0572137	172.273
0.057544	172.771
0.0578762	173.271
0.0582103	173.772
0.0585464	174.274
0.0588844	174.778
0.0592243	175.283
0.0595662	175.79
0.0599101	176.299
0.060256	176.808
0.0606038	177.32
0.0609537	177.833
0.0613056	178.347
0.0616595	178.863
0.0620155	179.38
0.0623735	179.899
0.0627336	180.419
0.0630957	180.941
0.06346	181.464
0.0638263	181.989
0.0641948	182.515
0.0645654	183.043
0.0649382	183.572
0.0653131	184.103
0.0656901	184.636
0.0660693	185.17
0.0664508	185.705
0.0668344	186.242
0.0672202	186.781
0.0676083	187.321
0.0679986	187.863
0.0683912	188.407
0.068786	188.951
0.0691831	189.498
0.0695825	190.046
0.0699842	190.596
0.0703882	191.147
0.0707946	191.7
0.0712033	192.255
0.0716143	192.811
0.0720278	193.368
0.0724436	193.928
0.0728618	194.489
0.0732825	195.051
0.0737055	195.616
0.074131	196.182
0.074559	196.749
0.0749894	197.318
0.0754223	197.889
0.0758578	198.462
0.0762957	199.036
0.0767361	199.611
0.0771792	200.189
0.0776247	200.768
0.0780728	201.349
0.0785236	201.931
0.0789769	202.516
0.0794328	203.102
0.0798914	203.689
0.0803526	204.279
0.0808165	204.87
0.0812831	205.462
0.0817523	206.057
0.0822243	206.653
0.082699	207.251
0.0831764	207.851
0.0836566	208.452
0.0841395	209.055
0.0846253	209.66
0.0851138	210.267
0.0856052	210.875
0.0860994	211.485
0.0865964	212.097
0.0870964	212.711
0.0875992	213.327
0.0881049	213.944
0.0886135	214.563
0.0891251	215.184
0.0896396	215.807
0.0901571	216.431
0.0906776	217.057
0.0912011	217.686
0.0917276	218.316
0.0922571	218.947
0.0927897	219.581
0.0933254	220.217
0.0938642	220.854
0.0944061	221.493
0.0949511	222.134
0.0954993	222.777
0.0960506	223.422
0.0966051	224.068
0.0971628	224.717
0.0977237	225.367
0.0982879	226.02
0.0988553	226.674
0.099426	227.33
0.1	227.988
0.100577	228.648
0.101158	229.31
0.101742	229.973
0.102329	230.639
0.10292	231.307
0.103514	231.976
0.104112	232.648
0.104713	233.321
0.105317	233.997
0.105925	234.674
0.106537	235.353
0.107152	236.035
0.107771	236.718
0.108393	237.403
0.109018	238.091
0.109648	238.78
0.110281	239.471
0.110917	240.165
0.111558	240.86
0.112202	241.557
0.11285	242.257
0.113501	242.958
0.114156	243.661
0.114815	244.367
0.115478	245.074
0.116145	245.784
0.116815	246.496
0.11749	247.209
0.118168	247.925
0.11885	248.643
0.119536	249.363
0.120226	250.085
0.120921	250.809
0.121619	251.536
0.122321	252.264
0.123027	252.994
0.123737	253.727
0.124451	254.462
0.12517	255.199
0.125893	255.938
0.126619	256.679
0.12735	257.422
0.128086	258.168
0.128825	258.915
0.129569	259.665
0.130317	260.417
0.131069	261.172
0.131826	261.928
0.132587	262.687
0.133352	263.447
0.134122	264.21
0.134896	264.976
0.135675	265.743
0.136458	266.513
0.137246	267.285
0.138038	268.059
0.138835	268.836
0.139637	269.614
0.140443	270.395
0.141254	271.179
0.142069	271.964
0.142889	272.752
0.143714	273.542
0.144544	274.334
0.145378	275.129
0.146218	275.926
0.147062	276.726
0.147911	277.527
0.148765	278.331
0.149624	279.138
0.150487	279.946
0.151356	280.757
0.15223	281.571
0.153109	282.387
0.153993	283.205
0.154882	284.025
0.155776	284.848
0.156675	285.674
0.15758	286.501
0.158489	287.332
0.159404	288.164
0.160325	288.999
0.16125	289.837
0.162181	290.676
0.163117	291.519
0.164059	292.364
0.165006	293.211
0.165959	294.06
0.166917	294.913
0.16788	295.767
0.16885	296.624
0.169824	297.484
0.170805	298.346
0.171791	299.211
0.172783	300.078
0.17378	300.948
0.174783	301.82
0.175792	302.695
0.176807	303.572
0.177828	304.452
0.178855	305.334
0.179887	306.219
0.180926	307.107
0.18197	307.997
0.183021	308.89
0.184077	309.785
0.18514	310.683
0.186209	311.584
0.187284	312.487
0.188365	313.393
0.189452	314.302
0.190546	315.213
0.191646	316.127
0.192752	317.043
0.193865	317.962
0.194984	318.884
0.19611	319.809
0.197242	320.736
0.198381	321.666
0.199526	322.598
0.200678	323.534
0.201837	324.472
0.203002	325.413
0.204174	326.356
0.205353	327.303
0.206538	328.252
0.20773	329.203
0.20893	330.158
0.210136	331.115
0.211349	332.076
0.212569	333.039
0.213796	334.004
0.21503	334.973
0.216272	335.944
0.21752	336.919
0.218776	337.896
0.220039	338.876
0.221309	339.859
0.222587	340.844
0.223872	341.833
0.225165	342.824
0.226464	343.819
0.227772	344.816
0.229087	345.816
0.230409	346.819
0.231739	347.825
0.233077	348.834
0.234423	349.846
0.235776	350.861
0.237137	351.879
0.238506	352.9
0.239883	353.923
0.241268	354.95
0.242661	355.98
0.244062	357.013
0.245471	358.048
0.246888	359.087
0.248313	360.129
0.249747	361.174
0.251189	362.222
0.252639	363.273
0.254097	364.327
0.255564	365.384
0.25704	366.444
0.258523	367.507
0.260016	368.574
0.261517	369.643
0.263027	370.716
0.264545	371.792
0.266073	372.871
0.267609	373.953
0.269153	375.038
0.270707	376.126
0.27227	377.218
0.273842	378.313
0.275423	379.411
0.277013	380.512
0.278612	381.616
0.280221	382.724
0.281838	383.835
0.283465	384.949
0.285102	386.066
0.286748	387.187
0.288403	388.311
0.290068	389.438
0.291743	390.568
0.293427	391.702
0.295121	392.839
0.296825	393.98
0.298538	395.123
0.300262	396.27
0.301995	397.421
0.303739	398.575
0.305492	399.732
0.307256	400.892
0.30903	402.056
0.310814	403.224
0.312608	404.395
0.314413	405.569
0.316228	406.746
0.318053	407.928
0.31989	409.112
0.321736	410.3
0.323594	411.492
0.325462	412.687
0.327341	413.885
0.32923	415.087
0.331131	416.292
0.333043	417.501
0.334965	418.714
0.336899	419.93
0.338844	421.15
0.3408	422.373
0.342768	423.6
0.344747	424.83
0.346737	426.064
0.348739	427.302
0.350752	428.543
0.352777	429.788
0.354813	431.036
0.356862	432.288
0.358922	433.544
0.360994	434.804
0.363078	436.067
0.365174	437.334
0.367282	438.604
0.369403	439.879
0.371535	441.157
0.37368	442.438
0.375837	443.724
0.378007	445.013
0.380189	446.306
0.382384	447.603
0.384592	448.904
0.386812	450.208
0.389045	451.516
0.391291	452.829
0.39355	454.144
0.395822	455.464
0.398107	456.788
0.400405	458.116
0.402717	459.447
0.405042	460.782
0.40738	462.122
0.409732	463.465
0.412098	464.812
0.414477	466.163
0.416869	467.518
0.419276	468.877
0.421697	470.24
0.424131	471.607
0.42658	472.978
0.429042	474.353
0.431519	475.732
0.43401	477.115
0.436516	478.502
0.439036	479.893
0.44157	481.288
0.44412	482.688
0.446684	484.091
0.449262	485.499
0.451856	486.91
0.454465	488.326
0.457088	489.746
0.459727	491.17
0.462381	492.599
0.46505	494.031
0.467735	495.468
0.470435	496.909
0.473151	498.354
0.475883	499.803
0.47863	501.257
0.481393	502.715
0.484172	504.177
0.486968	505.643
0.489779	507.114
0.492606	508.589
0.49545	510.069
0.49831	511.553
0.501187	513.041
0.504081	514.533
0.506991	516.03
0.509918	517.531
0.512861	519.037
0.515822	520.547
0.5188	522.061
0.521795	523.58
0.524807	525.104
0.527837	526.632
0.530884	528.164
0.533949	529.701
0.537032	531.242
0.540132	532.788
0.54325	534.339
0.546387	535.894
0.549541	537.453
0.552713	539.017
0.555904	540.586
0.559114	542.16
0.562341	543.738
0.565588	545.32
0.568853	546.907
0.572137	548.499
0.57544	550.096
0.578762	551.697
0.582103	553.303
0.585464	554.914
0.588844	556.529
0.592243	558.15
0.595662	559.775
0.599101	561.404
0.60256	563.039
0.606038	564.678
0.609537	566.322
0.613056	567.971
0.616595	569.625
0.620155	571.284
0.623735	572.947
0.627336	574.616
0.630957	576.289
0.6346	577.967
0.638263	579.651
0.641948	581.339
0.645654	583.032
0.649382	584.73
0.653131	586.433
0.656901	588.141
0.660693	589.854
0.664508	591.573
0.668344	593.296
0.672202	595.024
0.676083	596.758
0.679986	598.496
0.683912	600.24
0.68786	601.988
0.691831	603.742
0.695825	605.501
0.699842	607.266
0.703882	609.035
0.707946	610.81
0.712033	612.589
0.716143	614.375
0.720278	616.165
0.724436	617.961
0.728618	619.761
0.732825	621.568
0.737055	623.379
0.74131	625.196
0.74559	627.018
0.749894	628.846
0.754223	630.679
0.758578	632.517
0.762957	634.361
0.767361	636.21
0.771792	638.065
0.776247	639.925
0.780728	641.791
0.785236	643.662
0.789769	645.538
0.794328	647.42
0.798914	649.308
0.803526	651.201
0.808165	653.1
0.812831	655.005
0.817523	656.915
0.822243	658.83
0.82699	660.752
0.831764	662.679
0.836566	664.611
0.841395	666.55
0.846253	668.494
0.851138	670.444
0.856052	672.399
0.860994	674.361
0.865964	676.328
0.870964	678.301
0.875992	680.28
0.881049	682.264
0.886135	684.255
0.891251	686.251
0.896396	688.253
0.901571	690.261
0.906776	692.275
0.912011	694.295
0.917276	696.321
0.922571	698.353
0.927897	700.391
0.933254	702.435
0.938642	704.485
0.944061	706.541
0.949511	708.603
0.954993	710.671
0.960506	712.746
0.966051	714.826
0.971628	716.913
0.977237	719.005
0.982879	721.104
0.988553	723.209
0.99426	725.321
1	727.438
1.00577	729.562
1.01158	731.692
1.01742	733.829
1.02329	735.971
1.0292	738.12
1.03514	740.276
1.04112	742.438
1.04713	744.606
1.05317	746.78
1.05925	748.961
1.06537	751.149
1.07152	753.343
1.07771	755.543
1.08393	757.75
1.09018	759.963
1.09648	762.183
1.10281	764.41
1.10917	766.643
1.11558	768.883
1.12202	771.129
1.1285	773.44
1.13501	775.811
1.14156	778.193
1.14815	780.589
1.15478	782.997
1.16145	785.417
1.16815	787.851
1.1749	790.297
1.18168	792.756
1.1885	795.228
1.19536	797.712
1.20226	800.21
1.20921	802.721
1.21619	805.244
1.22321	807.781
1.23027	810.331
1.23737	812.895
1.24451	815.471
1.2517	818.061
1.25893	820.664
1.26619	823.281
1.2735	825.911
1.28086	828.555
1.28825	831.212
1.29569	833.883
1.30317	836.568
1.31069	839.266
1.31826	841.979
1.32587	844.705
1.33352	847.445
1.34122	850.198
1.34896	852.966
1.35675	855.666
1.36458	858.368
1.37246	861.083
1.38038	863.811
1.38835	866.554
1.39637	869.31
1.40443	872.08
1.41254	874.864
1.42069	877.661
1.42889	880.473
1.43714	883.298
1.44544	886.137
1.45378	888.991
1.46218	891.858
1.47062	894.74
1.47911	897.635
1.48765	900.545
1.49624	903.469
1.50487	906.407
1.51356	909.36
1.5223	912.327
1.53109	915.308
1.53993	918.304
1.54882	921.314
1.55776	924.339
1.56675	927.378
1.5758	930.431
1.58489	933.5
1.59404	936.583
1.60325	939.68
1.6125	942.792
1.62181	945.919
1.63117	949.061
1.64059	952.217
1.65006	955.388
1.65959	958.574
1.66917	961.775
1.6788	964.991
1.6885	968.222
1.69824	971.467
1.70805	974.728
1.71791	978.003
1.72783	981.294
1.7378	984.599
1.74783	987.92
1.75792	991.256
1.76807	994.606
1.77828	997.972
1.78855	1001.35
1.79887	1004.75
1.80926	1008.14
1.8197	1011.54
1.83021	1014.95
1.84077	1018.39
1.8514	1021.83
1.86209	1025.29
1.87284	1028.77
1.88365	1032.26
1.89452	1035.77
1.90546	1039.3
1.91646	1042.84
1.92752	1046.39
1.93865	1049.96
1.94984	1053.55
1.9611	1057.15
1.97242	1060.77
1.98381	1064.41
1.99526	1068.06
2.00678	1071.73
2.01837	1075.42
2.03002	1079.12
2.04174	1082.84
2.05353	1086.57
2.06538	1090.32
2.0773	1094.09
2.0893	1097.88
2.10136	1101.68
2.11349	1105.5
2.12569	1109.34
2.13796	1113.19
2.1503	1117.07
2.16272	1120.96
2.1752	1124.86
2.18776	1128.79
2.20039	1132.74
2.21309	1136.7
2.22587	1140.68
2.23872	1144.68
2.25165	1148.69
2.26464	1152.73
2.27772	1156.78
2.29087	1160.85
2.30409	1164.95
2.31739	1169.06
2.33077	1173.18
2.34423	1177.33
2.35776	1181.5
2.37137	1185.68
2.38506	1189.89
2.39883	1194.11
2.41268	1198.35
2.42661	1202.61
2.44062	1206.9
2.45471	1211.2
2.46888	1215.51
2.48313	1219.85
2.49747	1224.21
2.51189	1228.59
2.52639	1232.98
2.54097	1237.4
2.55564	1241.84
2.5704	1246.29
2.58523	1250.76
2.60016	1255.26
2.61517	1259.77
2.63027	1264.31
2.64545	1268.86
2.66073	1273.43
2.67609	1278.02
2.69153	1282.63
2.70707	1287.27
2.7227	1291.92
2.73842	1296.59
2.75423	1301.28
2.77013	1305.99
2.78612	1310.72
2.80221	1315.47
2.81838	1320.24
2.83465	1325.03
2.85102	1329.84
2.86748	1334.67
2.88403	1339.52
2.90068	1344.4
2.91743	1349.29
2.93427	1354.2
2.95121	1359.13
2.96825	1364.08
2.98538	1369.05
3.00262	1374.04
3.01995	1379.05
3.03739	1384.09
3.05492	1389.14
3.07256	1394.21
3.0903	1399.3
3.10814	1404.42
3.12608	1409.55
3.14413	1414.7
3.16228	1419.88
3.18053	1425.07
3.1989	1430.28
3.21736	1435.52
3.23594	1440.77
3.25462	1446.05
3.27341	1451.34
3.2923	1456.66
3.31131	1461.99
3.33043	1467.35
3.34965	1472.72
3.36899	1478.12
3.38844	1483.54
3.408	1488.97
3.42768	1494.43
3.44747	1499.9
3.46737	1505.4
3.48739	1510.91
3.50752	1516.45
3.52777	1522.01
3.54813	1527.58
3.56862	1533.18
3.58922	1538.79
3.60994	1544.42
3.63078	1550.08
3.65174	1555.75
3.67282	1561.44
3.69403	1567.16
3.71535	1572.89
3.7368	1578.64
3.75837	1584.41
3.78007	1590.2
3.80189	1596.01
3.82384	1601.84
3.84592	1607.68
3.86812	1613.55
3.89045	1619.44
3.91291	1625.34
3.9355	1631.26
3.95822	1637.2
3.98107	1643.16
4.00405	1649.14
4.02717	1655.14
4.05042	1661.16
4.0738	1667.19
4.09732	1673.24
4.12098	1679.31
4.14477	1685.4
4.16869	1691.51
4.19276	1697.63
4.21697	1703.77
4.24131	1709.93
4.2658	1716.11
4.29042	1722.31
4.31519	1728.52
4.3401	1734.75
4.36516	1741
4.39036	1747.26
4.4157	1753.54
4.4412	1759.84
4.46684	1766.16
4.49262	1772.49
4.51856	1778.84
4.54465	1785.21
4.57088	1791.6
4.59727	1798
4.62381	1804.42
4.6505	1810.85
4.67735	1817.3
4.70435	1823.77
4.73151	1830.25
4.75883	1836.75
4.7863	1843.26
4.81393	1849.79
4.84172	1856.33
4.86968	1862.89
4.89779	1869.47
4.92606	1876.06
4.9545	1882.66
4.9831	1889.28
5.01187	1895.92
5.04081	1902.57
5.06991	1909.23
5.09918	1915.91
5.12861	1922.61
5.15822	1929.31
5.188	1936.04
5.21795	1942.77
5.24807	1949.52
5.27837	1956.28
5.30884	1963.06
5.33949	1969.85
5.37032	1976.65
5.40132	1983.47
5.4325	1990.3
5.46387	1997.14
5.49541	2004
5.52713	2010.86
5.55904	2017.74
5.59114	2024.64
5.62341	2031.54
5.65588	2038.46
5.68853	2045.39
5.72137	2052.33
5.7544	2059.28
5.78762	2066.24
5.82103	2073.21
5.85464	2080.2
5.88844	2087.19
5.92243	2094.2
5.95662	2101.22
5.99101	2108.25
6.0256	2115.28
6.06038	2122.33
6.09537	2129.39
6.13056	2136.46
6.16595	2143.53
6.20155	2150.62
6.23735	2157.71
6.27336	2164.82
6.30957	2171.93
6.346	2179.05
6.38263	2186.18
6.41948	2193.32
6.45654	2200.47
6.49382	2207.62
6.53131	2214.78
6.56901	2221.95
6.60693	2229.13
6.64508	2236.31
6.68344	2243.5
6.72202	2250.7
6.76083	2257.88
6.79986	2265.04
6.83912	2272.2
6.8786	2279.36
6.91831	2286.53
6.95825	2293.7
6.99842	2300.88
7.03882	2308.07
7.07946	2315.25
7.12033	2322.44
7.16143	2329.63
7.20278	2336.83
7.24436	2344.03
7.28618	2351.23
7.32825	2358.43
7.37055	2365.63
7.4131	2372.83
7.4559	2380.03
7.49894	2387.24
7.54223	2394.44
7.58578	2401.64
7.62957	2408.84
7.67361	2416.04
7.71792	2423.24
7.76247	2430.44
7.80728	2437.63
7.85236	2444.82
7.89769	2452
7.94328	2459.18
7.98914	2466.36
8.03526	2473.53
8.08165	2480.7
8.12831	2487.86
8.17523	2495.01
8.22243	2502.16
8.2699	2509.3
8.31764	2516.43
8.36566	2523.55
8.41395	2530.67
8.46253	2537.77
8.51138	2544.87
8.56052	2551.95
8.60994	2559.03
8.65964	2566.09
8.70964	2573.14
8.75992	2580.18
8.81049	2587.21
8.86135	2594.22
8.91251	2601.22
8.96396	2608.2
9.01571	2615.17
9.06776	2622.15
9.12011	2629.11
9.17276	2636.05
9.22571	2642.97
9.27897	2649.88
9.33254	2656.77
9.38642	2663.65
9.44061	2670.5
9.49511	2677.34
9.54993	2684.16
9.60506	2690.95
9.66051	2697.73
9.71628	2704.49
9.77237	2711.22
9.82879	2717.94
9.88553	2724.64
9.9426	2731.31
10	2737.96
10.0577	2744.59
10.1158	2751.2
10.1742	2757.78
10.2329	2764.34
10.292	2770.88
10.3514	2777.39
10.4112	2783.88
10.4713	2790.34
10.5317	2796.78
10.5925	2803.19
10.6537	2809.58
10.7152	2815.94
10.7771	2822.27
10.8393	2828.58
10.9018	2834.87
10.9648	2841.12
11.0281	2847.35
11.0917	2853.55
11.1558	2859.72
11.2202	2865.87
11.285	2871.99
11.3501	2878.08
11.4156	2884.14
11.4815	2890.17
11.5478	2896.17
11.6145	2902.15
11.6815	2908.09
11.749	2914
11.8168	2919.88
11.885	2925.73
11.9536	2931.55
12.0226	2937.34
12.0921	2943.1
12.1619	2948.82
12.2321	2954.51
12.3027	2960.17
12.3737	2965.79
12.4451	2971.39
12.517	2976.94
12.5893	2982.47
12.6619	2987.96
12.735	2993.41
12.8086	2998.84
12.8825	3004.22
12.9569	3009.58
13.0317	3014.9
13.1069	3020.18
13.1826	3025.43
13.2587	3030.64
13.3352	3035.82
13.4122	3040.96
13.4896	3046.07
13.5675	3051.15
13.6458	3056.2
13.7246	3061.22
13.8038	3066.19
13.8835	3071.14
13.9637	3076.04
14.0443	3080.91
14.1254	3085.74
14.2069	3090.53
14.2889	3095.29
14.3714	3100
14.4544	3104.68
14.5378	3109.32
14.6218	3113.92
14.7062	3118.49
14.7911	3123.01
14.8765	3127.5
14.9624	3131.94
15.0487	3136.35
15.1356	3140.72
15.223	3145.05
15.3109	3149.33
15.3993	3153.58
15.4882	3157.79
15.5776	3161.96
15.6675	3166.09
15.758	3170.18
15.8489	3174.23
15.9404	3178.24
16.0325	3182.22
16.125	3186.15
16.2181	3190.04
16.3117	3193.9
16.4059	3197.71
16.5006	3201.49
16.5959	3205.23
16.6917	3208.93
16.788	3212.59
16.885	3216.22
16.9824	3219.8
17.0805	3223.35
17.1791	3226.87
17.2783	3230.35
17.378	3233.79
17.4783	3237.2
17.5792	3240.58
17.6807	3243.92
17.7828	3247.22
17.8855	3250.5
17.9887	3253.74
18.0926	3256.92
18.197	3260.05
18.3021	3263.16
18.4077	3266.23
18.514	3269.27
18.6209	3272.28
18.7284	3275.26
18.8365	3278.2
18.9452	3281.11
19.0546	3283.99
19.1646	3286.83
19.2752	3289.64
19.3865	3292.42
19.4984	3295.16
19.611	3297.87
19.7242	3300.55
19.8381	3303.19
19.9526	3305.79
20.0678	3308.37
20.1837	3310.91
20.3002	3313.41
20.4174	3315.88
20.5353	3318.31
20.6538	3320.71
20.773	3323.08
20.893	3325.41
21.0136	3327.71
21.1349	3329.97
21.2569	3332.2
21.3796	3334.39
21.503	3336.55
21.6272	3338.67
21.752	3340.76
21.8776	3342.82
22.0039	3344.85
22.1309	3346.84
22.2587	3348.79
22.3872	3350.72
22.5165	3352.61
22.6464	3354.48
22.7772	3356.31
22.9087	3358.12
23.0409	3359.89
23.1739	3361.63
23.3077	3363.33
23.4423	3365.01
23.5776	3366.64
23.7137	3368.25
23.8506	3369.82
23.9883	3371.36
24.1268	3372.87
24.2661	3374.34
24.4062	3375.78
24.5471	3377.19
24.6888	3378.57
24.8313	3379.91
24.9747	3381.22
25.1189	3382.49
25.2639	3383.74
25.4097	3384.95
25.5564	3386.13
25.704	3387.27
25.8523	3388.39
26.0016	3389.47
26.1517	3390.52
26.3027	3391.54
26.4545	3392.53
26.6073	3393.49
26.7609	3394.42
26.9153	3395.31
27.0707	3396.18
27.227	3397.02
27.3842	3397.83
27.5423	3398.61
27.7013	3399.36
27.8612	3400.09
28.0221	3400.78
28.1838	3401.44
28.3465	3402.07
28.5102	3402.67
28.6748	3403.25
28.8403	3403.79
29.0068	3404.3
29.1743	3404.79
29.3427	3405.24
29.5121	3405.67
29.6825	3406.06
29.8538	3406.43
30.0262	3406.76
30.1995	3407.07
30.3739	3407.35
30.5492	3407.6
30.7256	3407.82
30.903	3408.01
31.0814	3408.18
31.2608	3408.31
31.4413	3408.42
31.6228	3408.5
31.8053	3408.55
31.989	3408.58
32.1736	3408.58
32.3594	3408.55
32.5462	3408.49
32.7341	3408.4
32.923	3408.29
33.1131	3408.15
33.3043	3407.98
33.4965	3407.79
33.6899	3407.56
33.8844	3407.31
34.08	3407.03
34.2768	3406.72
34.4747	3406.39
34.6737	3406.03
34.8739	3405.64
35.0752	3405.23
35.2777	3404.78
35.4813	3404.31
35.6862	3403.82
35.8922	3403.3
36.0994	3402.75
36.3078	3402.17
36.5174	3401.57
36.7282	3400.94
36.9403	3400.29
37.1535	3399.61
37.368	3398.9
37.5837	3398.17
37.8007	3397.41
38.0189	3396.62
38.2384	3395.81
38.4592	3394.98
38.6812	3394.11
38.9045	3393.22
39.1291	3392.31
39.355	3391.37
39.5822	3390.4
39.8107	3389.41
40.0405	3388.39
40.2717	3387.35
40.5042	3386.28
40.738	3385.19
40.9732	3384.07
41.2098	3382.93
41.4477	3381.76
41.6869	3380.57
41.9276	3379.36
42.1697	3378.12
42.4131	3376.85
42.658	3375.56
42.9042	3374.25
43.1519	3372.92
43.401	3371.56
43.6516	3370.18
43.9036	3368.78
44.157	3367.35
44.412	3365.9
44.6684	3364.43
44.9262	3362.94
45.1856	3361.42
45.4465	3359.89
45.7088	3358.34
45.9727	3356.76
46.2381	3355.17
46.505	3353.55
46.7735	3351.91
47.0435	3350.24
47.3151	3348.56
47.5883	3346.85
47.863	3345.12
48.1393	3343.37
48.4172	3341.59
48.6968	3339.8
48.9779	3337.98
49.2606	3336.14
49.545	3334.27
49.831	3332.39
50.1187	3330.47
50.4081	3328.54
50.6991	3326.59
50.9918	3324.61
51.2861	3322.6
51.5822	3320.58
51.88	3318.53
52.1795	3316.46
52.4807	3314.37
52.7837	3312.25
53.0884	3310.11
53.3949	3307.94
53.7032	3305.76
54.0132	3303.55
54.325	3301.31
54.6387	3299.06
54.9541	3296.78
55.2713	3294.47
55.5904	3292.15
55.9114	3289.8
56.2341	3287.43
56.5588	3285.03
56.8853	3282.62
57.2137	3280.18
57.544	3277.71
57.8762	3275.23
58.2103	3272.72
58.5464	3270.19
58.8844	3267.64
59.2243	3265.06
59.5662	3262.46
59.9101	3259.85
60.256	3257.21
60.6038	3254.54
60.9537	3251.86
61.3056	3249.16
61.6595	3246.43
62.0155	3243.69
62.3735	3240.92
62.7336	3238.13
63.0957	3235.33
63.46	3232.5
63.8263	3229.65
64.1948	3226.79
64.5654	3223.9
64.9382	3221
65.3131	3218.08
65.6901	3215.14
66.0693	3212.18
66.4508	3209.21
66.8344	3206.22
67.2202	3203.21
67.6083	3200.18
67.9986	3197.13
68.3912	3194.05
68.786	3190.96
69.1831	3187.86
69.5825	3184.74
69.9842	3181.6
70.3882	3178.45
70.7946	3175.28
71.2033	3172.1
71.6143	3168.9
72.0278	3165.68
72.4436	3162.45
72.8618	3159.2
73.2825	3155.94
73.7055	3152.66
74.131	3149.36
74.559	3146.05
74.9894	3142.72
75.4223	3139.38
75.8578	3136.01
76.2957	3132.64
76.7361	3129.24
77.1792	3125.83
77.6247	3122.41
78.0728	3118.96
78.5236	3115.5
78.9769	3112.03
79.4328	3108.54
79.8914	3105.03
80.3526	3101.51
80.8165	3097.97
81.2831	3094.41
81.7523	3090.84
82.2243	3087.25
82.699	3083.64
83.1764	3080.02
83.6566	3076.38
84.1395	3072.73
84.6253	3069.06
85.1138	3065.37
85.6052	3061.67
86.0994	3057.95
86.5964	3054.22
87.0964	3050.47
87.5992	3046.7
88.1049	3042.92
88.6135	3039.12
89.1251	3035.31
89.6396	3031.48
90.1571	3027.63
90.6776	3023.76
91.2011	3019.88
91.7276	3015.98
92.2571	3012.07
92.7897	3008.14
93.3254	3004.2
93.8642	3000.24
94.4061	2996.26
94.9511	2992.27
95.4993	2988.26
96.0506	2984.24
96.6051	2980.2
97.1628	2976.15
97.7237	2972.08
98.2879	2968
98.8553	2963.9
99.426	2959.79
100	2955.66
100.577	2951.52
101.158	2947.36
101.742	2943.19
102.329	2939
102.92	2934.8
103.514	2930.58
104.112	2926.35
104.713	2922.11
105.317	2917.85
105.925	2913.57
106.537	2909.29
107.152	2904.99
107.771	2900.67
108.393	2896.35
109.018	2892
109.648	2887.65
110.281	2883.28
110.917	2878.9
111.558	2874.51
112.202	2870.1
112.85	2865.68
113.501	2861.25
114.156	2856.81
114.815	2852.35
115.478	2847.88
116.145	2843.4
116.815	2838.91
117.49	2834.4
118.168	2829.88
118.85	2825.35
119.536	2820.81
120.226	2816.26
120.921	2811.69
121.619	2807.12
122.321	2802.53
123.027	2797.93
123.737	2793.32
124.451	2788.69
125.17	2784.06
125.893	2779.41
126.619	2774.76
127.35	2770.09
128.086	2765.41
128.825	2760.72
129.569	2756.02
130.317	2751.31
131.069	2746.59
131.826	2741.86
132.587	2737.12
133.352	2732.36
134.122	2727.6
134.896	2722.83
135.675	2718.04
136.458	2713.25
137.246	2708.44
138.038	2703.62
138.835	2698.8
139.637	2693.96
140.443	2689.11
141.254	2684.26
142.069	2679.39
142.889	2674.52
143.714	2669.64
144.544	2664.74
145.378	2659.84
146.218	2654.93
147.062	2650.01
147.911	2645.08
148.765	2640.14
149.624	2635.2
150.487	2630.24
151.356	2625.27
152.23	2620.3
153.109	2615.32
153.993	2610.33
154.882	2605.33
155.776	2600.32
156.675	2595.31
157.58	2590.28
158.489	2585.25
159.404	2580.21
160.325	2575.16
161.25	2570.11
162.181	2565.04
163.117	2559.97
164.059	2554.89
165.006	2549.8
165.959	2544.7
166.917	2539.6
167.88	2534.48
168.85	2529.36
169.824	2524.24
170.805	2519.1
171.791	2513.96
172.783	2508.81
173.78	2503.65
174.783	2498.48
175.792	2493.3
176.807	2488.12
177.828	2482.93
178.855	2477.73
179.887	2472.53
180.926	2467.33
181.97	2462.12
183.021	2456.91
184.077	2451.69
185.14	2446.47
186.209	2441.23
187.284	2435.99
188.365	2430.75
189.452	2425.49
190.546	2420.23
191.646	2414.97
192.752	2409.69
193.865	2404.41
194.984	2399.13
196.11	2393.84
197.242	2388.54
198.381	2383.24
199.526	2377.93
200.678	2372.62
201.837	2367.3
203.002	2361.98
204.174	2356.65
205.353	2351.32
206.538	2345.98
207.73	2340.64
208.93	2335.29
210.136	2329.94
211.349	2324.59
212.569	2319.23
213.796	2313.87
215.03	2308.5
216.272	2303.13
217.52	2297.76
218.776	2292.38
220.039	2287
221.309	2281.62
222.587	2276.23
223.872	2270.84
225.165	2265.45
226.464	2260.05
227.772	2254.65
229.087	2249.24
230.409	2243.83
231.739	2238.42
233.077	2233.01
234.423	2227.59
235.776	2222.18
237.137	2216.76
238.506	2211.34
239.883	2205.91
241.268	2200.49
242.661	2195.07
244.062	2189.64
245.471	2184.21
246.888	2178.78
248.313	2173.35
249.747	2167.92
251.189	2162.49
252.639	2157.05
254.097	2151.62
255.564	2146.18
257.04	2140.75
258.523	2135.31
260.016	2129.87
261.517	2124.44
263.027	2119
264.545	2113.56
266.073	2108.12
267.609	2102.67
269.153	2097.23
270.707	2091.79
272.27	2086.35
273.842	2080.9
275.423	2075.46
277.013	2070.01
278.612	2064.56
280.221	2059.12
281.838	2053.67
283.465	2048.23
285.102	2042.78
286.748	2037.34
288.403	2031.89
290.068	2026.45
291.743	2021
293.427	2015.56
295.121	2010.12
296.825	2004.68
298.538	1999.23
300.262	1993.79
301.995	1988.36
303.739	1982.92
305.492	1977.48
307.256	1972.05
309.03	1966.61
310.814	1961.18
312.608	1955.75
314.413	1950.32
316.228	1944.89
318.053	1939.46
319.89	1934.03
321.736	1928.6
323.594	1923.18
325.462	1917.76
327.341	1912.34
329.23	1906.92
331.131	1901.5
333.043	1896.09
334.965	1890.68
336.899	1885.27
338.844	1879.86
340.8	1874.45
342.768	1869.05
344.747	1863.65
346.737	1858.25
348.739	1852.85
350.752	1847.46
352.777	1842.07
354.813	1836.68
356.862	1831.3
358.922	1825.91
360.994	1820.53
363.078	1815.16
365.174	1809.78
367.282	1804.41
369.403	1799.04
371.535	1793.67
373.68	1788.31
375.837	1782.95
378.007	1777.6
380.189	1772.25
382.384	1766.9
384.592	1761.56
386.812	1756.22
389.045	1750.89
391.291	1745.56
393.55	1740.23
395.822	1734.91
398.107	1729.6
400.405	1724.29
402.717	1718.98
405.042	1713.68
407.38	1708.39
409.732	1703.1
412.098	1697.82
414.477	1692.54
416.869	1687.26
419.276	1682
421.697	1676.74
424.131	1671.48
426.58	1666.23
429.042	1660.98
431.519	1655.74
434.01	1650.5
436.516	1645.27
439.036	1640.05
441.57	1634.83
444.12	1629.61
446.684	1624.4
449.262	1619.19
451.856	1613.98
454.465	1608.77
457.088	1603.57
459.727	1598.37
462.381	1593.18
465.05	1587.99
467.735	1582.81
470.435	1577.63
473.151	1572.46
475.883	1567.3
478.63	1562.14
481.393	1556.98
484.172	1551.84
486.968	1546.7
489.779	1541.57
492.606	1536.44
495.45	1531.32
498.31	1526.21
501.187	1521.11
504.081	1516.01
506.991	1510.92
509.918	1505.85
512.861	1500.77
515.822	1495.71
518.8	1490.66
521.795	1485.61
524.807	1480.58
527.837	1475.55
530.884	1470.53
533.949	1465.52
537.032	1460.52
540.132	1455.53
543.25	1450.55
546.387	1445.58
549.541	1440.62
552.713	1435.66
555.904	1430.72
559.114	1425.79
562.341	1420.87
565.588	1415.95
568.853	1411.05
572.137	1406.16
575.44	1401.27
578.762	1396.4
582.103	1391.54
585.464	1386.68
588.844	1381.84
592.243	1377.01
595.662	1372.18
599.101	1367.37
602.56	1362.56
606.038	1357.76
609.537	1352.98
613.056	1348.2
616.595	1343.43
620.155	1338.67
623.735	1333.92
627.336	1329.18
630.957	1324.44
634.6	1319.71
638.263	1314.99
641.948	1310.28
645.654	1305.58
649.382	1300.88
653.131	1296.18
656.901	1291.5
660.693	1286.82
664.508	1282.14
668.344	1277.47
672.202	1272.8
676.083	1268.17
679.986	1263.6
683.912	1259.04
687.86	1254.48
691.831	1249.93
695.825	1245.39
699.842	1240.84
703.882	1236.31
707.946	1231.78
712.033	1227.25
716.143	1222.73
720.278	1218.22
724.436	1213.71
728.618	1209.22
732.825	1204.72
737.055	1200.24
741.31	1195.76
745.59	1191.29
749.894	1186.83
754.223	1182.37
758.578	1177.92
762.957	1173.48
767.361	1169.05
771.792	1164.63
776.247	1160.22
780.728	1155.82
785.236	1151.42
789.769	1147.04
794.328	1142.66
798.914	1138.3
803.526	1133.95
808.165	1129.6
812.831	1125.27
817.523	1120.94
822.243	1116.63
826.99	1112.33
831.764	1108.04
836.566	1103.76
841.395	1099.49
846.253	1095.23
851.138	1090.98
856.052	1086.75
860.994	1082.53
865.964	1078.32
870.964	1074.12
875.992	1069.93
881.049	1065.76
886.135	1061.59
891.251	1057.44
896.396	1053.31
901.571	1049.18
906.776	1045.04
912.011	1040.92
917.276	1036.81
922.571	1032.72
927.897	1028.63
933.254	1024.56
938.642	1020.51
944.061	1016.46
949.511	1012.43
954.993	1008.41
960.506	1004.41
966.051	1000.42
971.628	996.441
977.237	992.476
982.879	988.525
988.553	984.587
994.26	980.663
1000	976.752
1005.77	972.854
1011.58	968.97
1017.42	965.099
1023.29	961.241
1029.2	957.397
1035.14	953.565
1041.12	949.746
1047.13	945.941
1053.17	942.148
1059.25	938.367
1065.37	934.599
1071.52	930.843
1077.71	927.1
1083.93	923.368
1090.18	919.647
1096.48	915.938
1102.81	912.241
1109.17	908.554
1115.58	904.877
1122.02	901.211
1128.5	897.554
1135.01	893.907
1141.56	890.269
1148.15	886.641
1154.78	883.024
1161.45	879.417
1168.15	875.82
1174.9	872.234
1181.68	868.659
1188.5	865.094
1195.36	861.54
1202.26	857.997
1209.21	854.465
1216.19	850.945
1223.21	847.435
1230.27	843.937
1237.37	840.45
1244.51	836.974
1251.7	833.51
1258.93	830.057
1266.19	826.616
1273.5	823.187
1280.86	819.768
1288.25	816.362
1295.69	812.966
1303.17	809.583
1310.69	806.21
1318.26	802.85
1325.87	799.5
1333.52	796.162
1341.22	792.835
1348.96	789.52
1356.75	786.21
1364.58	782.91
1372.46	779.621
1380.38	776.344
1388.35	773.079
1396.37	769.825
1404.43	766.583
1412.54	763.353
1420.69	760.135
1428.89	756.929
1437.14	753.735
1445.44	750.553
1453.78	747.384
1462.18	744.226
1470.62	741.082
1479.11	737.95
1487.65	734.83
1496.24	731.723
1504.87	728.629
1513.56	725.548
1522.3	722.479
1531.09	719.422
1539.93	716.379
1548.82	713.348
1557.76	710.33
1566.75	707.324
1575.8	704.331
1584.89	701.351
1594.04	698.383
1603.25	695.428
1612.5	692.485
1621.81	689.554
1631.17	686.635
1640.59	683.729
1650.06	680.834
1659.59	677.951
1669.17	675.08
1678.8	672.22
1688.5	669.372
1698.24	666.534
1708.05	663.708
1717.91	660.892
1727.83	658.086
1737.8	655.291
1747.83	652.505
1757.92	649.73
1768.07	646.963
1778.28	644.205
1788.55	641.456
1798.87	638.715
1809.26	636.002
1819.7	633.299
1830.21	630.604
1840.77	627.917
1851.4	625.239
1862.09	622.569
1872.84	619.908
1883.65	617.256
1894.52	614.612
1905.46	611.978
1916.46	609.353
1927.52	606.736
1938.65	604.13
1949.84	601.532
1961.1	598.944
1972.42	596.366
1983.81	593.798
1995.26	591.239
2006.78	588.69
2018.37	586.151
2030.02	583.622
2041.74	581.103
2053.53	578.594
2065.38	576.095
2077.3	573.607
2089.3	571.128
2101.36	568.66
2113.49	566.203
2125.69	563.756
2137.96	561.319
2150.3	558.893
2162.72	556.477
2175.2	554.071
2187.76	551.676
2200.39	549.291
2213.09	546.917
2225.87	544.553
2238.72	542.199
2251.65	539.855
2264.64	537.517
2277.72	535.188
2290.87	532.87
2304.09	530.563
2317.39	528.266
2330.77	525.979
2344.23	523.702
2357.76	521.436
2371.37	519.181
2385.06	516.936
2398.83	514.701
2412.68	512.477
2426.61	510.263
2440.62	508.06
2454.71	505.867
2468.88	503.684
2483.13	501.511
2497.47	499.349
2511.89	497.196
2526.39	495.054
2540.97	492.922
2555.64	490.8
2570.4	488.687
2585.23	486.584
2600.16	484.49
2615.17	482.406
2630.27	480.331
2645.45	478.265
2660.73	476.208
2676.09	474.16
2691.53	472.12
2707.07	470.089
2722.7	468.065
2738.42	466.05
2754.23	464.043
2770.13	462.045
2786.12	460.054
2802.21	458.073
2818.38	456.1
2834.65	454.135
2851.02	452.179
2867.48	450.231
2884.03	448.292
2900.68	446.362
2917.43	444.441
2934.27	442.528
2951.21	440.623
2968.25	438.728
2985.38	436.84
3002.62	434.962
3019.95	433.092
3037.39	431.231
3054.92	429.378
3072.56	427.533
3090.3	425.697
3108.14	423.87
3126.08	422.05
3144.13	420.239
3162.28	418.436
3180.53	416.641
3198.9	414.854
3217.36	413.075
3235.94	411.305
3254.62	409.542
3273.41	407.788
3292.3	406.042
3311.31	404.304
3330.43	402.574
3349.65	400.853
3368.99	399.14
3388.44	397.434
3408	395.737
3427.68	394.048
3447.47	392.367
3467.37	390.694
3487.39	389.028
3507.52	387.371
3527.77	385.721
3548.13	384.079
3568.62	382.444
3589.22	380.817
3609.94	379.198
3630.78	377.585
3651.74	375.98
3672.82	374.383
3694.03	372.793
3715.35	371.21
3736.8	369.634
3758.37	368.067
3780.07	366.506
3801.89	364.953
3823.84	363.408
3845.92	361.87
3868.12	360.339
3890.45	358.816
3912.91	357.3
3935.5	355.792
3958.22	354.291
3981.07	352.797
4004.05	351.311
4027.17	349.831
4050.42	348.359
4073.8	346.894
4097.32	345.436
4120.98	343.985
4144.77	342.541
4168.69	341.104
4192.76	339.674
4216.97	338.25
4241.31	336.834
4265.8	335.424
4290.42	334.02
4315.19	332.623
4340.1	331.227
4365.16	329.739
4390.36	328.259
4415.7	326.785
4441.2	325.319
4466.84	323.859
4492.62	322.406
4518.56	320.957
4544.65	319.514
4570.88	318.077
4597.27	316.647
4623.81	315.224
4650.5	313.807
4677.35	312.397
4704.35	310.993
4731.51	309.597
4758.83	308.208
4786.3	306.825
4813.93	305.45
4841.72	304.081
4869.68	302.72
4897.79	301.366
4926.06	300.019
4954.5	298.679
4983.1	297.346
5011.87	296.021
5040.81	294.703
5069.91	293.393
5099.18	292.09
5128.61	290.794
5158.22	289.506
5188	288.225
5217.95	286.951
5248.07	285.686
5278.37	284.427
5308.84	283.176
5339.49	281.933
5370.32	280.697
5401.32	279.469
5432.5	278.248
5463.87	277.035
5495.41	275.829
5527.13	274.631
5559.04	273.44
5591.14	272.257
5623.41	271.081
5655.88	269.912
5688.53	268.751
5721.37	267.596
5754.4	266.45
5787.62	265.31
5821.03	264.177
5854.64	263.051
5888.44	261.933
5922.43	260.821
5956.62	259.716
5991.01	258.618
6025.6	257.526
6060.38	256.441
6095.37	255.362
6130.56	254.289
6165.95	253.223
6201.55	252.163
6237.35	251.108
6273.36	250.06
6309.57	249.016
6346	247.979
6382.63	246.946
6419.48	245.919
6456.54	244.896
6493.82	243.878
6531.31	242.865
6569.01	241.856
6606.93	240.85
6645.08	239.849
6683.44	238.851
6722.02	237.857
6760.83	236.874
6799.86	235.915
6839.12	234.96
6878.6	234.008
6918.31	233.058
6958.25	232.112
6998.42	231.17
7038.82	230.23
7079.46	229.294
7120.33	228.361
7161.43	227.432
7202.78	226.506
7244.36	225.583
7286.18	224.664
7328.25	223.749
7370.55	222.838
7413.1	221.93
7455.9	221.025
7498.94	220.125
7542.23	219.228
7585.78	218.336
7629.57	217.447
7673.61	216.562
7717.92	215.681
7762.47	214.804
7807.28	213.931
7852.36	213.063
7897.69	212.198
7943.28	211.338
7989.14	210.482
8035.26	209.63
8081.65	208.782
8128.31	207.939
8175.23	207.1
8222.43	206.265
8269.9	205.435
8317.64	204.609
8365.66	203.788
8413.95	202.971
8462.53	202.158
8511.38	201.351
8560.52	200.547
8609.94	199.749
8659.64	198.955
8709.64	198.165
8759.92	197.38
8810.49	196.6
8861.35	195.824
8912.51	195.053
8963.96	194.287
9015.71	193.524
9067.76	192.762
9120.11	192.005
9172.76	191.253
9225.71	190.505
9278.97	189.762
9332.54	189.024
9386.42	188.29
9440.61	187.561
9495.11	186.836
9549.93	186.117
9605.06	185.402
9660.51	184.691
9716.28	183.985
9772.37	183.284
9828.79	182.587
9885.53	181.895
9942.6	181.207
10000	180.524
10057.7	179.846
10115.8	179.171
10174.2	178.501
10232.9	177.836
10292	177.175
10351.4	176.518
10411.2	175.865
10471.3	175.216
10531.7	174.571
10592.5	173.931
10653.7	173.294
10715.2	172.661
10777.1	172.032
10839.3	171.406
10901.8	170.784
10964.8	170.166
11028.1	169.551
11091.7	168.939
11155.8	168.33
11220.2	167.725
11285	167.122
11350.1	166.522
11415.6	165.924
11481.5	165.33
11547.8	164.739
11614.5	164.15
11681.5	163.565
11749	162.982
11816.8	162.403
11885	161.826
11953.6	161.253
12022.6	160.682
12092.1	160.115
12161.9	159.55
12232.1	158.989
12302.7	158.43
12373.7	157.875
12445.1	157.322
12517	156.773
12589.3	156.227
12661.9	155.683
12735	155.143
12808.6	154.606
12882.5	154.071
12956.9	153.54
13031.7	153.012
13106.9	152.486
13182.6	151.964
13258.7	151.444
13335.2	150.927
13412.2	150.413
13489.6	149.902
13567.5	149.393
13645.8	148.886
13724.6	148.383
13803.8	147.882
13883.5	147.384
13963.7	146.888
14044.3	146.396
14125.4	145.907
14206.9	145.42
14288.9	144.936
14371.4	144.456
14454.4	143.978
14537.8	143.503
14621.8	143.031
14706.2	142.562
14791.1	142.096
14876.5	141.633
14962.4	141.173
15048.7	140.716
15135.6	140.262
15223	139.81
15310.9	139.362
15399.3	138.917
15488.2	138.474
15577.6	138.035
15667.5	137.598
15758	137.164
15848.9	136.733
15940.4	136.305
16032.5	135.879
16125	135.457
16218.1	135.037
16311.7	134.62
16405.9	134.206
16500.6	133.794
16595.9	133.385
16691.7	132.978
16788	132.574
16885	132.173
16982.4	131.774
17080.5	131.377
17179.1	130.983
17278.3	130.591
17378	130.201
17478.3	129.813
17579.2	129.428
17680.7	129.044
17782.8	128.663
17885.5	128.283
17988.7	127.905
18092.6	127.532
18197	127.162
18302.1	126.793
18407.7	126.426
18514	126.06
18620.9	125.697
18728.4	125.335
18836.5	124.975
18945.2	124.617
19054.6	124.261
19164.6	123.906
19275.2	123.554
19386.5	123.203
19498.4	122.855
19611	122.508
19724.2	122.163
19838.1	121.821
19952.6	121.48
20067.8	121.141
20183.7	120.804
20300.2	120.469
20417.4	120.136
20535.3	119.805
20653.8	119.476
20773	119.149
20893	118.824
21013.6	118.501
21134.9	118.18
21256.9	117.861
21379.6	117.544
21503	117.229
21627.2	116.916
21752	116.605
21877.6	116.296
22003.9	115.989
22130.9	115.684
22258.7	115.381
22387.2	115.08
22516.5	114.781
22646.4	114.483
22777.2	114.186
22908.7	113.892
23040.9	113.6
23173.9	113.31
23307.7	113.021
23442.3	112.735
23577.6	112.45
23713.7	112.168
23850.6	111.887
23988.3	111.608
24126.8	111.331
24266.1	111.056
24406.2	110.783
24547.1	110.512
24688.8	110.243
24831.3	109.976
24974.7	109.71
25118.9	109.446
25263.9	109.185
25409.7	108.925
25556.4	108.666
25704	108.41
25852.3	108.155
26001.6	107.902
26151.7	107.651
26302.7	107.401
26454.5	107.153
26607.3	106.907
26760.9	106.662
26915.3	106.419
27070.7	106.177
27227	105.937
27384.2	105.698
27542.3	105.461
27701.3	105.225
27861.2	104.991
28022.1	104.758
28183.8	104.527
28346.5	104.297
28510.2	104.069
28674.8	103.842
28840.3	103.617
29006.8	103.394
29174.3	103.171
29342.7	102.951
29512.1	102.731
29682.5	102.514
29853.8	102.297
30026.2	102.082
30199.5	101.869
30373.9	101.657
30549.2	101.447
30725.6	101.238
30903	101.03
31081.4	100.824
31260.8	100.619
31441.3	100.415
31622.8	100.213
31805.3	100.012
31989	99.8124
32173.6	99.6141
32359.4	99.4172
32546.2	99.2217
32734.1	99.0275
32923	98.8346
33113.1	98.6431
33304.3	98.453
33496.5	98.2642
33689.9	98.0768
33884.4	97.8907
34080	97.7059
34276.8	97.5225
34474.7	97.3404
34673.7	97.1597
34873.9	96.9803
35075.2	96.8022
35277.7	96.6255
35481.3	96.45
35686.2	96.2758
35892.2	96.1029
36099.4	95.9313
36307.8	95.761
36517.4	95.5919
36728.2	95.4241
36940.3	95.2576
37153.5	95.0923
37368	94.9282
37583.7	94.7654
37800.7	94.6038
38018.9	94.4434
38238.4	94.2842
38459.2	94.1263
38681.2	93.9695
38904.5	93.8139
39129.1	93.6594
39355	93.5062
39582.2	93.354
39810.7	93.2029
40040.5	93.053
40271.7	92.9041
40504.2	92.7563
40738	92.6095
40973.2	92.4637
41209.8	92.3189
41447.7	92.1751
41686.9	92.0321
41927.6	91.8901
42169.7	91.749
42413.1	91.6087
42658	91.4692
42904.2	91.3304
43151.9	91.1924
43401	91.0551
43651.6	90.9184
43903.6	90.7824
44157	90.6469
44412	90.5119
44668.4	90.3774
44926.2	90.2433
45185.6	90.1064
45446.5	89.9692
45708.8	89.833
45972.7	89.6978
46238.1	89.5637
46505	89.4305
46773.5	89.2983
47043.5	89.1671
47315.1	89.0369
47588.3	88.9076
47863	88.7793
48139.3	88.652
48417.2	88.5256
48696.8	88.4002
48977.9	88.2758
49260.6	88.1522
49545	88.0297
49831	87.908
50118.7	87.7873
50408.1	87.6675
50699.1	87.5486
50991.8	87.4306
51286.1	87.3135
51582.2	87.1973
51880	87.082
52179.5	86.9676
52480.7	86.8541
52783.7	86.7415
53088.4	86.6297
53394.9	86.5188
53703.2	86.4088
54013.2	86.2997
54325	86.1914
54638.7	86.0839
54954.1	85.9773
55271.3	85.8715
55590.4	85.7666
55911.4	85.6625
56234.1	85.5592
56558.8	85.4567
56885.3	85.3551
57213.7	85.2542
57544	85.1542
57876.2	85.055
58210.3	84.9566
58546.4	84.8589
58884.4	84.7621
59224.3	84.666
59566.2	84.5708
59910.1	84.4763
60256	84.3825
60603.8	84.2896
60953.7	84.1974
61305.6	84.1059
61659.5	84.0152
62015.5	83.9253
62373.5	83.836
62733.6	83.7476
63095.7	83.6598
63460	83.5728
63826.3	83.4866
64194.8	83.401
64565.4	83.3162
64938.2	83.2321
65313.1	83.1486
65690.1	83.0659
66069.3	82.9839
66450.8	82.9026
66834.4	82.822
67220.2	82.742
67608.3	82.6628
67998.6	82.5842
68391.2	82.5063
68786	82.4291
69183.1	82.3526
69582.5	82.2767
69984.2	82.2014
70388.2	82.1269
70794.6	82.0529
71203.3	81.9796
71614.3	81.907
72027.8	81.835
72443.6	81.7636
72861.8	81.6929
73282.5	81.6228
73705.5	81.5533
74131	81.4845
74559	81.4162
74989.4	81.3486
75422.3	81.2816
75857.8	81.2152
76295.7	81.1493
76736.1	81.0841
77179.2	81.0195
77624.7	80.9555
78072.8	80.892
78523.6	80.8291
78976.9	80.7668
79432.8	80.7051
79891.4	80.644
80352.6	80.5834
80816.5	80.5234
81283.1	80.4639
81752.3	80.405
82224.3	80.3467
82699	80.2889
83176.4	80.2316
83656.6	80.1749
84139.5	80.1188
84625.3	80.0631
85113.8	80.008
85605.2	79.9535
86099.4	79.8994
86596.4	79.8459
87096.4	79.7929
87599.2	79.7404
88104.9	79.6884
88613.5	79.6369
89125.1	79.5859
89639.6	79.5355
90157.1	79.4855
90677.6	79.436
91201.1	79.387
91727.6	79.3385
92257.1	79.2905
92789.7	79.243
93325.4	79.1959
93864.2	79.1494
94406.1	79.1033
94951.1	79.0576
95499.3	79.0124
96050.6	78.9677
96605.1	78.9235
97162.8	78.8797
97723.7	78.8363
98287.9	78.7934
98855.3	78.751
99426	78.709
100000	78.6674
100577	78.6263
101158	78.5856
101742	78.5453
102329	78.5055
102920	78.4661
103514	78.4271
104112	78.3885
104713	78.3504
105317	78.3126
105925	78.2753
106537	78.2384
107152	78.2019
107771	78.1658
108393	78.13
109018	78.0947
109648	78.0598
110281	78.0253
110917	77.9911
111558	77.9573
112202	77.924
112850	77.891
113501	77.8583
114156	77.8261
114815	77.7942
115478	77.7627
116145	77.7315
116815	77.7007
117490	77.6703
118168	77.6402
118850	77.6105
119536	77.5811
120226	77.5521
120921	77.5235
121619	77.4951
122321	77.4671
123027	77.4395
123737	77.4122
124451	77.3852
125170	77.3586
125893	77.3322
126619	77.3062
127350	77.2806
128086	77.2552
128825	77.2302
129569	77.2055
130317	77.1811
131069	77.157
131826	77.1332
132587	77.1097
133352	77.0866
134122	77.0637
134896	77.0411
135675	77.0188
136458	76.9969
137246	76.9752
138038	76.9538
138835	76.9326
139637	76.9118
140443	76.8913
141254	76.871
142069	76.851
142889	76.8313
143714	76.8119
144544	76.7927
145378	76.7738
146218	76.7552
147062	76.7368
147911	76.7187
148765	76.7008
149624	76.6832
150487	76.6659
151356	76.6488
152230	76.632
153109	76.6154
153993	76.5991
154882	76.583
155776	76.5671
156675	76.5515
157580	76.5362
158489	76.521
159404	76.5061
160325	76.4915
161250	76.477
162181	76.4628
163117	76.4489
164059	76.4351
165006	76.4216
165959	76.4083
166917	76.3952
167880	76.3823
168850	76.3696
169824	76.3572
170805	76.3449
171791	76.3329
172783	76.3211
173780	76.3095
174783	76.298
175792	76.2868
176807	76.2758
177828	76.265
178855	76.2544
179887	76.244
180926	76.2337
181970	76.2237
183021	76.2138
184077	76.2041
185140	76.1947
186209	76.1854
187284	76.1762
188365	76.1673
189452	76.1585
190546	76.15
191646	76.1415
192752	76.1333
193865	76.1252
194984	76.1173
196110	76.1096
197242	76.102
198381	76.0947
199526	76.0874
200678	76.0803
201837	76.0734
203002	76.0667
204174	76.0601
205353	76.0536
206538	76.0473
207730	76.0412
208930	76.0352
210136	76.0294
211349	76.0237
212569	76.0181
213796	76.0127
215030	76.0075
216272	76.0023
217520	75.9974
218776	75.9925
220039	75.9878
221309	75.9832
222587	75.9788
223872	75.9745
225165	75.9703
226464	75.9663
227772	75.9624
229087	75.9586
230409	75.9549
231739	75.9514
233077	75.948
234423	75.9447
235776	75.9415
237137	75.9384
238506	75.9355
239883	75.9327
241268	75.93
242661	75.9274
244062	75.9249
245471	75.9225
246888	75.9202
248313	75.9181
249747	75.916
251189	75.9141
252639	75.9122
254097	75.9105
255564	75.9089
257040	75.9073
258523	75.9059
260016	75.9046
261517	75.9033
263027	75.9022
264545	75.9011
266073	75.9002
267609	75.8993
269153	75.8986
270707	75.8979
272270	75.8973
273842	75.8968
275423	75.8964
277013	75.896
278612	75.8958
280221	75.8956
281838	75.8956
283465	75.8956
285102	75.8956
286748	75.8958
288403	75.896
290068	75.8964
291743	75.8967
293427	75.8972
295121	75.8978
296825	75.8984
298538	75.8991
300262	75.8998
301995	75.9006
303739	75.9015
305492	75.9025
307256	75.9035
309030	75.9046
310814	75.9058
312608	75.907
314413	75.9083
316228	75.9097
318053	75.9111
319890	75.9126
321736	75.9141
323594	75.9157
325462	75.9173
327341	75.919
329230	75.9208
331131	75.9226
333043	75.9245
334965	75.9264
336899	75.9284
338844	75.9304
340800	75.9325
342768	75.9347
344747	75.9368
346737	75.9391
348739	75.9414
350752	75.9437
352777	75.9461
354813	75.9485
356862	75.9509
358922	75.9534
360994	75.956
363078	75.9586
365174	75.9612
367282	75.9639
369403	75.9666
371535	75.9694
373680	75.9722
375837	75.975
378007	75.9779
380189	75.9808
382384	75.9837
384592	75.9867
386812	75.9897
389045	75.9927
391291	75.9958
393550	75.9989
395822	76.0021
398107	76.0052
400405	76.0084
402717	76.0117
405042	76.0149
407380	76.0182
409732	76.0216
412098	76.0249
414477	76.0283
416869	76.0317
419276	76.0351
421697	76.0385
424131	76.042
426580	76.0455
429042	76.049
431519	76.0526
434010	76.0561
436516	76.0597
439036	76.0633
441570	76.067
444120	76.0706
446684	76.0743
449262	76.078
451856	76.0817
454465	76.0854
457088	76.0891
459727	76.0929
462381	76.0967
465050	76.1004
467735	76.1042
470435	76.1081
473151	76.1119
475883	76.1157
478630	76.1196
481393	76.1235
484172	76.1273
486968	76.1312
489779	76.1351
492606	76.139
495450	76.143
498310	76.1469
501187	76.1509
504081	76.1548
506991	76.1588
509918	76.1627
512861	76.1667
515822	76.1707
518800	76.1747
521795	76.1787
524807	76.1827
527837	76.1867
530884	76.1907
533949	76.1947
537032	76.1988
540132	76.2028
543250	76.2068
546387	76.2109
549541	76.2149
552713	76.2189
555904	76.223
559114	76.227
562341	76.2311
565588	76.2351
568853	76.2392
572137	76.2432
575440	76.2473
578762	76.2513
582103	76.2554
585464	76.2594
588844	76.2635
592243	76.2675
595662	76.2716
599101	76.2756
602560	76.2796
606038	76.2837
609537	76.2877
613056	76.2917
616595	76.2958
620155	76.2998
623735	76.3038
627336	76.3078
630957	76.3118
634600	76.3158
638263	76.3198
641948	76.3238
645654	76.3278
649382	76.3318
653131	76.3358
656901	76.3397
660693	76.3437
664508	76.3477
668344	76.3516
672202	76.3556
676083	76.3595
679986	76.3634
683912	76.3673
687860	76.3712
691831	76.3751
695825	76.379
699842	76.3829
703882	76.3868
707946	76.3906
712033	76.3945
716143	76.3983
720278	76.4022
724436	76.406
728618	76.4098
732825	76.4136
737055	76.4174
741310	76.4212
745590	76.4249
749894	76.4287
754223	76.4324
758578	76.4362
762957	76.4399
767361	76.4436
771792	76.4473
776247	76.451
780728	76.4546
785236	76.4583
789769	76.4619
794328	76.4656
798914	76.4692
803526	76.4728
808165	76.4764
812831	76.48
817523	76.4835
822243	76.4871
826990	76.4906
831764	76.4941
836566	76.4976
841395	76.5011
846253	76.5046
851138	76.5081
856052	76.5115
860994	76.5149
865964	76.5184
870964	76.5218
875992	76.5252
881049	76.5285
886135	76.5319
891251	76.5352
896396	76.5385
901571	76.5419
906776	76.5451
912011	76.5484
917276	76.5517
922571	76.5549
927897	76.5582
933254	76.5614
938642	76.5646
944061	76.5677
949511	76.5709
954993	76.574
960506	76.5772
966051	76.5803
971628	76.5834
977237	76.5865
982879	76.5895
988553	76.5926
994260	76.5956
1e+06	76.5986
1.00577e+06	76.6016
1.01158e+06	76.6046
1.01742e+06	76.6075
1.02329e+06	76.6104
1.0292e+06	76.6134
1.03514e+06	76.6163
1.04112e+06	76.6192
1.04713e+06	76.622
1.05317e+06	76.6249
1.05925e+06	76.6277
1.06537e+06	76.6305
1.07152e+06	76.6333
1.07771e+06	76.6361
1.08393e+06	76.6389
1.09018e+06	76.6416
1.09648e+06	76.6443
1.10281e+06	76.647
1.10917e+06	76.6497
1.11558e+06	76.6524
1.12202e+06	76.655
1.1285e+06	76.6577
1.13501e+06	76.6603
1.14156e+06	76.6629
1.14815e+06	76.6655
1.15478e+06	76.668
1.16145e+06	76.6706
1.16815e+06	76.6731
1.1749e+06	76.6756
1.18168e+06	76.6781
1.1885e+06	76.6805
1.19536e+06	76.683
1.20226e+06	76.6854
1.20921e+06	76.6878
1.21619e+06	76.6902
1.22321e+06	76.6926
1.23027e+06	76.695
1.23737e+06	76.6973
1.24451e+06	76.6996
1.2517e+06	76.7019
1.25893e+06	76.7042
1.26619e+06	76.7065
1.2735e+06	76.7087
1.28086e+06	76.711
1.28825e+06	76.7132
1.29569e+06	76.7154
1.30317e+06	76.7175
1.31069e+06	76.7197
1.31826e+06	76.7218
1.32587e+06	76.7239
1.33352e+06	76.726
1.34122e+06	76.7281
1.34896e+06	76.7302
1.35675e+06	76.7322
1.36458e+06	76.7343
1.37246e+06	76.7363
1.38038e+06	76.7383
1.38835e+06	76.7402
1.39637e+06	76.7422
1.40443e+06	76.7441
1.41254e+06	76.746
1.42069e+06	76.7479
1.42889e+06	76.7498
1.43714e+06	76.7517
1.44544e+06	76.7535
1.45378e+06	76.7554
1.46218e+06	76.7572
1.47062e+06	76.759
1.47911e+06	76.7607
1.48765e+06	76.7625
1.49624e+06	76.7642
1.50487e+06	76.766
1.51356e+06	76.7677
1.5223e+06	76.7694
1.53109e+06	76.771
1.53993e+06	76.7727
1.54882e+06	76.7743
1.55776e+06	76.7759
1.56675e+06	76.7775
1.5758e+06	76.7791
1.58489e+06	76.7807
1.59404e+06	76.7822
1.60325e+06	76.7837
1.6125e+06	76.7853
1.62181e+06	76.7868
1.63117e+06	76.7882
1.64059e+06	76.7897
1.65006e+06	76.7911
1.65959e+06	76.7926
1.66917e+06	76.794
1.6788e+06	76.7954
1.6885e+06	76.7967
1.69824e+06	76.7981
1.70805e+06	76.7995
1.71791e+06	76.8008
1.72783e+06	76.8021
1.7378e+06	76.8034
1.74783e+06	76.8047
1.75792e+06	76.8059
1.76807e+06	76.8072
1.77828e+06	76.8084
1.78855e+06	76.8096
1.79887e+06	76.8108
1.80926e+06	76.812
1.8197e+06	76.8132
1.83021e+06	76.8143
1.84077e+06	76.8154
1.8514e+06	76.8166
1.86209e+06	76.8177
1.87284e+06	76.8187
1.88365e+06	76.8198
1.89452e+06	76.8209
1.90546e+06	76.8219
1.91646e+06	76.8229
1.92752e+06	76.8239
1.93865e+06	76.8249
1.94984e+06	76.8259
1.9611e+06	76.8269
1.97242e+06	76.8278
1.98381e+06	76.8288
1.99526e+06	76.8297
2.00678e+06	76.8306
2.01837e+06	76.8315
2.03002e+06	76.8324
2.04174e+06	76.8332
2.05353e+06	76.8341
2.06538e+06	76.8349
2.0773e+06	76.8357
2.0893e+06	76.8365
2.10136e+06	76.8373
2.11349e+06	76.8381
2.12569e+06	76.8389
2.13796e+06	76.8396
2.1503e+06	76.8404
2.16272e+06	76.8411
2.1752e+06	76.8418
2.18776e+06	76.8425
2.20039e+06	76.8432
2.21309e+06	76.8438
2.22587e+06	76.8445
2.23872e+06	76.8451
2.25165e+06	76.8458
2.26464e+06	76.8464
2.27772e+06	76.847
2.29087e+06	76.8476
2.30409e+06	76.8482
2.31739e+06	76.8487
2.33077e+06	76.8493
2.34423e+06	76.8498
2.35776e+06	76.8504
2.37137e+06	76.8509
2.38506e+06	76.8514
2.39883e+06	76.8519
2.41268e+06	76.8524
2.42661e+06	76.8529
2.44062e+06	76.8533
2.45471e+06	76.8538
2.46888e+06	76.8542
2.48313e+06	76.8546
2.49747e+06	76.855
2.51189e+06	76.8554
2.52639e+06	76.8558
2.54097e+06	76.8562
2.55564e+06	76.8566
2.5704e+06	76.857
2.58523e+06	76.8573
2.60016e+06	76.8576
2.61517e+06	76.858
2.63027e+06	76.8583
2.64545e+06	76.8586
2.66073e+06	76.8589
2.67609e+06	76.8592
2.69153e+06	76.8595
2.70707e+06	76.8598
2.7227e+06	76.86
2.73842e+06	76.8603
2.75423e+06	76.8605
2.77013e+06	76.8607
2.78612e+06	76.861
2.80221e+06	76.8612
2.81838e+06	76.8614
2.83465e+06	76.8616
2.85102e+06	76.8618
2.86748e+06	76.8619
2.88403e+06	76.8621
2.90068e+06	76.8623
2.91743e+06	76.8624
2.93427e+06	76.8626
2.95121e+06	76.8627
2.96825e+06	76.8629
2.98538e+06	76.863
3.00262e+06	76.8631
3.01995e+06	76.8632
3.03739e+06	76.8633
3.05492e+06	76.8634
3.07256e+06	76.8635
3.0903e+06	76.8636
3.10814e+06	76.8636
3.12608e+06	76.8637
3.14413e+06	76.8637
3.16228e+06	76.8638
3.18053e+06	76.8638
3.1989e+06	76.8639
3.21736e+06	76.8639
3.23594e+06	76.8639
3.25462e+06	76.864
3.27341e+06	76.864
3.2923e+06	76.864
3.31131e+06	76.864
3.33043e+06	76.864
3.34965e+06	76.864
3.36899e+06	76.864
3.38844e+06	76.8639
3.408e+06	76.8639
3.42768e+06	76.8639
3.44747e+06	76.8638
3.46737e+06	76.8638
3.48739e+06	76.8638
3.50752e+06	76.8637
3.52777e+06	76.8637
3.54813e+06	76.8636
3.56862e+06	76.8635
3.58922e+06	76.8635
3.60994e+06	76.8634
3.63078e+06	76.8633
3.65174e+06	76.8633
3.67282e+06	76.8632
3.69403e+06	76.8631
3.71535e+06	76.863
3.7368e+06	76.8629
3.75837e+06	76.8628
3.78007e+06	76.8627
3.80189e+06	76.8626
3.82384e+06	76.8625
3.84592e+06	76.8624
3.86812e+06	76.8623
3.89045e+06	76.8622
3.91291e+06	76.8621
3.9355e+06	76.862
3.95822e+06	76.8619
3.98107e+06	76.8617
4.00405e+06	76.8616
4.02717e+06	76.8615
4.05042e+06	76.8614
4.0738e+06	76.8613
4.09732e+06	76.8611
4.12098e+06	76.861
4.14477e+06	76.8609
4.16869e+06	76.8608
4.19276e+06	76.8606
4.21697e+06	76.8605
4.24131e+06	76.8604
4.2658e+06	76.8603
4.29042e+06	76.8601
4.31519e+06	76.86
4.3401e+06	76.8599
4.36516e+06	76.8597
4.39036e+06	76.8596
4.4157e+06	76.8595
4.4412e+06	76.8594
4.46684e+06	76.8592
4.49262e+06	76.8591
4.51856e+06	76.859
4.54465e+06	76.8589
4.57088e+06	76.8587
4.59727e+06	76.8586
4.62381e+06	76.8585
4.6505e+06	76.8584
4.67735e+06	76.8583
4.70435e+06	76.8582
4.73151e+06	76.858
4.75883e+06	76.8579
4.7863e+06	76.8578
4.81393e+06	76.8577
4.84172e+06	76.8576
4.86968e+06	76.8575
4.89779e+06	76.8574
4.92606e+06	76.8573
4.9545e+06	76.8572
4.9831e+06	76.8571
5.01187e+06	76.857
5.04081e+06	76.8569
5.06991e+06	76.8568
5.09918e+06	76.8566
5.12861e+06	76.8565
5.15822e+06	76.8564
5.188e+06	76.8563
5.21795e+06	76.8563
5.24807e+06	76.8562
5.27837e+06	76.8561
5.30884e+06	76.856
5.33949e+06	76.8559
5.37032e+06	76.8558
5.40132e+06	76.8557
5.4325e+06	76.8556
5.46387e+06	76.8555
5.49541e+06	76.8554
5.52713e+06	76.8553
5.55904e+06	76.8552
5.59114e+06	76.8551
5.62341e+06	76.8551
5.65588e+06	76.855
5.68853e+06	76.8549
5.72137e+06	76.8548
5.7544e+06	76.8547
5.78762e+06	76.8546
5.82103e+06	76.8545
5.85464e+06	76.8545
5.88844e+06	76.8544
5.92243e+06	76.8543
5.95662e+06	76.8542
5.99101e+06	76.8541
6.0256e+06	76.8541
6.06038e+06	76.854
6.09537e+06	76.8539
6.13056e+06	76.8538
6.16595e+06	76.8538
6.20155e+06	76.8537
6.23735e+06	76.8536
6.27336e+06	76.8535
6.30957e+06	76.8535
6.346e+06	76.8534
6.38263e+06	76.8533
6.41948e+06	76.8532
6.45654e+06	76.8532
6.49382e+06	76.8531
6.53131e+06	76.853
6.56901e+06	76.853
6.60693e+06	76.8529
6.64508e+06	76.8528
6.68344e+06	76.8528
6.72202e+06	76.8527
6.76083e+06	76.8526
6.79986e+06	76.8526
6.83912e+06	76.8525
6.8786e+06	76.8524
6.91831e+06	76.8524
6.95825e+06	76.8523
6.99842e+06	76.8522
7.03882e+06	76.8522
7.07946e+06	76.8521
7.12033e+06	76.8521
7.16143e+06	76.852
7.20278e+06	76.8519
7.24436e+06	76.8519
7.28618e+06	76.8518
7.32825e+06	76.8518
7.37055e+06	76.8517
7.4131e+06	76.8517
7.4559e+06	76.8516
7.49894e+06	76.8515
7.54223e+06	76.8515
7.58578e+06	76.8514
7.62957e+06	76.8514
7.67361e+06	76.8513
7.71792e+06	76.8513
7.76247e+06	76.8512
7.80728e+06	76.8512
7.85236e+06	76.8511
7.89769e+06	76.8511
7.94328e+06	76.851
7.98914e+06	76.8509
8.03526e+06	76.8509
8.08165e+06	76.8508
8.12831e+06	76.8508
8.17523e+06	76.8507
8.22243e+06	76.8507
8.2699e+06	76.8506
8.31764e+06	76.8506
8.36566e+06	76.8506
8.41395e+06	76.8505
8.46253e+06	76.8505
8.51138e+06	76.8504
8.56052e+06	76.8504
8.60994e+06	76.8503
8.65964e+06	76.8503
8.70964e+06	76.8502
8.75992e+06	76.8502
8.81049e+06	76.8501
8.86135e+06	76.8501
8.91251e+06	76.8501
8.96396e+06	76.85
9.01571e+06	76.85
9.06776e+06	76.8499
9.12011e+06	76.8499
9.17276e+06	76.8498
9.22571e+06	76.8498
9.27897e+06	76.8498
9.33254e+06	76.8497
9.38642e+06	76.8497
9.44061e+06	76.8496
9.49511e+06	76.8496
9.54993e+06	76.8496
9.60506e+06	76.8495
9.66051e+06	76.8495
9.71628e+06	76.8494
9.77237e+06	76.8494
9.82879e+06	76.8494
9.88553e+06	76.8493
9.9426e+06	76.8493
1e+07	76.8492
