Stopping power dEdx from Ionisation for Sc45[0.0] Z = 21 in G4_Si, process name: ionIoni
E [MeV]	dEdx [MeV/mm]
0.001	29.4636
0.00100577	29.5491
0.00101158	29.635
0.00101742	29.721
0.00102329	29.8073
0.0010292	29.8939
0.00103514	29.9807
0.00104112	30.0677
0.00104713	30.155
0.00105317	30.2426
0.00105925	30.3304
0.00106537	30.4184
0.00107152	30.5067
0.00107771	30.5953
0.00108393	30.6841
0.00109018	30.7732
0.00109648	30.8625
0.00110281	30.9521
0.00110917	31.042
0.00111558	31.1321
0.00112202	31.2225
0.0011285	31.3131
0.00113501	31.404
0.00114156	31.4951
0.00114815	31.5866
0.00115478	31.6782
0.00116145	31.7702
0.00116815	31.8624
0.0011749	31.9549
0.00118168	32.0476
0.0011885	32.1406
0.00119536	32.2339
0.00120226	32.3274
0.00120921	32.4212
0.00121619	32.5153
0.00122321	32.6097
0.00123027	32.7043
0.00123737	32.7992
0.00124451	32.8944
0.0012517	32.9898
0.00125893	33.0856
0.00126619	33.1816
0.0012735	33.2778
0.00128086	33.3744
0.00128825	33.4712
0.00129569	33.5683
0.00130317	33.6657
0.00131069	33.7634
0.00131826	33.8614
0.00132587	33.9596
0.00133352	34.0581
0.00134122	34.1569
0.00134896	34.256
0.00135675	34.3554
0.00136458	34.455
0.00137246	34.555
0.00138038	34.6552
0.00138835	34.7557
0.00139637	34.8566
0.00140443	34.9577
0.00141254	35.0591
0.00142069	35.1607
0.00142889	35.2627
0.00143714	35.365
0.00144544	35.4676
0.00145378	35.5704
0.00146218	35.6736
0.00147062	35.7771
0.00147911	35.8808
0.00148765	35.9849
0.00149624	36.0892
0.00150487	36.1939
0.00151356	36.2989
0.0015223	36.4041
0.00153109	36.5097
0.00153993	36.6156
0.00154882	36.7217
0.00155776	36.8282
0.00156675	36.935
0.0015758	37.0421
0.00158489	37.1495
0.00159404	37.2572
0.00160325	37.3652
0.0016125	37.4736
0.00162181	37.5822
0.00163117	37.6912
0.00164059	37.8005
0.00165006	37.91
0.00165959	38.0199
0.00166917	38.1302
0.0016788	38.2407
0.0016885	38.3516
0.00169824	38.4627
0.00170805	38.5742
0.00171791	38.6861
0.00172783	38.7982
0.0017378	38.9107
0.00174783	39.0235
0.00175792	39.1366
0.00176807	39.25
0.00177828	39.3638
0.00178855	39.4779
0.00179887	39.5923
0.00180926	39.7071
0.0018197	39.8222
0.00183021	39.9376
0.00184077	40.0533
0.0018514	40.1694
0.00186209	40.2858
0.00187284	40.4026
0.00188365	40.5197
0.00189452	40.6371
0.00190546	40.7549
0.00191646	40.873
0.00192752	40.9914
0.00193865	41.1102
0.00194984	41.2293
0.0019611	41.3488
0.00197242	41.4686
0.00198381	41.5888
0.00199526	41.7093
0.00200678	41.8302
0.00201837	41.9514
0.00203002	42.0729
0.00204174	42.1948
0.00205353	42.3171
0.00206538	42.4397
0.0020773	42.5626
0.0020893	42.686
0.00210136	42.8096
0.00211349	42.9337
0.00212569	43.058
0.00213796	43.1828
0.0021503	43.3079
0.00216272	43.4334
0.0021752	43.5592
0.00218776	43.6854
0.00220039	43.8119
0.00221309	43.9388
0.00222587	44.0661
0.00223872	44.1938
0.00225165	44.3218
0.00226464	44.4502
0.00227772	44.5789
0.00229087	44.7081
0.00230409	44.8376
0.00231739	44.9674
0.00233077	45.0977
0.00234423	45.2283
0.00235776	45.3593
0.00237137	45.4907
0.00238506	45.6224
0.00239883	45.7546
0.00241268	45.8871
0.00242661	46.02
0.00244062	46.1533
0.00245471	46.2869
0.00246888	46.421
0.00248313	46.5554
0.00249747	46.6903
0.00251189	46.8255
0.00252639	46.9611
0.00254097	47.0971
0.00255564	47.2335
0.0025704	47.3702
0.00258523	47.5074
0.00260016	47.645
0.00261517	47.783
0.00263027	47.9213
0.00264545	48.0601
0.00266073	48.1992
0.00267609	48.3388
0.00269153	48.4788
0.00270707	48.6191
0.0027227	48.7599
0.00273842	48.9011
0.00275423	49.0427
0.00277013	49.1847
0.00278612	49.3271
0.00280221	49.4699
0.00281838	49.6131
0.00283465	49.7568
0.00285102	49.9008
0.00286748	50.0453
0.00288403	50.1902
0.00290068	50.3355
0.00291743	50.4812
0.00293427	50.6273
0.00295121	50.7739
0.00296825	50.9209
0.00298538	51.0683
0.00300262	51.2161
0.00301995	51.3644
0.00303739	51.5131
0.00305492	51.6622
0.00307256	51.8117
0.0030903	51.9617
0.00310814	52.1121
0.00312608	52.2629
0.00314413	52.4142
0.00316228	52.5659
0.00318053	52.7181
0.0031989	52.8707
0.00321736	53.0237
0.00323594	53.1772
0.00325462	53.3311
0.00327341	53.4854
0.0032923	53.6402
0.00331131	53.7955
0.00333043	53.9512
0.00334965	54.1073
0.00336899	54.2639
0.00338844	54.421
0.003408	54.5784
0.00342768	54.7364
0.00344747	54.8948
0.00346737	55.0537
0.00348739	55.213
0.00350752	55.3728
0.00352777	55.533
0.00354813	55.6937
0.00356862	55.8549
0.00358922	56.0165
0.00360994	56.1786
0.00363078	56.3412
0.00365174	56.5042
0.00367282	56.6677
0.00369403	56.8317
0.00371535	56.9961
0.0037368	57.161
0.00375837	57.3264
0.00378007	57.4923
0.00380189	57.6586
0.00382384	57.8255
0.00384592	57.9928
0.00386812	58.1606
0.00389045	58.3289
0.00391291	58.4976
0.0039355	58.6669
0.00395822	58.8366
0.00398107	59.0068
0.00400405	59.1775
0.00402717	59.3487
0.00405042	59.5204
0.0040738	59.6926
0.00409732	59.8653
0.00412098	60.0385
0.00414477	60.2122
0.00416869	60.3864
0.00419276	60.5611
0.00421697	60.7363
0.00424131	60.912
0.0042658	61.0882
0.00429042	61.2649
0.00431519	61.4421
0.0043401	61.6199
0.00436516	61.7981
0.00439036	61.9769
0.0044157	62.1561
0.0044412	62.3359
0.00446684	62.5162
0.00449262	62.6971
0.00451856	62.8784
0.00454465	63.0603
0.00457088	63.2427
0.00459727	63.4256
0.00462381	63.6091
0.0046505	63.7931
0.00467735	63.9776
0.00470435	64.1626
0.00473151	64.3482
0.00475883	64.5343
0.0047863	64.7209
0.00481393	64.9081
0.00484172	65.0959
0.00486968	65.2841
0.00489779	65.4729
0.00492606	65.6623
0.0049545	65.8522
0.0049831	66.0426
0.00501187	66.2336
0.00504081	66.4252
0.00506991	66.6173
0.00509918	66.8099
0.00512861	67.0031
0.00515822	67.1969
0.005188	67.3912
0.00521795	67.5861
0.00524807	67.7815
0.00527837	67.9775
0.00530884	68.1741
0.00533949	68.3712
0.00537032	68.569
0.00540132	68.7672
0.0054325	68.9661
0.00546387	69.1655
0.00549541	69.3655
0.00552713	69.5661
0.00555904	69.7672
0.00559114	69.969
0.00562341	70.1713
0.00565588	70.3742
0.00568853	70.5776
0.00572137	70.7817
0.0057544	70.9864
0.00578762	71.1916
0.00582103	71.3974
0.00585464	71.6039
0.00588844	71.8109
0.00592243	72.0185
0.00595662	72.2267
0.00599101	72.4356
0.0060256	72.645
0.00606038	72.855
0.00609537	73.0656
0.00613056	73.2769
0.00616595	73.4887
0.00620155	73.7012
0.00623735	73.9142
0.00627336	74.1279
0.00630957	74.3422
0.006346	74.5571
0.00638263	74.7727
0.00641948	74.9888
0.00645654	75.2056
0.00649382	75.423
0.00653131	75.6411
0.00656901	75.8597
0.00660693	76.079
0.00664508	76.2989
0.00668344	76.5195
0.00672202	76.7407
0.00676083	76.9625
0.00679986	77.185
0.00683912	77.4081
0.0068786	77.6318
0.00691831	77.8562
0.00695825	78.0813
0.00699842	78.307
0.00703882	78.5333
0.00707946	78.7603
0.00712033	78.988
0.00716143	79.2163
0.00720278	79.4453
0.00724436	79.6749
0.00728618	79.9052
0.00732825	80.1361
0.00737055	80.3677
0.0074131	80.6
0.0074559	80.833
0.00749894	81.0666
0.00754223	81.3009
0.00758578	81.5359
0.00762957	81.7715
0.00767361	82.0079
0.00771792	82.2449
0.00776247	82.4826
0.00780728	82.721
0.00785236	82.96
0.00789769	83.1998
0.00794328	83.4402
0.00798914	83.6814
0.00803526	83.9232
0.00808165	84.1657
0.00812831	84.409
0.00817523	84.6529
0.00822243	84.8975
0.0082699	85.1429
0.00831764	85.3889
0.00836566	85.6357
0.00841395	85.8832
0.00846253	86.1313
0.00851138	86.3802
0.00856052	86.6299
0.00860994	86.8802
0.00865964	87.1312
0.00870964	87.383
0.00875992	87.6355
0.00881049	87.8888
0.00886135	88.1427
0.00891251	88.3974
0.00896396	88.6529
0.00901571	88.909
0.00906776	89.1659
0.00912011	91.0451
0.00917276	91.3071
0.00922571	91.5699
0.00927897	91.8334
0.00933254	92.0977
0.00938642	92.3627
0.00944061	92.6285
0.00949511	92.8951
0.00954993	93.1624
0.00960506	93.4305
0.00966051	93.6994
0.00971628	93.969
0.00977237	94.2394
0.00982879	94.5106
0.00988553	94.7826
0.0099426	95.0553
0.01	95.3289
0.0100577	95.6032
0.0101158	95.8783
0.0101742	96.1542
0.0102329	96.4309
0.010292	96.7084
0.0103514	96.9866
0.0104112	97.2657
0.0104713	97.5456
0.0105317	97.8263
0.0105925	98.1078
0.0106537	98.3901
0.0107152	98.6732
0.0107771	98.9571
0.0108393	99.2419
0.0109018	99.5275
0.0109648	99.8138
0.0110281	100.101
0.0110917	100.389
0.0111558	100.678
0.0112202	100.968
0.011285	101.258
0.0113501	101.549
0.0114156	101.842
0.0114815	102.135
0.0115478	102.429
0.0116145	102.723
0.0116815	103.019
0.011749	103.315
0.0118168	103.613
0.011885	103.911
0.0119536	104.21
0.0120226	104.509
0.0120921	104.81
0.0121619	105.112
0.0122321	105.414
0.0123027	105.717
0.0123737	106.022
0.0124451	106.327
0.012517	106.632
0.0125893	106.939
0.0126619	107.247
0.012735	107.555
0.0128086	107.865
0.0128825	108.175
0.0129569	108.486
0.0130317	108.799
0.0131069	109.112
0.0131826	109.426
0.0132587	109.74
0.0133352	110.056
0.0134122	110.373
0.0134896	110.69
0.0135675	111.009
0.0136458	111.328
0.0137246	111.648
0.0138038	111.969
0.0138835	112.292
0.0139637	112.615
0.0140443	112.939
0.0141254	113.263
0.0142069	113.589
0.0142889	113.916
0.0143714	114.244
0.0144544	114.572
0.0145378	114.902
0.0146218	115.233
0.0147062	115.564
0.0147911	115.896
0.0148765	116.23
0.0149624	116.564
0.0150487	116.899
0.0151356	117.236
0.015223	117.573
0.0153109	117.911
0.0153993	118.25
0.0154882	118.59
0.0155776	118.932
0.0156675	119.274
0.015758	119.617
0.0158489	119.961
0.0159404	120.306
0.0160325	120.652
0.016125	120.999
0.0162181	121.347
0.0163117	121.696
0.0164059	122.046
0.0165006	122.397
0.0165959	122.749
0.0166917	123.102
0.016788	123.456
0.016885	123.811
0.0169824	124.168
0.0170805	124.525
0.0171791	124.883
0.0172783	125.242
0.017378	125.602
0.0174783	125.963
0.0175792	126.326
0.0176807	126.689
0.0177828	127.053
0.0178855	127.419
0.0179887	127.785
0.0180926	128.153
0.018197	128.521
0.0183021	128.891
0.0184077	129.262
0.018514	129.633
0.0186209	130.006
0.0187284	130.38
0.0188365	130.755
0.0189452	131.131
0.0190546	131.508
0.0191646	131.886
0.0192752	132.266
0.0193865	132.646
0.0194984	133.028
0.019611	133.41
0.0197242	133.794
0.0198381	134.178
0.0199526	134.564
0.0200678	134.951
0.0201837	135.339
0.0203002	135.729
0.0204174	136.119
0.0205353	136.51
0.0206538	136.903
0.020773	137.296
0.020893	137.691
0.0210136	138.087
0.0211349	138.484
0.0212569	138.882
0.0213796	139.282
0.021503	139.682
0.0216272	140.084
0.021752	140.487
0.0218776	140.891
0.0220039	141.296
0.0221309	141.702
0.0222587	142.11
0.0223872	142.518
0.0225165	142.928
0.0226464	143.339
0.0227772	143.751
0.0229087	144.164
0.0230409	144.579
0.0231739	144.995
0.0233077	145.411
0.0234423	145.829
0.0235776	146.249
0.0237137	146.669
0.0238506	147.091
0.0239883	147.514
0.0241268	147.938
0.0242661	148.363
0.0244062	148.79
0.0245471	149.218
0.0246888	149.647
0.0248313	150.077
0.0249747	150.508
0.0251189	150.941
0.0252639	151.375
0.0254097	151.81
0.0255564	152.246
0.025704	152.684
0.0258523	153.123
0.0260016	153.563
0.0261517	154.005
0.0263027	154.447
0.0264545	154.891
0.0266073	155.337
0.0267609	155.783
0.0269153	156.231
0.0270707	156.68
0.027227	157.131
0.0273842	157.582
0.0275423	158.035
0.0277013	158.489
0.0278612	158.945
0.0280221	159.402
0.0281838	159.86
0.0283465	160.32
0.0285102	160.78
0.0286748	161.243
0.0288403	161.706
0.0290068	162.171
0.0291743	162.637
0.0293427	163.104
0.0295121	163.573
0.0296825	164.043
0.0298538	164.515
0.0300262	164.988
0.0301995	165.462
0.0303739	165.937
0.0305492	166.414
0.0307256	166.893
0.030903	167.372
0.0310814	167.853
0.0312608	168.336
0.0314413	168.82
0.0316228	169.305
0.0318053	169.791
0.031989	170.279
0.0321736	170.769
0.0323594	171.259
0.0325462	171.752
0.0327341	172.245
0.032923	172.74
0.0331131	173.237
0.0333043	173.734
0.0334965	174.234
0.0336899	174.734
0.0338844	175.237
0.03408	175.74
0.0342768	176.245
0.0344747	176.752
0.0346737	177.26
0.0348739	177.769
0.0350752	178.28
0.0352777	178.792
0.0354813	179.306
0.0356862	179.821
0.0358922	180.338
0.0360994	180.856
0.0363078	181.376
0.0365174	181.897
0.0367282	182.419
0.0369403	182.943
0.0371535	183.469
0.037368	183.996
0.0375837	184.525
0.0378007	185.055
0.0380189	185.587
0.0382384	186.12
0.0384592	186.655
0.0386812	187.191
0.0389045	187.729
0.0391291	188.268
0.039355	188.809
0.0395822	189.352
0.0398107	189.896
0.0400405	190.441
0.0402717	190.988
0.0405042	191.537
0.040738	192.087
0.0409732	192.639
0.0412098	193.192
0.0414477	193.747
0.0416869	194.304
0.0419276	194.862
0.0421697	195.422
0.0424131	195.983
0.042658	196.546
0.0429042	197.111
0.0431519	197.677
0.043401	198.245
0.0436516	198.814
0.0439036	199.385
0.044157	199.958
0.044412	200.533
0.0446684	201.109
0.0449262	201.686
0.0451856	202.266
0.0454465	202.847
0.0457088	203.429
0.0459727	204.013
0.0462381	204.599
0.046505	205.187
0.0467735	205.776
0.0470435	206.367
0.0473151	206.96
0.0475883	207.555
0.047863	208.151
0.0481393	208.748
0.0484172	209.348
0.0486968	209.949
0.0489779	210.552
0.0492606	211.157
0.049545	211.763
0.049831	212.371
0.0501187	212.981
0.0504081	213.593
0.0506991	214.206
0.0509918	214.822
0.0512861	215.438
0.0515822	216.057
0.05188	216.678
0.0521795	217.3
0.0524807	217.924
0.0527837	218.549
0.0530884	219.177
0.0533949	219.806
0.0537032	220.438
0.0540132	221.071
0.054325	221.705
0.0546387	222.342
0.0549541	222.98
0.0552713	223.621
0.0555904	224.263
0.0559114	224.907
0.0562341	225.552
0.0565588	226.2
0.0568853	226.849
0.0572137	227.501
0.057544	228.154
0.0578762	228.809
0.0582103	229.466
0.0585464	230.125
0.0588844	230.785
0.0592243	231.448
0.0595662	232.112
0.0599101	232.779
0.060256	233.447
0.0606038	234.117
0.0609537	234.789
0.0613056	235.463
0.0616595	236.139
0.0620155	236.817
0.0623735	237.497
0.0627336	238.179
0.0630957	238.862
0.06346	239.548
0.0638263	240.235
0.0641948	240.925
0.0645654	241.617
0.0649382	242.31
0.0653131	243.006
0.0656901	243.703
0.0660693	244.403
0.0664508	245.104
0.0668344	245.808
0.0672202	246.513
0.0676083	247.221
0.0679986	247.93
0.0683912	248.642
0.068786	249.355
0.0691831	250.071
0.0695825	250.789
0.0699842	251.508
0.0703882	252.23
0.0707946	252.954
0.0712033	253.68
0.0716143	254.408
0.0720278	255.138
0.0724436	255.87
0.0728618	256.605
0.0732825	257.341
0.0737055	258.079
0.074131	258.82
0.074559	259.563
0.0749894	260.307
0.0754223	261.054
0.0758578	261.803
0.0762957	262.555
0.0767361	263.308
0.0771792	264.064
0.0776247	264.821
0.0780728	265.581
0.0785236	266.343
0.0789769	267.107
0.0794328	267.874
0.0798914	268.642
0.0803526	269.413
0.0808165	270.186
0.0812831	270.961
0.0817523	271.738
0.0822243	272.518
0.082699	273.3
0.0831764	274.084
0.0836566	274.87
0.0841395	275.659
0.0846253	276.449
0.0851138	277.242
0.0856052	278.038
0.0860994	278.835
0.0865964	279.635
0.0870964	280.437
0.0875992	281.242
0.0881049	282.048
0.0886135	282.857
0.0891251	283.669
0.0896396	284.482
0.0901571	285.298
0.0906776	286.117
0.0912011	286.937
0.0917276	287.76
0.0922571	288.586
0.0927897	289.413
0.0933254	290.243
0.0938642	291.076
0.0944061	291.91
0.0949511	292.748
0.0954993	293.587
0.0960506	294.429
0.0966051	295.274
0.0971628	296.12
0.0977237	296.969
0.0982879	297.821
0.0988553	298.675
0.099426	299.532
0.1	300.39
0.100577	301.252
0.101158	302.116
0.101742	302.982
0.102329	303.851
0.10292	304.722
0.103514	305.596
0.104112	306.472
0.104713	307.351
0.105317	308.232
0.105925	309.115
0.106537	310.002
0.107152	310.89
0.107771	311.782
0.108393	312.676
0.109018	313.572
0.109648	314.471
0.110281	315.373
0.110917	316.277
0.111558	317.183
0.112202	318.093
0.11285	319.004
0.113501	319.919
0.114156	320.836
0.114815	321.756
0.115478	322.678
0.116145	323.603
0.116815	324.53
0.11749	325.46
0.118168	326.393
0.11885	327.329
0.119536	328.267
0.120226	329.208
0.120921	330.151
0.121619	331.098
0.122321	332.046
0.123027	332.998
0.123737	333.952
0.124451	334.909
0.12517	335.869
0.125893	336.832
0.126619	337.797
0.12735	338.765
0.128086	339.736
0.128825	340.709
0.129569	341.686
0.130317	342.665
0.131069	343.647
0.131826	344.631
0.132587	345.619
0.133352	346.609
0.134122	347.602
0.134896	348.598
0.135675	349.597
0.136458	350.598
0.137246	351.603
0.138038	352.61
0.138835	353.62
0.139637	354.633
0.140443	355.649
0.141254	356.668
0.142069	357.69
0.142889	358.715
0.143714	359.742
0.144544	360.773
0.145378	361.806
0.146218	362.842
0.147062	363.882
0.147911	364.924
0.148765	365.969
0.149624	367.018
0.150487	368.069
0.151356	369.123
0.15223	370.18
0.153109	371.24
0.153993	372.304
0.154882	373.37
0.155776	374.439
0.156675	375.511
0.15758	376.587
0.158489	377.665
0.159404	378.747
0.160325	379.831
0.16125	380.919
0.162181	382.01
0.163117	383.104
0.164059	384.201
0.165006	385.301
0.165959	386.404
0.166917	387.51
0.16788	388.62
0.16885	389.733
0.169824	390.848
0.170805	391.967
0.171791	393.09
0.172783	394.215
0.17378	395.343
0.174783	396.475
0.175792	397.61
0.176807	398.749
0.177828	399.89
0.178855	401.035
0.179887	402.183
0.180926	403.334
0.18197	404.488
0.183021	405.646
0.184077	406.807
0.18514	407.972
0.186209	409.139
0.187284	410.31
0.188365	411.485
0.189452	412.662
0.190546	413.843
0.191646	415.028
0.192752	416.216
0.193865	417.407
0.194984	418.601
0.19611	419.799
0.197242	421
0.198381	422.205
0.199526	423.413
0.200678	424.625
0.201837	425.84
0.203002	427.058
0.204174	428.28
0.205353	429.505
0.206538	430.734
0.20773	431.967
0.20893	433.203
0.210136	434.442
0.211349	435.685
0.212569	436.931
0.213796	438.181
0.21503	439.435
0.216272	440.692
0.21752	441.952
0.218776	443.217
0.220039	444.484
0.221309	445.756
0.222587	447.031
0.223872	448.309
0.225165	449.592
0.226464	450.878
0.227772	452.167
0.229087	453.46
0.230409	454.757
0.231739	456.058
0.233077	457.362
0.234423	458.67
0.235776	459.982
0.237137	461.297
0.238506	462.616
0.239883	463.939
0.241268	465.266
0.242661	466.596
0.244062	467.93
0.245471	469.268
0.246888	470.61
0.248313	471.955
0.249747	473.305
0.251189	474.658
0.252639	476.015
0.254097	477.376
0.255564	478.74
0.25704	480.109
0.258523	481.481
0.260016	482.858
0.261517	484.238
0.263027	485.622
0.264545	487.01
0.266073	488.402
0.267609	489.798
0.269153	491.198
0.270707	492.602
0.27227	494.01
0.273842	495.422
0.275423	496.838
0.277013	498.258
0.278612	499.682
0.280221	501.109
0.281838	502.541
0.283465	503.978
0.285102	505.418
0.286748	506.862
0.288403	508.31
0.290068	509.762
0.291743	511.219
0.293427	512.68
0.295121	514.144
0.296825	515.613
0.298538	517.086
0.300262	518.564
0.301995	520.045
0.303739	521.531
0.305492	523.02
0.307256	524.514
0.30903	526.013
0.310814	527.515
0.312608	529.022
0.314413	530.533
0.316228	532.048
0.318053	533.568
0.31989	535.092
0.321736	536.62
0.323594	538.153
0.325462	539.689
0.327341	541.231
0.32923	542.776
0.331131	544.326
0.333043	545.881
0.334965	547.439
0.336899	549.002
0.338844	550.57
0.3408	552.142
0.342768	553.718
0.344747	555.299
0.346737	556.885
0.348739	558.475
0.350752	560.069
0.352777	561.668
0.354813	563.271
0.356862	564.879
0.358922	566.491
0.360994	568.109
0.363078	569.73
0.365174	571.356
0.367282	572.987
0.369403	574.622
0.371535	576.262
0.37368	577.907
0.375837	579.556
0.378007	581.21
0.380189	582.869
0.382384	584.532
0.384592	586.2
0.386812	587.873
0.389045	589.55
0.391291	591.233
0.39355	592.919
0.395822	594.611
0.398107	596.308
0.400405	598.009
0.402717	599.715
0.405042	601.426
0.40738	603.142
0.409732	604.862
0.412098	606.588
0.414477	608.318
0.416869	610.053
0.419276	611.793
0.421697	613.538
0.424131	615.288
0.42658	617.043
0.429042	618.803
0.431519	620.567
0.43401	622.337
0.436516	624.112
0.439036	625.892
0.44157	627.676
0.44412	629.466
0.446684	631.261
0.449262	633.061
0.451856	634.866
0.454465	636.676
0.457088	638.491
0.459727	640.312
0.462381	642.137
0.46505	643.968
0.467735	645.803
0.470435	647.644
0.473151	649.49
0.475883	651.342
0.47863	653.198
0.481393	655.06
0.484172	656.927
0.486968	658.799
0.489779	660.677
0.492606	662.56
0.49545	664.448
0.49831	666.341
0.501187	668.24
0.504081	670.144
0.506991	672.054
0.509918	673.969
0.512861	675.889
0.515822	677.815
0.5188	679.746
0.521795	681.682
0.524807	683.624
0.527837	685.572
0.530884	687.525
0.533949	689.483
0.537032	691.447
0.540132	693.417
0.54325	695.392
0.546387	697.372
0.549541	699.359
0.552713	701.35
0.555904	703.348
0.559114	705.351
0.562341	707.359
0.565588	709.374
0.568853	711.394
0.572137	713.419
0.57544	715.451
0.578762	717.488
0.582103	719.531
0.585464	721.579
0.588844	723.633
0.592243	725.693
0.595662	727.759
0.599101	729.831
0.60256	731.908
0.606038	733.992
0.609537	736.081
0.613056	738.176
0.616595	740.277
0.620155	742.384
0.623735	744.497
0.627336	746.615
0.630957	748.74
0.6346	750.871
0.638263	753.007
0.641948	755.15
0.645654	757.299
0.649382	759.453
0.653131	761.614
0.656901	763.781
0.660693	765.954
0.664508	768.133
0.668344	770.318
0.672202	772.509
0.676083	774.706
0.679986	776.91
0.683912	779.12
0.68786	781.336
0.691831	783.558
0.695825	785.786
0.699842	788.021
0.703882	790.262
0.707946	792.509
0.712033	794.762
0.716143	797.022
0.720278	799.289
0.724436	801.561
0.728618	803.84
0.732825	806.125
0.737055	808.417
0.74131	810.715
0.74559	813.02
0.749894	815.331
0.754223	817.648
0.758578	819.972
0.762957	822.303
0.767361	824.64
0.771792	826.983
0.776247	829.334
0.780728	831.69
0.785236	834.054
0.789769	836.424
0.794328	838.8
0.798914	841.184
0.803526	843.574
0.808165	845.97
0.812831	848.374
0.817523	850.784
0.822243	853.201
0.82699	855.624
0.831764	858.055
0.836566	860.492
0.841395	862.936
0.846253	865.387
0.851138	867.844
0.856052	870.309
0.860994	872.781
0.865964	875.259
0.870964	877.744
0.875992	880.237
0.881049	882.736
0.886135	885.242
0.891251	887.755
0.896396	890.276
0.901571	892.803
0.906776	895.338
0.912011	897.879
0.917276	900.428
0.922571	902.983
0.927897	905.546
0.933254	908.116
0.938642	910.694
0.944061	913.278
0.949511	915.87
0.954993	918.469
0.960506	921.075
0.966051	923.688
0.971628	926.309
0.977237	928.937
0.982879	931.572
0.988553	934.215
0.99426	936.865
1	939.523
1.00577	942.188
1.01158	944.86
1.01742	947.54
1.02329	950.227
1.0292	952.922
1.03514	955.624
1.04112	958.334
1.04713	961.052
1.05317	963.777
1.05925	966.509
1.06537	969.25
1.07152	971.998
1.07771	974.753
1.08393	977.516
1.09018	980.287
1.09648	983.066
1.10281	985.852
1.10917	988.647
1.11558	991.449
1.12202	994.258
1.1285	997.352
1.13501	1000.73
1.14156	1004.13
1.14815	1007.54
1.15478	1010.97
1.16145	1014.42
1.16815	1017.89
1.1749	1021.38
1.18168	1024.88
1.1885	1028.4
1.19536	1031.95
1.20226	1035.51
1.20921	1039.09
1.21619	1042.68
1.22321	1046.3
1.23027	1049.93
1.23737	1053.59
1.24451	1057.26
1.2517	1060.95
1.25893	1064.66
1.26619	1068.39
1.2735	1072.13
1.28086	1075.9
1.28825	1079.68
1.29569	1083.48
1.30317	1087.31
1.31069	1091.15
1.31826	1095.01
1.32587	1098.88
1.33352	1102.78
1.34122	1106.7
1.34896	1110.63
1.35675	1114.43
1.36458	1118.21
1.37246	1122.01
1.38038	1125.83
1.38835	1129.67
1.39637	1133.53
1.40443	1137.4
1.41254	1141.29
1.42069	1145.2
1.42889	1149.12
1.43714	1153.07
1.44544	1157.03
1.45378	1161.01
1.46218	1165
1.47062	1169.01
1.47911	1173.04
1.48765	1177.09
1.49624	1181.16
1.50487	1185.24
1.51356	1189.34
1.5223	1193.45
1.53109	1197.59
1.53993	1201.74
1.54882	1205.9
1.55776	1210.09
1.56675	1214.29
1.5758	1218.5
1.58489	1222.74
1.59404	1226.98
1.60325	1231.25
1.6125	1235.53
1.62181	1239.83
1.63117	1244.14
1.64059	1248.47
1.65006	1252.81
1.65959	1257.17
1.66917	1261.55
1.6788	1265.94
1.6885	1270.34
1.69824	1274.76
1.70805	1279.2
1.71791	1283.64
1.72783	1288.11
1.7378	1292.58
1.74783	1297.07
1.75792	1301.58
1.76807	1306.1
1.77828	1310.63
1.78855	1315.17
1.79887	1319.73
1.80926	1324.25
1.8197	1328.78
1.83021	1333.33
1.84077	1337.88
1.8514	1342.45
1.86209	1347.03
1.87284	1351.62
1.88365	1356.22
1.89452	1360.84
1.90546	1365.47
1.91646	1370.11
1.92752	1374.76
1.93865	1379.42
1.94984	1384.1
1.9611	1388.79
1.97242	1393.49
1.98381	1398.2
1.99526	1402.92
2.00678	1407.66
2.01837	1412.41
2.03002	1417.17
2.04174	1421.94
2.05353	1426.72
2.06538	1431.52
2.0773	1436.33
2.0893	1441.15
2.10136	1445.98
2.11349	1450.82
2.12569	1455.68
2.13796	1460.55
2.1503	1465.43
2.16272	1470.32
2.1752	1475.22
2.18776	1480.14
2.20039	1485.07
2.21309	1490.01
2.22587	1494.96
2.23872	1499.93
2.25165	1504.9
2.26464	1509.89
2.27772	1514.89
2.29087	1519.9
2.30409	1524.92
2.31739	1529.96
2.33077	1535
2.34423	1540.06
2.35776	1545.13
2.37137	1550.22
2.38506	1555.31
2.39883	1560.42
2.41268	1565.53
2.42661	1570.66
2.44062	1575.8
2.45471	1580.96
2.46888	1586.12
2.48313	1591.3
2.49747	1596.49
2.51189	1601.68
2.52639	1606.9
2.54097	1612.12
2.55564	1617.35
2.5704	1622.6
2.58523	1627.85
2.60016	1633.12
2.61517	1638.4
2.63027	1643.69
2.64545	1648.99
2.66073	1654.3
2.67609	1659.62
2.69153	1664.96
2.70707	1670.3
2.7227	1675.66
2.73842	1681.03
2.75423	1686.41
2.77013	1691.8
2.78612	1697.2
2.80221	1702.61
2.81838	1708.04
2.83465	1713.47
2.85102	1718.92
2.86748	1724.38
2.88403	1729.85
2.90068	1735.34
2.91743	1740.83
2.93427	1746.34
2.95121	1751.86
2.96825	1757.4
2.98538	1762.94
3.00262	1768.5
3.01995	1774.07
3.03739	1779.66
3.05492	1785.26
3.07256	1790.87
3.0903	1796.49
3.10814	1802.13
3.12608	1807.78
3.14413	1813.45
3.16228	1819.13
3.18053	1824.83
3.1989	1830.54
3.21736	1836.26
3.23594	1842
3.25462	1847.76
3.27341	1853.54
3.2923	1859.33
3.31131	1865.13
3.33043	1870.96
3.34965	1876.8
3.36899	1882.66
3.38844	1888.54
3.408	1894.44
3.42768	1900.35
3.44747	1906.29
3.46737	1912.25
3.48739	1918.23
3.50752	1924.23
3.52777	1930.25
3.54813	1936.29
3.56862	1942.36
3.58922	1948.45
3.60994	1954.56
3.63078	1960.7
3.65174	1966.86
3.67282	1973.05
3.69403	1979.27
3.71535	1985.51
3.7368	1991.78
3.75837	1998.08
3.78007	2004.4
3.80189	2010.75
3.82384	2017.14
3.84592	2023.55
3.86812	2029.99
3.89045	2036.46
3.91291	2042.96
3.9355	2049.5
3.95822	2056.07
3.98107	2062.67
4.00405	2069.3
4.02717	2075.97
4.05042	2082.67
4.0738	2089.41
4.09732	2096.19
4.12098	2103
4.14477	2109.85
4.16869	2116.73
4.19276	2123.65
4.21697	2130.6
4.24131	2137.59
4.2658	2144.62
4.29042	2151.69
4.31519	2158.78
4.3401	2165.92
4.36516	2173.09
4.39036	2180.3
4.4157	2187.54
4.4412	2194.82
4.46684	2202.14
4.49262	2209.49
4.51856	2216.88
4.54465	2224.3
4.57088	2231.76
4.59727	2239.25
4.62381	2246.78
4.6505	2254.35
4.67735	2261.95
4.70435	2269.59
4.73151	2277.26
4.75883	2284.97
4.7863	2292.71
4.81393	2300.49
4.84172	2308.3
4.86968	2316.15
4.89779	2324.03
4.92606	2331.95
4.9545	2339.9
4.9831	2347.88
5.01187	2355.9
5.04081	2363.96
5.06991	2372.04
5.09918	2380.16
5.12861	2388.32
5.15822	2396.5
5.188	2404.72
5.21795	2412.98
5.24807	2421.26
5.27837	2429.58
5.30884	2437.93
5.33949	2446.31
5.37032	2454.72
5.40132	2463.16
5.4325	2471.64
5.46387	2480.14
5.49541	2488.68
5.52713	2497.24
5.55904	2505.83
5.59114	2514.46
5.62341	2523.11
5.65588	2531.79
5.68853	2540.49
5.72137	2549.23
5.7544	2557.99
5.78762	2566.78
5.82103	2575.59
5.85464	2584.43
5.88844	2593.29
5.92243	2602.18
5.95662	2611.09
5.99101	2620.03
6.0256	2628.99
6.06038	2637.97
6.09537	2646.97
6.13056	2655.99
6.16595	2665.03
6.20155	2674.1
6.23735	2683.18
6.27336	2692.28
6.30957	2701.4
6.346	2710.53
6.38263	2719.68
6.41948	2728.84
6.45654	2738.02
6.49382	2747.21
6.53131	2756.42
6.56901	2765.63
6.60693	2774.86
6.64508	2784.1
6.68344	2793.34
6.72202	2802.59
6.76083	2811.85
6.79986	2821.08
6.83912	2830.32
6.8786	2839.57
6.91831	2848.82
6.95825	2858.07
6.99842	2867.33
7.03882	2876.6
7.07946	2885.86
7.12033	2895.13
7.16143	2904.41
7.20278	2913.69
7.24436	2922.96
7.28618	2932.25
7.32825	2941.53
7.37055	2950.81
7.4131	2960.1
7.4559	2969.39
7.49894	2978.68
7.54223	2987.97
7.58578	2997.26
7.62957	3006.54
7.67361	3015.83
7.71792	3025.12
7.76247	3034.41
7.80728	3043.7
7.85236	3052.98
7.89769	3062.26
7.94328	3071.55
7.98914	3080.83
8.03526	3090.1
8.08165	3099.38
8.12831	3108.65
8.17523	3117.91
8.22243	3127.18
8.2699	3136.44
8.31764	3145.69
8.36566	3154.94
8.41395	3164.19
8.46253	3173.43
8.51138	3182.67
8.56052	3191.9
8.60994	3201.13
8.65964	3210.35
8.70964	3219.56
8.75992	3228.77
8.81049	3237.97
8.86135	3247.16
8.91251	3256.35
8.96396	3265.53
9.01571	3274.71
9.06776	3283.9
9.12011	3293.08
9.17276	3302.26
9.22571	3311.43
9.27897	3320.59
9.33254	3329.74
9.38642	3338.88
9.44061	3348.01
9.49511	3357.13
9.54993	3366.25
9.60506	3375.35
9.66051	3384.44
9.71628	3393.52
9.77237	3402.59
9.82879	3411.65
9.88553	3420.69
9.9426	3429.73
10	3438.75
10.0577	3447.76
10.1158	3456.75
10.1742	3465.74
10.2329	3474.71
10.292	3483.67
10.3514	3492.61
10.4112	3501.55
10.4713	3510.46
10.5317	3519.37
10.5925	3528.26
10.6537	3537.13
10.7152	3546
10.7771	3554.84
10.8393	3563.68
10.9018	3572.49
10.9648	3581.3
11.0281	3590.09
11.0917	3598.86
11.1558	3607.62
11.2202	3616.36
11.285	3625.09
11.3501	3633.81
11.4156	3642.51
11.4815	3651.2
11.5478	3659.87
11.6145	3668.52
11.6815	3677.16
11.749	3685.78
11.8168	3694.38
11.885	3702.97
11.9536	3711.54
12.0226	3720.09
12.0921	3728.63
12.1619	3737.15
12.2321	3745.65
12.3027	3754.13
12.3737	3762.6
12.4451	3771.04
12.517	3779.47
12.5893	3787.88
12.6619	3796.27
12.735	3804.65
12.8086	3813
12.8825	3821.34
12.9569	3829.65
13.0317	3837.95
13.1069	3846.23
13.1826	3854.5
13.2587	3862.74
13.3352	3870.96
13.4122	3879.17
13.4896	3887.36
13.5675	3895.54
13.6458	3903.7
13.7246	3911.85
13.8038	3919.97
13.8835	3928.08
13.9637	3936.17
14.0443	3944.24
14.1254	3952.28
14.2069	3960.31
14.2889	3968.32
14.3714	3976.31
14.4544	3984.27
14.5378	3992.22
14.6218	4000.15
14.7062	4008.05
14.7911	4015.93
14.8765	4023.8
14.9624	4031.64
15.0487	4039.45
15.1356	4047.25
15.223	4055.03
15.3109	4062.78
15.3993	4070.51
15.4882	4078.22
15.5776	4085.91
15.6675	4093.57
15.758	4101.22
15.8489	4108.84
15.9404	4116.44
16.0325	4124.02
16.125	4131.57
16.2181	4139.11
16.3117	4146.62
16.4059	4154.11
16.5006	4161.58
16.5959	4169.03
16.6917	4176.46
16.788	4183.87
16.885	4191.26
16.9824	4198.62
17.0805	4205.97
17.1791	4213.3
17.2783	4220.61
17.378	4227.9
17.4783	4235.17
17.5792	4242.42
17.6807	4249.66
17.7828	4256.88
17.8855	4264.08
17.9887	4271.27
18.0926	4278.4
18.197	4285.52
18.3021	4292.61
18.4077	4299.69
18.514	4306.75
18.6209	4313.8
18.7284	4320.82
18.8365	4327.83
18.9452	4334.82
19.0546	4341.8
19.1646	4348.75
19.2752	4355.69
19.3865	4362.61
19.4984	4369.51
19.611	4376.38
19.7242	4383.24
19.8381	4390.08
19.9526	4396.9
20.0678	4403.7
20.1837	4410.48
20.3002	4417.23
20.4174	4423.97
20.5353	4430.68
20.6538	4437.37
20.773	4444.04
20.893	4450.69
21.0136	4457.31
21.1349	4463.92
21.2569	4470.5
21.3796	4477.05
21.503	4483.59
21.6272	4490.1
21.752	4496.59
21.8776	4503.05
22.0039	4509.49
22.1309	4515.91
22.2587	4522.3
22.3872	4528.67
22.5165	4535.02
22.6464	4541.36
22.7772	4547.67
22.9087	4553.95
23.0409	4560.22
23.1739	4566.45
23.3077	4572.66
23.4423	4578.85
23.5776	4585.01
23.7137	4591.14
23.8506	4597.25
23.9883	4603.32
24.1268	4609.38
24.2661	4615.4
24.4062	4621.39
24.5471	4627.36
24.6888	4633.3
24.8313	4639.21
24.9747	4645.09
25.1189	4650.93
25.2639	4656.75
25.4097	4662.54
25.5564	4668.3
25.704	4674.03
25.8523	4679.73
26.0016	4685.4
26.1517	4691.03
26.3027	4696.63
26.4545	4702.21
26.6073	4707.75
26.7609	4713.25
26.9153	4718.73
27.0707	4724.17
27.227	4729.58
27.3842	4734.96
27.5423	4740.31
27.7013	4745.62
27.8612	4750.89
28.0221	4756.13
28.1838	4761.34
28.3465	4766.51
28.5102	4771.64
28.6748	4776.74
28.8403	4781.8
29.0068	4786.82
29.1743	4791.81
29.3427	4796.75
29.5121	4801.66
29.6825	4806.53
29.8538	4811.36
30.0262	4816.15
30.1995	4820.9
30.3739	4825.62
30.5492	4830.29
30.7256	4834.91
30.903	4839.5
31.0814	4844.05
31.2608	4848.55
31.4413	4853.01
31.6228	4857.43
31.8053	4861.81
31.989	4866.14
32.1736	4870.43
32.3594	4874.68
32.5462	4878.88
32.7341	4883.03
32.923	4887.14
33.1131	4891.21
33.3043	4895.23
33.4965	4899.2
33.6899	4903.12
33.8844	4907
34.08	4910.83
34.2768	4914.61
34.4747	4918.35
34.6737	4922.04
34.8739	4925.67
35.0752	4929.26
35.2777	4932.8
35.4813	4936.29
35.6862	4939.73
35.8922	4943.12
36.0994	4946.46
36.3078	4949.75
36.5174	4952.99
36.7282	4956.17
36.9403	4959.31
37.1535	4962.39
37.368	4965.42
37.5837	4968.4
37.8007	4971.32
38.0189	4974.19
38.2384	4977.01
38.4592	4979.77
38.6812	4982.48
38.9045	4985.14
39.1291	4987.73
39.355	4990.28
39.5822	4992.77
39.8107	4995.2
40.0405	4997.57
40.2717	4999.89
40.5042	5002.15
40.738	5004.36
40.9732	5006.51
41.2098	5008.6
41.4477	5010.64
41.6869	5012.62
41.9276	5014.54
42.1697	5016.4
42.4131	5018.21
42.658	5019.96
42.9042	5021.66
43.1519	5023.3
43.401	5024.88
43.6516	5026.41
43.9036	5027.88
44.157	5029.3
44.412	5030.66
44.6684	5031.96
44.9262	5033.21
45.1856	5034.42
45.4465	5035.57
45.7088	5036.68
45.9727	5037.72
46.2381	5038.71
46.505	5039.65
46.7735	5040.53
47.0435	5041.35
47.3151	5042.12
47.5883	5042.82
47.863	5043.47
48.1393	5044.07
48.4172	5044.6
48.6968	5045.08
48.9779	5045.5
49.2606	5045.85
49.545	5046.15
49.831	5046.39
50.1187	5046.57
50.4081	5046.69
50.6991	5046.75
50.9918	5046.75
51.2861	5046.69
51.5822	5046.56
51.88	5046.38
52.1795	5046.14
52.4807	5045.83
52.7837	5045.46
53.0884	5045.04
53.3949	5044.55
53.7032	5044
54.0132	5043.38
54.325	5042.71
54.6387	5041.97
54.9541	5041.18
55.2713	5040.32
55.5904	5039.4
55.9114	5038.42
56.2341	5037.38
56.5588	5036.28
56.8853	5035.11
57.2137	5033.89
57.544	5032.61
57.8762	5031.27
58.2103	5029.86
58.5464	5028.4
58.8844	5026.88
59.2243	5025.3
59.5662	5023.67
59.9101	5021.97
60.256	5020.22
60.6038	5018.41
60.9537	5016.55
61.3056	5014.63
61.6595	5012.65
62.0155	5010.63
62.3735	5008.54
62.7336	5006.41
63.0957	5004.23
63.46	5001.99
63.8263	4999.7
64.1948	4997.37
64.5654	4994.98
64.9382	4992.55
65.3131	4990.08
65.6901	4987.56
66.0693	4984.99
66.4508	4982.39
66.8344	4979.74
67.2202	4977.05
67.6083	4974.29
67.9986	4971.39
68.3912	4968.45
68.786	4965.47
69.1831	4962.45
69.5825	4959.39
69.9842	4956.29
70.3882	4953.16
70.7946	4949.98
71.2033	4946.77
71.6143	4943.52
72.0278	4940.23
72.4436	4936.89
72.8618	4933.52
73.2825	4930.11
73.7055	4926.66
74.131	4923.17
74.559	4919.64
74.9894	4916.06
75.4223	4912.45
75.8578	4908.8
76.2957	4905.1
76.7361	4901.37
77.1792	4897.59
77.6247	4893.78
78.0728	4889.92
78.5236	4886.02
78.9769	4882.08
79.4328	4878.1
79.8914	4874.08
80.3526	4870.02
80.8165	4865.92
81.2831	4861.78
81.7523	4857.59
82.2243	4853.37
82.699	4849.1
83.1764	4844.8
83.6566	4840.45
84.1395	4836.06
84.6253	4831.64
85.1138	4827.17
85.6052	4822.66
86.0994	4818.11
86.5964	4813.53
87.0964	4808.9
87.5992	4804.24
88.1049	4799.53
88.6135	4794.79
89.1251	4790.01
89.6396	4785.19
90.1571	4780.34
90.6776	4775.46
91.2011	4770.54
91.7276	4765.59
92.2571	4760.59
92.7897	4755.56
93.3254	4750.5
93.8642	4745.39
94.4061	4740.25
94.9511	4735.08
95.4993	4729.86
96.0506	4724.61
96.6051	4719.33
97.1628	4714
97.7237	4708.64
98.2879	4703.25
98.8553	4697.82
99.426	4692.35
100	4686.85
100.577	4681.32
101.158	4675.75
101.742	4670.14
102.329	4664.5
102.92	4658.83
103.514	4653.13
104.112	4647.39
104.713	4641.62
105.317	4635.81
105.925	4629.98
106.537	4624.12
107.152	4618.22
107.771	4612.29
108.393	4606.34
109.018	4600.35
109.648	4594.34
110.281	4588.3
110.917	4582.23
111.558	4576.13
112.202	4570.01
112.85	4563.87
113.501	4557.69
114.156	4551.5
114.815	4545.28
115.478	4539.03
116.145	4532.76
116.815	4526.46
117.49	4520.14
118.168	4513.8
118.85	4507.43
119.536	4501.04
120.226	4494.62
120.921	4488.18
121.619	4481.71
122.321	4475.22
123.027	4468.71
123.737	4462.17
124.451	4455.61
125.17	4449.03
125.893	4442.42
126.619	4435.79
127.35	4429.14
128.086	4422.47
128.825	4415.77
129.569	4409.05
130.317	4402.31
131.069	4395.54
131.826	4388.76
132.587	4381.95
133.352	4375.12
134.122	4368.28
134.896	4361.41
135.675	4354.52
136.458	4347.61
137.246	4340.68
138.038	4333.73
138.835	4326.76
139.637	4319.77
140.443	4312.76
141.254	4305.73
142.069	4298.68
142.889	4291.61
143.714	4284.52
144.544	4277.41
145.378	4270.28
146.218	4263.13
147.062	4255.97
147.911	4248.78
148.765	4241.58
149.624	4234.36
150.487	4227.12
151.356	4219.86
152.23	4212.58
153.109	4205.28
153.993	4197.97
154.882	4190.63
155.776	4183.28
156.675	4175.91
157.58	4168.53
158.489	4161.13
159.404	4153.7
160.325	4146.27
161.25	4138.81
162.181	4131.34
163.117	4123.85
164.059	4116.35
165.006	4108.83
165.959	4101.3
166.917	4093.74
167.88	4086.18
168.85	4078.6
169.824	4071
170.805	4063.39
171.791	4055.76
172.783	4048.12
173.78	4040.47
174.783	4032.8
175.792	4025.12
176.807	4017.42
177.828	4009.72
178.855	4002
179.887	3994.26
180.926	3986.53
181.97	3978.78
183.021	3971.02
184.077	3963.24
185.14	3955.46
186.209	3947.67
187.284	3939.86
188.365	3932.04
189.452	3924.22
190.546	3916.38
191.646	3908.53
192.752	3900.67
193.865	3892.8
194.984	3884.92
196.11	3877.03
197.242	3869.12
198.381	3861.21
199.526	3853.29
200.678	3845.36
201.837	3837.42
203.002	3829.47
204.174	3821.51
205.353	3813.54
206.538	3805.57
207.73	3797.58
208.93	3789.58
210.136	3781.58
211.349	3773.57
212.569	3765.55
213.796	3757.52
215.03	3749.48
216.272	3741.44
217.52	3733.39
218.776	3725.33
220.039	3717.26
221.309	3709.18
222.587	3701.1
223.872	3693.01
225.165	3684.92
226.464	3676.81
227.772	3668.7
229.087	3660.58
230.409	3652.45
231.739	3644.32
233.077	3636.18
234.423	3628.03
235.776	3619.88
237.137	3611.72
238.506	3603.56
239.883	3595.39
241.268	3587.22
242.661	3579.04
244.062	3570.86
245.471	3562.67
246.888	3554.48
248.313	3546.28
249.747	3538.08
251.189	3529.87
252.639	3521.66
254.097	3513.44
255.564	3505.23
257.04	3497
258.523	3488.78
260.016	3480.55
261.517	3472.31
263.027	3464.07
264.545	3455.83
266.073	3447.59
267.609	3439.34
269.153	3431.09
270.707	3422.84
272.27	3414.58
273.842	3406.32
275.423	3398.06
277.013	3389.8
278.612	3381.53
280.221	3373.26
281.838	3364.99
283.465	3356.72
285.102	3348.44
286.748	3340.17
288.403	3331.89
290.068	3323.61
291.743	3315.34
293.427	3307.06
295.121	3298.77
296.825	3290.49
298.538	3282.21
300.262	3273.93
301.995	3265.64
303.739	3257.36
305.492	3249.07
307.256	3240.79
309.03	3232.51
310.814	3224.22
312.608	3215.94
314.413	3207.66
316.228	3199.37
318.053	3191.09
319.89	3182.81
321.736	3174.53
323.594	3166.25
325.462	3157.97
327.341	3149.69
329.23	3141.41
331.131	3133.14
333.043	3124.86
334.965	3116.59
336.899	3108.32
338.844	3100.06
340.8	3091.79
342.768	3083.53
344.747	3075.27
346.737	3067.01
348.739	3058.75
350.752	3050.5
352.777	3042.25
354.813	3034
356.862	3025.75
358.922	3017.51
360.994	3009.27
363.078	3001.03
365.174	2992.8
367.282	2984.57
369.403	2976.35
371.535	2968.12
373.68	2959.91
375.837	2951.69
378.007	2943.48
380.189	2935.28
382.384	2927.07
384.592	2918.88
386.812	2910.68
389.045	2902.5
391.291	2894.31
393.55	2886.14
395.822	2877.96
398.107	2869.8
400.405	2861.63
402.717	2853.48
405.042	2845.33
407.38	2837.18
409.732	2829.04
412.098	2820.9
414.477	2812.78
416.869	2804.65
419.276	2796.54
421.697	2788.43
424.131	2780.32
426.58	2772.22
429.042	2764.13
431.519	2756.04
434.01	2747.97
436.516	2739.89
439.036	2731.83
441.57	2723.77
444.12	2715.71
446.684	2707.67
449.262	2699.63
451.856	2691.59
454.465	2683.55
457.088	2675.53
459.727	2667.51
462.381	2659.49
465.05	2651.49
467.735	2643.49
470.435	2635.5
473.151	2627.52
475.883	2619.54
478.63	2611.58
481.393	2603.62
484.172	2595.67
486.968	2587.74
489.779	2579.81
492.606	2571.89
495.45	2563.98
498.31	2556.08
501.187	2548.19
504.081	2540.31
506.991	2532.44
509.918	2524.58
512.861	2516.73
515.822	2508.89
518.8	2501.06
521.795	2493.25
524.807	2485.44
527.837	2477.65
530.884	2469.87
533.949	2462.09
537.032	2454.33
540.132	2446.59
543.25	2438.85
546.387	2431.13
549.541	2423.41
552.713	2415.71
555.904	2408.03
559.114	2400.35
562.341	2392.69
565.588	2385.03
568.853	2377.39
572.137	2369.77
575.44	2362.15
578.762	2354.55
582.103	2346.96
585.464	2339.38
588.844	2331.81
592.243	2324.26
595.662	2316.71
599.101	2309.18
602.56	2301.66
606.038	2294.16
609.537	2286.66
613.056	2279.18
616.595	2271.71
620.155	2264.25
623.735	2256.8
627.336	2249.36
630.957	2241.93
634.6	2234.51
638.263	2227.1
641.948	2219.71
645.654	2212.32
649.382	2204.94
653.131	2197.57
656.901	2190.21
660.693	2182.86
664.508	2175.52
668.344	2168.18
672.202	2160.85
676.083	2153.56
679.986	2146.34
683.912	2139.13
687.86	2131.93
691.831	2124.74
695.825	2117.56
699.842	2110.38
703.882	2103.22
707.946	2096.06
712.033	2088.91
716.143	2081.77
720.278	2074.64
724.436	2067.52
728.618	2060.41
732.825	2053.32
737.055	2046.23
741.31	2039.15
745.59	2032.08
749.894	2025.03
754.223	2017.98
758.578	2010.95
762.957	2003.93
767.361	1996.92
771.792	1989.93
776.247	1982.94
780.728	1975.97
785.236	1969.02
789.769	1962.07
794.328	1955.14
798.914	1948.22
803.526	1941.32
808.165	1934.43
812.831	1927.56
817.523	1920.7
822.243	1913.85
826.99	1907.02
831.764	1900.21
836.566	1893.41
841.395	1886.62
846.253	1879.85
851.138	1873.1
856.052	1866.36
860.994	1859.64
865.964	1852.94
870.964	1846.25
875.992	1839.58
881.049	1832.92
886.135	1826.28
891.251	1819.66
896.396	1813.06
901.571	1806.46
906.776	1799.87
912.011	1793.29
917.276	1786.73
922.571	1780.19
927.897	1773.66
933.254	1767.16
938.642	1760.67
944.061	1754.2
949.511	1747.74
954.993	1741.31
960.506	1734.89
966.051	1728.49
971.628	1722.11
977.237	1715.75
982.879	1709.41
988.553	1703.08
994.26	1696.77
1000	1690.48
1005.77	1684.21
1011.58	1677.96
1017.42	1671.73
1023.29	1665.51
1029.2	1659.31
1035.14	1653.13
1041.12	1646.97
1047.13	1640.83
1053.17	1634.7
1059.25	1628.59
1065.37	1622.5
1071.52	1616.43
1077.71	1610.37
1083.93	1604.33
1090.18	1598.31
1096.48	1592.3
1102.81	1586.31
1109.17	1580.33
1115.58	1574.37
1122.02	1568.43
1128.5	1562.5
1135.01	1556.59
1141.56	1550.68
1148.15	1544.8
1154.78	1538.93
1161.45	1533.07
1168.15	1527.24
1174.9	1521.41
1181.68	1515.6
1188.5	1509.81
1195.36	1504.04
1202.26	1498.28
1209.21	1492.53
1216.19	1486.81
1223.21	1481.1
1230.27	1475.4
1237.37	1469.73
1244.51	1464.06
1251.7	1458.42
1258.93	1452.79
1266.19	1447.18
1273.5	1441.59
1280.86	1436.01
1288.25	1430.45
1295.69	1424.9
1303.17	1419.38
1310.69	1413.87
1318.26	1408.37
1325.87	1402.89
1333.52	1397.43
1341.22	1391.99
1348.96	1386.56
1356.75	1381.14
1364.58	1375.74
1372.46	1370.35
1380.38	1364.98
1388.35	1359.62
1396.37	1354.28
1404.43	1348.96
1412.54	1343.66
1420.69	1338.37
1428.89	1333.1
1437.14	1327.85
1445.44	1322.62
1453.78	1317.4
1462.18	1312.2
1470.62	1307.02
1479.11	1301.86
1487.65	1296.71
1496.24	1291.59
1504.87	1286.48
1513.56	1281.39
1522.3	1276.32
1531.09	1271.26
1539.93	1266.22
1548.82	1261.21
1557.76	1256.21
1566.75	1251.23
1575.8	1246.26
1584.89	1241.32
1594.04	1236.39
1603.25	1231.48
1612.5	1226.59
1621.81	1221.71
1631.17	1216.86
1640.59	1212.02
1650.06	1207.2
1659.59	1202.39
1669.17	1197.61
1678.8	1192.84
1688.5	1188.08
1698.24	1183.34
1708.05	1178.62
1717.91	1173.92
1727.83	1169.23
1737.8	1164.56
1747.83	1159.9
1757.92	1155.25
1768.07	1150.63
1778.28	1146.01
1788.55	1141.41
1798.87	1136.82
1809.26	1132.27
1819.7	1127.74
1830.21	1123.22
1840.77	1118.72
1851.4	1114.22
1862.09	1109.75
1872.84	1105.28
1883.65	1100.83
1894.52	1096.39
1905.46	1091.97
1916.46	1087.57
1927.52	1083.17
1938.65	1078.79
1949.84	1074.43
1961.1	1070.08
1972.42	1065.75
1983.81	1061.43
1995.26	1057.13
2006.78	1052.84
2018.37	1048.57
2030.02	1044.31
2041.74	1040.07
2053.53	1035.85
2065.38	1031.64
2077.3	1027.44
2089.3	1023.27
2101.36	1019.1
2113.49	1014.96
2125.69	1010.83
2137.96	1006.71
2150.3	1002.61
2162.72	998.532
2175.2	994.466
2187.76	990.415
2200.39	986.381
2213.09	982.362
2225.87	978.359
2238.72	974.371
2251.65	970.399
2264.64	966.435
2277.72	962.487
2290.87	958.555
2304.09	954.638
2317.39	950.737
2330.77	946.852
2344.23	942.983
2357.76	939.13
2371.37	935.292
2385.06	931.471
2398.83	927.665
2412.68	923.876
2426.61	920.102
2440.62	916.344
2454.71	912.603
2468.88	908.876
2483.13	905.166
2497.47	901.471
2511.89	897.792
2526.39	894.129
2540.97	890.481
2555.64	886.848
2570.4	883.23
2585.23	879.627
2600.16	876.04
2615.17	872.466
2630.27	868.908
2645.45	865.364
2660.73	861.833
2676.09	858.317
2691.53	854.815
2707.07	851.325
2722.7	847.849
2738.42	844.386
2754.23	840.936
2770.13	837.5
2786.12	834.077
2802.21	830.668
2818.38	827.272
2834.65	823.891
2851.02	820.523
2867.48	817.168
2884.03	813.828
2900.68	810.501
2917.43	807.188
2934.27	803.889
2951.21	800.604
2968.25	797.333
2985.38	794.075
3002.62	790.832
3019.95	787.602
3037.39	784.385
3054.92	781.183
3072.56	777.993
3090.3	774.818
3108.14	771.655
3126.08	768.506
3144.13	765.371
3162.28	762.248
3180.53	759.138
3198.9	756.041
3217.36	752.958
3235.94	749.887
3254.62	746.83
3273.41	743.786
3292.3	740.755
3311.31	737.737
3330.43	734.733
3349.65	731.741
3368.99	728.763
3388.44	725.797
3408	722.845
3427.68	719.906
3447.47	716.979
3467.37	714.066
3487.39	711.165
3507.52	708.277
3527.77	705.401
3548.13	702.538
3568.62	699.687
3589.22	696.848
3609.94	694.021
3630.78	691.206
3651.74	688.403
3672.82	685.613
3694.03	682.834
3715.35	680.067
3736.8	677.313
3758.37	674.57
3780.07	671.84
3801.89	669.122
3823.84	666.417
3845.92	663.723
3868.12	661.042
3890.45	658.372
3912.91	655.715
3935.5	653.07
3958.22	650.437
3981.07	647.816
4004.05	645.207
4027.17	642.61
4050.42	640.024
4073.8	637.451
4097.32	634.889
4120.98	632.338
4144.77	629.799
4168.69	627.271
4192.76	624.755
4216.97	622.25
4241.31	619.756
4265.8	617.274
4290.42	614.802
4315.19	612.341
4340.1	609.89
4365.16	607.45
4390.36	605.02
4415.7	602.6
4441.2	600.19
4466.84	597.79
4492.62	595.399
4518.56	593.014
4544.65	590.636
4570.88	588.268
4597.27	585.909
4623.81	583.56
4650.5	581.22
4677.35	578.89
4704.35	576.569
4731.51	574.259
4758.83	571.959
4786.3	569.668
4813.93	567.388
4841.72	565.119
4869.68	562.859
4897.79	560.61
4926.06	558.372
4954.5	556.144
4983.1	553.927
5011.87	551.721
5040.81	549.526
5069.91	547.341
5099.18	545.168
5128.61	543.005
5158.22	540.854
5188	538.713
5217.95	536.584
5248.07	534.466
5278.37	532.359
5308.84	530.264
5339.49	528.18
5370.32	526.107
5401.32	524.045
5432.5	521.995
5463.87	519.956
5495.41	517.928
5527.13	515.911
5559.04	513.906
5591.14	511.912
5623.41	509.929
5655.88	507.957
5688.53	505.997
5721.37	504.047
5754.4	502.108
5787.62	500.18
5821.03	498.263
5854.64	496.357
5888.44	494.461
5922.43	492.576
5956.62	490.701
5991.01	488.836
6025.6	486.981
6060.38	485.137
6095.37	483.302
6130.56	481.476
6165.95	479.66
6201.55	477.853
6237.35	476.055
6273.36	474.266
6309.57	472.485
6346	470.712
6382.63	468.948
6419.48	467.191
6456.54	465.333
6493.82	463.445
6531.31	461.566
6569.01	459.695
6606.93	457.831
6645.08	455.974
6683.44	454.124
6722.02	452.28
6760.83	450.455
6799.86	448.673
6839.12	446.898
6878.6	445.128
6918.31	443.365
6958.25	441.607
6998.42	439.856
7038.82	438.111
7079.46	436.372
7120.33	434.639
7161.43	432.913
7202.78	431.194
7244.36	429.481
7286.18	427.774
7328.25	426.075
7370.55	424.382
7413.1	422.696
7455.9	421.018
7498.94	419.346
7542.23	417.681
7585.78	416.024
7629.57	414.373
7673.61	412.73
7717.92	411.095
7762.47	409.467
7807.28	407.846
7852.36	406.233
7897.69	404.628
7943.28	403.03
7989.14	401.44
8035.26	399.858
8081.65	398.283
8128.31	396.717
8175.23	395.158
8222.43	393.608
8269.9	392.065
8317.64	390.531
8365.66	389.005
8413.95	387.487
8462.53	385.977
8511.38	384.476
8560.52	382.982
8609.94	381.497
8659.64	380.021
8709.64	378.552
8759.92	377.093
8810.49	375.641
8861.35	374.198
8912.51	372.763
8963.96	371.337
9015.71	369.917
9067.76	368.499
9120.11	367.09
9172.76	365.689
9225.71	364.297
9278.97	362.913
9332.54	361.537
9386.42	360.17
9440.61	358.811
9495.11	357.461
9549.93	356.119
9605.06	354.786
9660.51	353.461
9716.28	352.144
9772.37	350.835
9828.79	349.535
9885.53	348.243
9942.6	346.959
10000	345.684
10057.7	344.416
10115.8	343.157
10174.2	341.905
10232.9	340.661
10292	339.425
10351.4	338.197
10411.2	336.977
10471.3	335.764
10531.7	334.558
10592.5	333.359
10653.7	332.168
10715.2	330.984
10777.1	329.807
10839.3	328.636
10901.8	327.472
10964.8	326.314
11028.1	325.163
11091.7	324.018
11155.8	322.878
11220.2	321.745
11285	320.616
11350.1	319.493
11415.6	318.375
11481.5	317.262
11547.8	316.155
11614.5	315.054
11681.5	313.958
11749	312.867
11816.8	311.782
11885	310.702
11953.6	309.629
12022.6	308.56
12092.1	307.497
12161.9	306.44
12232.1	305.389
12302.7	304.343
12373.7	303.303
12445.1	302.268
12517	301.239
12589.3	300.215
12661.9	299.198
12735	298.185
12808.6	297.179
12882.5	296.177
12956.9	295.182
13031.7	294.192
13106.9	293.207
13182.6	292.227
13258.7	291.254
13335.2	290.285
13412.2	289.322
13489.6	288.363
13567.5	287.409
13645.8	286.459
13724.6	285.514
13803.8	284.575
13883.5	283.641
13963.7	282.712
14044.3	281.788
14125.4	280.87
14206.9	279.957
14288.9	279.05
14371.4	278.148
14454.4	277.251
14537.8	276.36
14621.8	275.474
14706.2	274.593
14791.1	273.718
14876.5	272.849
14962.4	271.985
15048.7	271.126
15135.6	270.273
15223	269.425
15310.9	268.583
15399.3	267.746
15488.2	266.914
15577.6	266.088
15667.5	265.267
15758	264.451
15848.9	263.641
15940.4	262.836
16032.5	262.036
16125	261.241
16218.1	260.451
16311.7	259.667
16405.9	258.887
16500.6	258.113
16595.9	257.343
16691.7	256.578
16788	255.818
16885	255.062
16982.4	254.311
17080.5	253.564
17179.1	252.822
17278.3	252.084
17378	251.351
17478.3	250.621
17579.2	249.895
17680.7	249.173
17782.8	248.455
17885.5	247.74
17988.7	247.029
18092.6	246.327
18197	245.629
18302.1	244.935
18407.7	244.244
18514	243.556
18620.9	242.872
18728.4	242.191
18836.5	241.513
18945.2	240.84
19054.6	240.169
19164.6	239.502
19275.2	238.839
19386.5	238.18
19498.4	237.524
19611	236.871
19724.2	236.223
19838.1	235.577
19952.6	234.936
20067.8	234.298
20183.7	233.664
20300.2	233.034
20417.4	232.408
20535.3	231.785
20653.8	231.166
20773	230.551
20893	229.939
21013.6	229.332
21134.9	228.728
21256.9	228.128
21379.6	227.531
21503	226.938
21627.2	226.35
21752	225.764
21877.6	225.183
22003.9	224.605
22130.9	224.031
22258.7	223.461
22387.2	222.894
22516.5	222.33
22646.4	221.769
22777.2	221.212
22908.7	220.658
23040.9	220.108
23173.9	219.561
23307.7	219.018
23442.3	218.479
23577.6	217.943
23713.7	217.41
23850.6	216.882
23988.3	216.357
24126.8	215.835
24266.1	215.317
24406.2	214.803
24547.1	214.292
24688.8	213.785
24831.3	213.281
24974.7	212.78
25118.9	212.283
25263.9	211.79
25409.7	211.3
25556.4	210.813
25704	210.329
25852.3	209.849
26001.6	209.372
26151.7	208.898
26302.7	208.427
26454.5	207.959
26607.3	207.495
26760.9	207.033
26915.3	206.574
27070.7	206.118
27227	205.664
27384.2	205.214
27542.3	204.766
27701.3	204.321
27861.2	203.878
28022.1	203.439
28183.8	203.002
28346.5	202.568
28510.2	202.137
28674.8	201.709
28840.3	201.284
29006.8	200.861
29174.3	200.442
29342.7	200.025
29512.1	199.611
29682.5	199.199
29853.8	198.791
30026.2	198.385
30199.5	197.982
30373.9	197.582
30549.2	197.184
30725.6	196.79
30903	196.398
31081.4	196.008
31260.8	195.622
31441.3	195.238
31622.8	194.856
31805.3	194.477
31989	194.101
32173.6	193.727
32359.4	193.356
32546.2	192.987
32734.1	192.622
32923	192.258
33113.1	191.897
33304.3	191.539
33496.5	191.184
33689.9	190.83
33884.4	190.48
34080	190.132
34276.8	189.786
34474.7	189.444
34673.7	189.103
34873.9	188.765
35075.2	188.43
35277.7	188.096
35481.3	187.766
35686.2	187.437
35892.2	187.111
36099.4	186.788
36307.8	186.466
36517.4	186.147
36728.2	185.83
36940.3	185.516
37153.5	185.204
37368	184.894
37583.7	184.586
37800.7	184.28
38018.9	183.977
38238.4	183.676
38459.2	183.378
38681.2	183.081
38904.5	182.787
39129.1	182.495
39355	182.205
39582.2	181.917
39810.7	181.631
40040.5	181.348
40271.7	181.066
40504.2	180.786
40738	180.509
40973.2	180.233
41209.8	179.96
41447.7	179.688
41686.9	179.418
41927.6	179.15
42169.7	178.884
42413.1	178.619
42658	178.356
42904.2	178.095
43151.9	177.835
43401	177.577
43651.6	177.32
43903.6	177.065
44157	176.811
44412	176.558
44668.4	176.306
44926.2	176.056
45185.6	175.793
45446.5	175.527
45708.8	175.262
45972.7	174.999
46238.1	174.739
46505	174.48
46773.5	174.224
47043.5	173.969
47315.1	173.716
47588.3	173.466
47863	173.217
48139.3	172.97
48417.2	172.725
48696.8	172.483
48977.9	172.242
49260.6	172.002
49545	171.765
49831	171.53
50118.7	171.296
50408.1	171.065
50699.1	170.835
50991.8	170.607
51286.1	170.381
51582.2	170.157
51880	169.934
52179.5	169.713
52480.7	169.494
52783.7	169.277
53088.4	169.062
53394.9	168.848
53703.2	168.636
54013.2	168.426
54325	168.218
54638.7	168.011
54954.1	167.806
55271.3	167.603
55590.4	167.401
55911.4	167.201
56234.1	167.003
56558.8	166.806
56885.3	166.611
57213.7	166.417
57544	166.226
57876.2	166.036
58210.3	165.847
58546.4	165.66
58884.4	165.475
59224.3	165.291
59566.2	165.109
59910.1	164.928
60256	164.749
60603.8	164.571
60953.7	164.395
61305.6	164.221
61659.5	164.048
62015.5	163.876
62373.5	163.706
62733.6	163.538
63095.7	163.37
63460	163.205
63826.3	163.041
64194.8	162.878
64565.4	162.717
64938.2	162.557
65313.1	162.399
65690.1	162.242
66069.3	162.086
66450.8	161.932
66834.4	161.779
67220.2	161.628
67608.3	161.478
67998.6	161.329
68391.2	161.182
68786	161.036
69183.1	160.892
69582.5	160.748
69984.2	160.607
70388.2	160.466
70794.6	160.327
71203.3	160.189
71614.3	160.052
72027.8	159.917
72443.6	159.782
72861.8	159.65
73282.5	159.518
73705.5	159.388
74131	159.259
74559	159.131
74989.4	159.004
75422.3	158.879
75857.8	158.755
76295.7	158.632
76736.1	158.51
77179.2	158.389
77624.7	158.27
78072.8	158.152
78523.6	158.035
78976.9	157.919
79432.8	157.804
79891.4	157.691
80352.6	157.578
80816.5	157.467
81283.1	157.357
81752.3	157.248
82224.3	157.14
82699	157.033
83176.4	156.927
83656.6	156.823
84139.5	156.719
84625.3	156.617
85113.8	156.516
85605.2	156.415
86099.4	156.316
86596.4	156.218
87096.4	156.121
87599.2	156.025
88104.9	155.929
88613.5	155.835
89125.1	155.742
89639.6	155.65
90157.1	155.559
90677.6	155.469
91201.1	155.38
91727.6	155.292
92257.1	155.205
92789.7	155.119
93325.4	155.034
93864.2	154.95
94406.1	154.867
94951.1	154.784
95499.3	154.703
96050.6	154.622
96605.1	154.543
97162.8	154.464
97723.7	154.387
98287.9	154.31
98855.3	154.234
99426	154.159
100000	154.085
100577	154.012
101158	153.94
101742	153.868
102329	153.798
102920	153.728
103514	153.659
104112	153.591
104713	153.524
105317	153.458
105925	153.393
106537	153.328
107152	153.264
107771	153.201
108393	153.139
109018	153.077
109648	153.017
110281	152.957
110917	152.898
111558	152.84
112202	152.782
112850	152.726
113501	152.67
114156	152.614
114815	152.56
115478	152.506
116145	152.453
116815	152.401
117490	152.35
118168	152.299
118850	152.249
119536	152.2
120226	152.151
120921	152.103
121619	152.056
122321	152.009
123027	151.964
123737	151.918
124451	151.874
125170	151.83
125893	151.787
126619	151.745
127350	151.703
128086	151.662
128825	151.621
129569	151.581
130317	151.542
131069	151.504
131826	151.466
132587	151.428
133352	151.392
134122	151.356
134896	151.32
135675	151.285
136458	151.251
137246	151.217
138038	151.184
138835	151.152
139637	151.12
140443	151.089
141254	151.058
142069	151.028
142889	150.998
143714	150.969
144544	150.94
145378	150.912
146218	150.885
147062	150.858
147911	150.832
148765	150.806
149624	150.781
150487	150.756
151356	150.732
152230	150.708
153109	150.685
153993	150.662
154882	150.64
155776	150.618
156675	150.597
157580	150.576
158489	150.556
159404	150.536
160325	150.517
161250	150.498
162181	150.48
163117	150.462
164059	150.445
165006	150.428
165959	150.411
166917	150.395
167880	150.38
168850	150.365
169824	150.35
170805	150.336
171791	150.322
172783	150.309
173780	150.296
174783	150.283
175792	150.271
176807	150.259
177828	150.248
178855	150.237
179887	150.226
180926	150.216
181970	150.207
183021	150.197
184077	150.188
185140	150.18
186209	150.172
187284	150.164
188365	150.156
189452	150.149
190546	150.143
191646	150.136
192752	150.13
193865	150.125
194984	150.12
196110	150.115
197242	150.11
198381	150.106
199526	150.102
200678	150.099
201837	150.095
203002	150.093
204174	150.09
205353	150.088
206538	150.086
207730	150.084
208930	150.083
210136	150.082
211349	150.082
212569	150.081
213796	150.081
215030	150.082
216272	150.082
217520	150.083
218776	150.084
220039	150.086
221309	150.087
222587	150.089
223872	150.092
225165	150.094
226464	150.097
227772	150.1
229087	150.103
230409	150.107
231739	150.111
233077	150.115
234423	150.12
235776	150.124
237137	150.129
238506	150.134
239883	150.14
241268	150.146
242661	150.151
244062	150.158
245471	150.164
246888	150.171
248313	150.177
249747	150.184
251189	150.192
252639	150.199
254097	150.207
255564	150.215
257040	150.223
258523	150.232
260016	150.24
261517	150.249
263027	150.258
264545	150.267
266073	150.277
267609	150.286
269153	150.296
270707	150.306
272270	150.316
273842	150.327
275423	150.337
277013	150.348
278612	150.359
280221	150.37
281838	150.381
283465	150.393
285102	150.404
286748	150.416
288403	150.428
290068	150.44
291743	150.453
293427	150.465
295121	150.478
296825	150.491
298538	150.504
300262	150.517
301995	150.53
303739	150.543
305492	150.557
307256	150.571
309030	150.585
310814	150.599
312608	150.613
314413	150.627
316228	150.641
318053	150.656
319890	150.671
321736	150.685
323594	150.7
325462	150.715
327341	150.731
329230	150.746
331131	150.761
333043	150.777
334965	150.793
336899	150.809
338844	150.824
340800	150.841
342768	150.857
344747	150.873
346737	150.889
348739	150.906
350752	150.922
352777	150.939
354813	150.956
356862	150.973
358922	150.99
360994	151.007
363078	151.024
365174	151.041
367282	151.059
369403	151.076
371535	151.094
373680	151.111
375837	151.129
378007	151.147
380189	151.165
382384	151.183
384592	151.201
386812	151.219
389045	151.237
391291	151.255
393550	151.274
395822	151.292
398107	151.311
400405	151.329
402717	151.348
405042	151.366
407380	151.385
409732	151.404
412098	151.423
414477	151.442
416869	151.461
419276	151.48
421697	151.499
424131	151.518
426580	151.538
429042	151.557
431519	151.576
434010	151.596
436516	151.615
439036	151.635
441570	151.654
444120	151.674
446684	151.694
449262	151.713
451856	151.733
454465	151.753
457088	151.773
459727	151.793
462381	151.812
465050	151.832
467735	151.852
470435	151.872
473151	151.893
475883	151.913
478630	151.933
481393	151.953
484172	151.973
486968	151.993
489779	152.014
492606	152.034
495450	152.054
498310	152.075
501187	152.095
504081	152.115
506991	152.136
509918	152.156
512861	152.177
515822	152.197
518800	152.218
521795	152.238
524807	152.259
527837	152.279
530884	152.3
533949	152.32
537032	152.341
540132	152.361
543250	152.382
546387	152.403
549541	152.423
552713	152.444
555904	152.465
559114	152.485
562341	152.506
565588	152.527
568853	152.547
572137	152.568
575440	152.589
578762	152.609
582103	152.63
585464	152.651
588844	152.671
592243	152.692
595662	152.713
599101	152.734
602560	152.754
606038	152.775
609537	152.796
613056	152.816
616595	152.837
620155	152.858
623735	152.878
627336	152.899
630957	152.92
634600	152.94
638263	152.961
641948	152.982
645654	153.002
649382	153.023
653131	153.043
656901	153.064
660693	153.085
664508	153.105
668344	153.126
672202	153.146
676083	153.167
679986	153.187
683912	153.208
687860	153.228
691831	153.249
695825	153.269
699842	153.29
703882	153.31
707946	153.33
712033	153.351
716143	153.371
720278	153.391
724436	153.412
728618	153.432
732825	153.452
737055	153.472
741310	153.493
745590	153.513
749894	153.533
754223	153.553
758578	153.573
762957	153.593
767361	153.613
771792	153.633
776247	153.653
780728	153.673
785236	153.693
789769	153.713
794328	153.733
798914	153.753
803526	153.773
808165	153.793
812831	153.812
817523	153.832
822243	153.852
826990	153.872
831764	153.891
836566	153.911
841395	153.93
846253	153.95
851138	153.97
856052	153.989
860994	154.009
865964	154.028
870964	154.047
875992	154.067
881049	154.086
886135	154.105
891251	154.124
896396	154.144
901571	154.163
906776	154.182
912011	154.201
917276	154.22
922571	154.239
927897	154.258
933254	154.277
938642	154.296
944061	154.315
949511	154.334
954993	154.352
960506	154.371
966051	154.39
971628	154.409
977237	154.427
982879	154.446
988553	154.464
994260	154.483
1e+06	154.501
1.00577e+06	154.52
1.01158e+06	154.538
1.01742e+06	154.556
1.02329e+06	154.575
1.0292e+06	154.593
1.03514e+06	154.611
1.04112e+06	154.629
1.04713e+06	154.647
1.05317e+06	154.666
1.05925e+06	154.684
1.06537e+06	154.702
1.07152e+06	154.719
1.07771e+06	154.737
1.08393e+06	154.755
1.09018e+06	154.773
1.09648e+06	154.791
1.10281e+06	154.809
1.10917e+06	154.826
1.11558e+06	154.844
1.12202e+06	154.861
1.1285e+06	154.879
1.13501e+06	154.896
1.14156e+06	154.914
1.14815e+06	154.931
1.15478e+06	154.949
1.16145e+06	154.966
1.16815e+06	154.983
1.1749e+06	155
1.18168e+06	155.018
1.1885e+06	155.035
1.19536e+06	155.052
1.20226e+06	155.069
1.20921e+06	155.086
1.21619e+06	155.103
1.22321e+06	155.119
1.23027e+06	155.136
1.23737e+06	155.153
1.24451e+06	155.17
1.2517e+06	155.186
1.25893e+06	155.203
1.26619e+06	155.22
1.2735e+06	155.236
1.28086e+06	155.253
1.28825e+06	155.269
1.29569e+06	155.286
1.30317e+06	155.302
1.31069e+06	155.318
1.31826e+06	155.334
1.32587e+06	155.351
1.33352e+06	155.367
1.34122e+06	155.383
1.34896e+06	155.399
1.35675e+06	155.415
1.36458e+06	155.431
1.37246e+06	155.447
1.38038e+06	155.462
1.38835e+06	155.478
1.39637e+06	155.494
1.40443e+06	155.51
1.41254e+06	155.525
1.42069e+06	155.541
1.42889e+06	155.556
1.43714e+06	155.572
1.44544e+06	155.587
1.45378e+06	155.603
1.46218e+06	155.618
1.47062e+06	155.633
1.47911e+06	155.649
1.48765e+06	155.664
1.49624e+06	155.679
1.50487e+06	155.694
1.51356e+06	155.709
1.5223e+06	155.724
1.53109e+06	155.739
1.53993e+06	155.754
1.54882e+06	155.768
1.55776e+06	155.783
1.56675e+06	155.798
1.5758e+06	155.813
1.58489e+06	155.827
1.59404e+06	155.842
1.60325e+06	155.856
1.6125e+06	155.871
1.62181e+06	155.885
1.63117e+06	155.899
1.64059e+06	155.914
1.65006e+06	155.928
1.65959e+06	155.942
1.66917e+06	155.956
1.6788e+06	155.97
1.6885e+06	155.984
1.69824e+06	155.998
1.70805e+06	156.012
1.71791e+06	156.026
1.72783e+06	156.04
1.7378e+06	156.054
1.74783e+06	156.068
1.75792e+06	156.081
1.76807e+06	156.095
1.77828e+06	156.108
1.78855e+06	156.122
1.79887e+06	156.135
1.80926e+06	156.149
1.8197e+06	156.162
1.83021e+06	156.176
1.84077e+06	156.189
1.8514e+06	156.202
1.86209e+06	156.215
1.87284e+06	156.228
1.88365e+06	156.241
1.89452e+06	156.254
1.90546e+06	156.267
1.91646e+06	156.28
1.92752e+06	156.293
1.93865e+06	156.306
1.94984e+06	156.319
1.9611e+06	156.331
1.97242e+06	156.344
1.98381e+06	156.356
1.99526e+06	156.369
2.00678e+06	156.381
2.01837e+06	156.394
2.03002e+06	156.406
2.04174e+06	156.419
2.05353e+06	156.431
2.06538e+06	156.443
2.0773e+06	156.455
2.0893e+06	156.467
2.10136e+06	156.479
2.11349e+06	156.492
2.12569e+06	156.503
2.13796e+06	156.515
2.1503e+06	156.527
2.16272e+06	156.539
2.1752e+06	156.551
2.18776e+06	156.563
2.20039e+06	156.574
2.21309e+06	156.586
2.22587e+06	156.597
2.23872e+06	156.609
2.25165e+06	156.62
2.26464e+06	156.632
2.27772e+06	156.643
2.29087e+06	156.654
2.30409e+06	156.666
2.31739e+06	156.677
2.33077e+06	156.688
2.34423e+06	156.699
2.35776e+06	156.71
2.37137e+06	156.721
2.38506e+06	156.732
2.39883e+06	156.743
2.41268e+06	156.754
2.42661e+06	156.765
2.44062e+06	156.776
2.45471e+06	156.786
2.46888e+06	156.797
2.48313e+06	156.807
2.49747e+06	156.818
2.51189e+06	156.829
2.52639e+06	156.839
2.54097e+06	156.849
2.55564e+06	156.86
2.5704e+06	156.87
2.58523e+06	156.88
2.60016e+06	156.891
2.61517e+06	156.901
2.63027e+06	156.911
2.64545e+06	156.921
2.66073e+06	156.931
2.67609e+06	156.941
2.69153e+06	156.951
2.70707e+06	156.961
2.7227e+06	156.971
2.73842e+06	156.98
2.75423e+06	156.99
2.77013e+06	157
2.78612e+06	157.009
2.80221e+06	157.019
2.81838e+06	157.028
2.83465e+06	157.038
2.85102e+06	157.047
2.86748e+06	157.057
2.88403e+06	157.066
2.90068e+06	157.075
2.91743e+06	157.085
2.93427e+06	157.094
2.95121e+06	157.103
2.96825e+06	157.112
2.98538e+06	157.121
3.00262e+06	157.13
3.01995e+06	157.139
3.03739e+06	157.148
3.05492e+06	157.157
3.07256e+06	157.166
3.0903e+06	157.175
3.10814e+06	157.183
3.12608e+06	157.192
3.14413e+06	157.201
3.16228e+06	157.209
3.18053e+06	157.218
3.1989e+06	157.226
3.21736e+06	157.235
3.23594e+06	157.243
3.25462e+06	157.252
3.27341e+06	157.26
3.2923e+06	157.268
3.31131e+06	157.276
3.33043e+06	157.285
3.34965e+06	157.293
3.36899e+06	157.301
3.38844e+06	157.309
3.408e+06	157.317
3.42768e+06	157.325
3.44747e+06	157.333
3.46737e+06	157.341
3.48739e+06	157.348
3.50752e+06	157.356
3.52777e+06	157.364
3.54813e+06	157.372
3.56862e+06	157.379
3.58922e+06	157.387
3.60994e+06	157.395
3.63078e+06	157.402
3.65174e+06	157.41
3.67282e+06	157.417
3.69403e+06	157.424
3.71535e+06	157.432
3.7368e+06	157.439
3.75837e+06	157.446
3.78007e+06	157.454
3.80189e+06	157.461
3.82384e+06	157.468
3.84592e+06	157.475
3.86812e+06	157.482
3.89045e+06	157.489
3.91291e+06	157.496
3.9355e+06	157.503
3.95822e+06	157.51
3.98107e+06	157.517
4.00405e+06	157.523
4.02717e+06	157.53
4.05042e+06	157.537
4.0738e+06	157.544
4.09732e+06	157.55
4.12098e+06	157.557
4.14477e+06	157.563
4.16869e+06	157.57
4.19276e+06	157.576
4.21697e+06	157.583
4.24131e+06	157.589
4.2658e+06	157.596
4.29042e+06	157.602
4.31519e+06	157.608
4.3401e+06	157.614
4.36516e+06	157.621
4.39036e+06	157.627
4.4157e+06	157.633
4.4412e+06	157.639
4.46684e+06	157.645
4.49262e+06	157.651
4.51856e+06	157.657
4.54465e+06	157.663
4.57088e+06	157.669
4.59727e+06	157.675
4.62381e+06	157.68
4.6505e+06	157.686
4.67735e+06	157.692
4.70435e+06	157.698
4.73151e+06	157.703
4.75883e+06	157.709
4.7863e+06	157.714
4.81393e+06	157.72
4.84172e+06	157.725
4.86968e+06	157.731
4.89779e+06	157.736
4.92606e+06	157.742
4.9545e+06	157.747
4.9831e+06	157.752
5.01187e+06	157.758
5.04081e+06	157.763
5.06991e+06	157.768
5.09918e+06	157.773
5.12861e+06	157.778
5.15822e+06	157.783
5.188e+06	157.788
5.21795e+06	157.794
5.24807e+06	157.799
5.27837e+06	157.803
5.30884e+06	157.808
5.33949e+06	157.813
5.37032e+06	157.818
5.40132e+06	157.823
5.4325e+06	157.828
5.46387e+06	157.832
5.49541e+06	157.837
5.52713e+06	157.842
5.55904e+06	157.846
5.59114e+06	157.851
5.62341e+06	157.856
5.65588e+06	157.86
5.68853e+06	157.865
5.72137e+06	157.869
5.7544e+06	157.874
5.78762e+06	157.878
5.82103e+06	157.882
5.85464e+06	157.887
5.88844e+06	157.891
5.92243e+06	157.895
5.95662e+06	157.899
5.99101e+06	157.904
6.0256e+06	157.908
6.06038e+06	157.912
6.09537e+06	157.916
6.13056e+06	157.92
6.16595e+06	157.924
6.20155e+06	157.928
6.23735e+06	157.932
6.27336e+06	157.936
6.30957e+06	157.94
6.346e+06	157.944
6.38263e+06	157.948
6.41948e+06	157.951
6.45654e+06	157.955
6.49382e+06	157.959
6.53131e+06	157.963
6.56901e+06	157.966
6.60693e+06	157.97
6.64508e+06	157.974
6.68344e+06	157.977
6.72202e+06	157.981
6.76083e+06	157.984
6.79986e+06	157.988
6.83912e+06	157.991
6.8786e+06	157.995
6.91831e+06	157.998
6.95825e+06	158.002
6.99842e+06	158.005
7.03882e+06	158.008
7.07946e+06	158.012
7.12033e+06	158.015
7.16143e+06	158.018
7.20278e+06	158.021
7.24436e+06	158.025
7.28618e+06	158.028
7.32825e+06	158.031
7.37055e+06	158.034
7.4131e+06	158.037
7.4559e+06	158.04
7.49894e+06	158.043
7.54223e+06	158.046
7.58578e+06	158.049
7.62957e+06	158.052
7.67361e+06	158.055
7.71792e+06	158.058
7.76247e+06	158.061
7.80728e+06	158.064
7.85236e+06	158.066
7.89769e+06	158.069
7.94328e+06	158.072
7.98914e+06	158.075
8.03526e+06	158.077
8.08165e+06	158.08
8.12831e+06	158.083
8.17523e+06	158.085
8.22243e+06	158.088
8.2699e+06	158.09
8.31764e+06	158.093
8.36566e+06	158.095
8.41395e+06	158.098
8.46253e+06	158.1
8.51138e+06	158.103
8.56052e+06	158.105
8.60994e+06	158.108
8.65964e+06	158.11
8.70964e+06	158.112
8.75992e+06	158.115
8.81049e+06	158.117
8.86135e+06	158.119
8.91251e+06	158.122
8.96396e+06	158.124
9.01571e+06	158.126
9.06776e+06	158.128
9.12011e+06	158.13
9.17276e+06	158.132
9.22571e+06	158.135
9.27897e+06	158.137
9.33254e+06	158.139
9.38642e+06	158.141
9.44061e+06	158.143
9.49511e+06	158.145
9.54993e+06	158.147
9.60506e+06	158.149
9.66051e+06	158.151
9.71628e+06	158.153
9.77237e+06	158.154
9.82879e+06	158.156
9.88553e+06	158.158
9.9426e+06	158.16
1e+07	158.162
