Stopping power dEdx from Ionisation for Si28[0.0] Z = 14 in G4_Si, process name: ionIoni
E [MeV]	dEdx [MeV/mm]
0.001	32.9886
0.00100577	33.0845
0.00101158	33.1807
0.00101742	33.2771
0.00102329	33.3738
0.0010292	33.4708
0.00103514	33.5681
0.00104112	33.6657
0.00104713	33.7635
0.00105317	33.8616
0.00105925	33.96
0.00106537	34.0587
0.00107152	34.1577
0.00107771	34.2569
0.00108393	34.3565
0.00109018	34.4563
0.00109648	34.5564
0.00110281	34.6568
0.00110917	34.7575
0.00111558	34.8585
0.00112202	34.9597
0.0011285	35.0613
0.00113501	35.1632
0.00114156	35.2653
0.00114815	35.3678
0.00115478	35.4705
0.00116145	35.5735
0.00116815	35.6769
0.0011749	35.7805
0.00118168	35.8844
0.0011885	35.9887
0.00119536	36.0932
0.00120226	36.198
0.00120921	36.3032
0.00121619	36.4086
0.00122321	36.5143
0.00123027	36.6204
0.00123737	36.7267
0.00124451	36.8334
0.0012517	36.9404
0.00125893	37.0476
0.00126619	37.1552
0.0012735	37.2631
0.00128086	37.3713
0.00128825	37.4798
0.00129569	37.5887
0.00130317	37.6978
0.00131069	37.8073
0.00131826	37.917
0.00132587	38.0271
0.00133352	38.1375
0.00134122	38.2482
0.00134896	38.3593
0.00135675	38.4706
0.00136458	38.5823
0.00137246	38.6943
0.00138038	38.8067
0.00138835	38.9193
0.00139637	39.0323
0.00140443	39.1456
0.00141254	39.2592
0.00142069	39.3732
0.00142889	39.4875
0.00143714	39.6021
0.00144544	39.717
0.00145378	39.8323
0.00146218	39.9479
0.00147062	40.0639
0.00147911	40.1801
0.00148765	40.2968
0.00149624	40.4137
0.00150487	40.531
0.00151356	40.6486
0.0015223	40.7666
0.00153109	40.8849
0.00153993	41.0035
0.00154882	41.1225
0.00155776	41.2418
0.00156675	41.3615
0.0015758	41.4815
0.00158489	41.6019
0.00159404	41.7226
0.00160325	41.8436
0.0016125	41.9651
0.00162181	42.0868
0.00163117	42.2089
0.00164059	42.3314
0.00165006	42.4542
0.00165959	42.5774
0.00166917	42.7009
0.0016788	42.8248
0.0016885	42.949
0.00169824	43.0736
0.00170805	43.1985
0.00171791	43.3238
0.00172783	43.4495
0.0017378	43.5756
0.00174783	43.702
0.00175792	43.8287
0.00176807	43.9558
0.00177828	44.0833
0.00178855	44.2112
0.00179887	44.3394
0.00180926	44.468
0.0018197	44.597
0.00183021	44.7263
0.00184077	44.8561
0.0018514	44.9862
0.00186209	45.1166
0.00187284	45.2475
0.00188365	45.3787
0.00189452	45.5103
0.00190546	45.6422
0.00191646	45.7746
0.00192752	45.9073
0.00193865	46.0405
0.00194984	46.174
0.0019611	46.3078
0.00197242	46.4421
0.00198381	46.5768
0.00199526	46.7118
0.00200678	46.8473
0.00201837	46.9831
0.00203002	47.1193
0.00204174	47.2559
0.00205353	47.3929
0.00206538	47.5303
0.0020773	47.6681
0.0020893	47.8063
0.00210136	47.9449
0.00211349	48.0839
0.00212569	48.2233
0.00213796	48.3631
0.0021503	48.5033
0.00216272	48.6439
0.0021752	48.7849
0.00218776	48.9263
0.00220039	49.0682
0.00221309	49.2104
0.00222587	49.353
0.00223872	49.4961
0.00225165	49.6395
0.00226464	49.7834
0.00227772	49.9277
0.00229087	50.0724
0.00230409	50.2175
0.00231739	50.3631
0.00233077	50.509
0.00234423	50.6554
0.00235776	50.8022
0.00237137	50.9495
0.00238506	51.0971
0.00239883	51.2452
0.00241268	51.3937
0.00242661	51.5426
0.00244062	51.692
0.00245471	51.8418
0.00246888	51.992
0.00248313	52.1427
0.00249747	52.2938
0.00251189	52.4453
0.00252639	52.5973
0.00254097	52.7497
0.00255564	52.9025
0.0025704	53.0558
0.00258523	53.2095
0.00260016	53.3637
0.00261517	53.5183
0.00263027	53.6733
0.00264545	53.8288
0.00266073	53.9848
0.00267609	54.1412
0.00269153	54.2981
0.00270707	54.4554
0.0027227	54.6131
0.00273842	54.7713
0.00275423	54.93
0.00277013	55.0891
0.00278612	55.2487
0.00280221	55.4088
0.00281838	55.5693
0.00283465	55.7302
0.00285102	55.8917
0.00286748	56.0536
0.00288403	56.2159
0.00290068	56.3788
0.00291743	56.5421
0.00293427	56.7058
0.00295121	56.8701
0.00296825	57.0348
0.00298538	57.2
0.00300262	57.3657
0.00301995	57.5318
0.00303739	57.6984
0.00305492	57.8655
0.00307256	58.0331
0.0030903	58.2012
0.00310814	58.3698
0.00312608	58.5388
0.00314413	58.7083
0.00316228	58.8783
0.00318053	59.0488
0.0031989	59.2198
0.00321736	59.3913
0.00323594	59.5633
0.00325462	59.7358
0.00327341	59.9088
0.0032923	60.0823
0.00331131	60.2562
0.00333043	60.4307
0.00334965	60.6057
0.00336899	60.7812
0.00338844	60.9572
0.003408	61.1337
0.00342768	61.3107
0.00344747	61.4882
0.00346737	61.6662
0.00348739	61.8448
0.00350752	62.0238
0.00352777	62.2034
0.00354813	62.3835
0.00356862	62.5641
0.00358922	62.7452
0.00360994	62.9269
0.00363078	63.1091
0.00365174	63.2918
0.00367282	63.475
0.00369403	63.6588
0.00371535	63.843
0.0037368	64.0279
0.00375837	64.2132
0.00378007	64.3991
0.00380189	64.5855
0.00382384	64.7725
0.00384592	64.96
0.00386812	65.148
0.00389045	65.3366
0.00391291	65.5257
0.0039355	65.7154
0.00395822	65.9056
0.00398107	66.0963
0.00400405	66.2877
0.00402717	66.4795
0.00405042	66.6719
0.0040738	66.8649
0.00409732	67.0584
0.00412098	67.2525
0.00414477	67.4472
0.00416869	67.6424
0.00419276	67.8381
0.00421697	68.0345
0.00424131	68.2314
0.0042658	68.4288
0.00429042	68.6269
0.00431519	68.8255
0.0043401	69.0247
0.00436516	69.2244
0.00439036	69.4247
0.0044157	69.6256
0.0044412	69.8271
0.00446684	70.0292
0.00449262	70.2318
0.00451856	70.4351
0.00454465	70.6389
0.00457088	70.8433
0.00459727	71.0483
0.00462381	71.2539
0.0046505	71.4601
0.00467735	71.6668
0.00470435	71.8742
0.00473151	72.0822
0.00475883	72.2907
0.0047863	72.4999
0.00481393	72.7097
0.00484172	72.92
0.00486968	73.131
0.00489779	73.3426
0.00492606	73.5548
0.0049545	73.7676
0.0049831	73.981
0.00501187	74.1951
0.00504081	74.4097
0.00506991	74.625
0.00509918	74.8409
0.00512861	75.0574
0.00515822	75.2746
0.005188	75.4923
0.00521795	75.7107
0.00524807	75.9297
0.00527837	76.1494
0.00530884	76.3697
0.00533949	76.5906
0.00537032	76.8122
0.00540132	77.0344
0.0054325	77.2572
0.00546387	77.4807
0.00549541	77.7048
0.00552713	77.9296
0.00555904	78.155
0.00559114	78.3811
0.00562341	78.6078
0.00565588	78.8352
0.00568853	79.0632
0.00572137	79.2919
0.0057544	79.5212
0.00578762	79.7512
0.00582103	79.9819
0.00585464	80.2133
0.00588844	80.4453
0.00592243	80.6779
0.00595662	80.9113
0.00599101	81.1453
0.0060256	81.38
0.00606038	81.6153
0.00609537	81.8514
0.00613056	82.0881
0.00616595	82.3255
0.00620155	82.5636
0.00623735	82.8024
0.00627336	83.0418
0.00630957	83.282
0.006346	83.5228
0.00638263	83.7644
0.00641948	84.0066
0.00645654	84.2496
0.00649382	84.4932
0.00653131	84.7375
0.00656901	84.9826
0.00660693	85.2283
0.00664508	85.4748
0.00668344	85.722
0.00672202	85.9698
0.00676083	86.2184
0.00679986	86.4677
0.00683912	86.7178
0.0068786	86.9685
0.00691831	87.22
0.00695825	87.4722
0.00699842	87.7251
0.00703882	87.9788
0.00707946	88.2332
0.00712033	88.4883
0.00716143	88.7441
0.00720278	89.0007
0.00724436	89.2581
0.00728618	89.5161
0.00732825	89.7749
0.00737055	90.0345
0.0074131	90.2948
0.0074559	90.5559
0.00749894	90.8177
0.00754223	91.0803
0.00758578	91.3436
0.00762957	91.6077
0.00767361	91.8725
0.00771792	92.1381
0.00776247	92.4045
0.00780728	92.6716
0.00785236	92.9395
0.00789769	93.2082
0.00794328	93.4777
0.00798914	93.7479
0.00803526	94.0189
0.00808165	94.2907
0.00812831	94.5633
0.00817523	94.8367
0.00822243	95.1108
0.0082699	95.3858
0.00831764	95.6615
0.00836566	95.938
0.00841395	96.2154
0.00846253	96.4935
0.00851138	96.7724
0.00856052	97.0522
0.00860994	97.3327
0.00865964	97.614
0.00870964	97.8962
0.00875992	98.1792
0.00881049	98.463
0.00886135	98.7476
0.00891251	99.033
0.00896396	99.3192
0.00901571	99.6063
0.00906776	99.8942
0.00912011	100.183
0.00917276	100.472
0.00922571	100.763
0.00927897	101.054
0.00933254	101.346
0.00938642	101.639
0.00944061	101.933
0.00949511	102.227
0.00954993	102.523
0.00960506	102.819
0.00966051	103.116
0.00971628	103.414
0.00977237	103.713
0.00982879	104.013
0.00988553	104.314
0.0099426	104.615
0.01	104.917
0.0100577	105.221
0.0101158	105.525
0.0101742	105.83
0.0102329	106.136
0.010292	106.442
0.0103514	106.75
0.0104112	107.058
0.0104713	107.368
0.0105317	107.678
0.0105925	107.989
0.0106537	108.301
0.0107152	108.614
0.0107771	108.928
0.0108393	109.243
0.0109018	109.559
0.0109648	109.875
0.0110281	110.193
0.0110917	110.788
0.0111558	111.107
0.0112202	111.427
0.011285	111.748
0.0113501	112.071
0.0114156	112.394
0.0114815	112.718
0.0115478	113.042
0.0116145	113.368
0.0116815	113.695
0.011749	114.023
0.0118168	114.351
0.011885	114.681
0.0119536	115.012
0.0120226	115.343
0.0120921	115.675
0.0121619	116.009
0.0122321	116.343
0.0123027	116.679
0.0123737	117.015
0.0124451	117.352
0.012517	117.69
0.0125893	118.03
0.0126619	118.37
0.012735	118.711
0.0128086	119.053
0.0128825	119.396
0.0129569	119.741
0.0130317	120.086
0.0131069	120.432
0.0131826	120.779
0.0132587	121.127
0.0133352	121.476
0.0134122	121.826
0.0134896	122.178
0.0135675	122.53
0.0136458	122.883
0.0137246	123.237
0.0138038	123.592
0.0138835	123.949
0.0139637	124.306
0.0140443	124.664
0.0141254	125.023
0.0142069	125.384
0.0142889	125.745
0.0143714	126.108
0.0144544	126.471
0.0145378	126.836
0.0146218	127.201
0.0147062	127.568
0.0147911	127.936
0.0148765	128.304
0.0149624	128.674
0.0150487	129.045
0.0151356	129.417
0.015223	129.79
0.0153109	130.164
0.0153993	130.539
0.0154882	130.916
0.0155776	131.293
0.0156675	131.671
0.015758	132.051
0.0158489	132.432
0.0159404	132.813
0.0160325	133.196
0.016125	133.58
0.0162181	133.965
0.0163117	134.351
0.0164059	134.738
0.0165006	135.127
0.0165959	135.516
0.0166917	135.907
0.016788	136.299
0.016885	136.691
0.0169824	137.085
0.0170805	137.481
0.0171791	137.877
0.0172783	138.274
0.017378	138.673
0.0174783	139.073
0.0175792	139.473
0.0176807	139.875
0.0177828	140.279
0.0178855	140.683
0.0179887	141.088
0.0180926	141.495
0.018197	141.903
0.0183021	142.312
0.0184077	142.722
0.018514	143.134
0.0186209	143.546
0.0187284	143.96
0.0188365	144.375
0.0189452	144.791
0.0190546	145.208
0.0191646	145.627
0.0192752	146.047
0.0193865	146.468
0.0194984	146.89
0.019611	147.313
0.0197242	147.738
0.0198381	148.164
0.0199526	148.591
0.0200678	149.019
0.0201837	149.448
0.0203002	149.879
0.0204174	150.311
0.0205353	150.744
0.0206538	151.179
0.020773	151.615
0.020893	152.052
0.0210136	152.49
0.0211349	152.93
0.0212569	153.37
0.0213796	153.812
0.021503	154.256
0.0216272	154.7
0.021752	155.146
0.0218776	155.593
0.0220039	156.042
0.0221309	156.492
0.0222587	156.943
0.0223872	157.395
0.0225165	157.849
0.0226464	158.304
0.0227772	158.76
0.0229087	159.218
0.0230409	159.677
0.0231739	160.137
0.0233077	160.598
0.0234423	161.061
0.0235776	161.526
0.0237137	161.991
0.0238506	162.458
0.0239883	162.926
0.0241268	163.396
0.0242661	163.867
0.0244062	164.339
0.0245471	164.813
0.0246888	165.288
0.0248313	165.764
0.0249747	166.242
0.0251189	166.721
0.0252639	167.202
0.0254097	167.684
0.0255564	168.167
0.025704	168.652
0.0258523	169.138
0.0260016	169.626
0.0261517	170.115
0.0263027	170.605
0.0264545	171.097
0.0266073	171.59
0.0267609	172.084
0.0269153	172.58
0.0270707	173.078
0.027227	173.577
0.0273842	174.077
0.0275423	174.579
0.0277013	175.082
0.0278612	175.587
0.0280221	176.093
0.0281838	176.6
0.0283465	177.109
0.0285102	177.62
0.0286748	178.132
0.0288403	178.645
0.0290068	179.16
0.0291743	179.677
0.0293427	180.194
0.0295121	180.714
0.0296825	181.235
0.0298538	181.757
0.0300262	182.281
0.0301995	182.806
0.0303739	183.333
0.0305492	183.862
0.0307256	184.392
0.030903	184.923
0.0310814	185.456
0.0312608	185.991
0.0314413	186.527
0.0316228	187.064
0.0318053	187.604
0.031989	188.144
0.0321736	188.687
0.0323594	189.231
0.0325462	189.776
0.0327341	190.323
0.032923	190.872
0.0331131	191.422
0.0333043	191.974
0.0334965	192.527
0.0336899	193.082
0.0338844	193.638
0.03408	194.196
0.0342768	194.756
0.0344747	195.318
0.0346737	195.881
0.0348739	196.445
0.0350752	197.011
0.0352777	197.579
0.0354813	198.149
0.0356862	198.72
0.0358922	199.293
0.0360994	199.867
0.0363078	200.443
0.0365174	201.021
0.0367282	201.6
0.0369403	202.181
0.0371535	202.764
0.037368	203.349
0.0375837	203.935
0.0378007	204.523
0.0380189	205.112
0.0382384	205.703
0.0384592	206.296
0.0386812	206.891
0.0389045	207.487
0.0391291	208.085
0.039355	208.685
0.0395822	209.287
0.0398107	209.89
0.0400405	210.495
0.0402717	211.102
0.0405042	211.71
0.040738	212.32
0.0409732	212.932
0.0412098	213.546
0.0414477	214.161
0.0416869	214.779
0.0419276	215.398
0.0421697	216.019
0.0424131	216.641
0.042658	217.266
0.0429042	217.892
0.0431519	218.52
0.043401	219.15
0.0436516	219.782
0.0439036	220.415
0.044157	221.05
0.044412	221.688
0.0446684	222.327
0.0449262	222.967
0.0451856	223.61
0.0454465	224.255
0.0457088	224.901
0.0459727	225.549
0.0462381	226.199
0.046505	226.851
0.0467735	227.505
0.0470435	228.161
0.0473151	228.819
0.0475883	229.478
0.047863	230.14
0.0481393	230.803
0.0484172	231.468
0.0486968	232.135
0.0489779	232.804
0.0492606	233.476
0.049545	234.148
0.049831	234.823
0.0501187	235.5
0.0504081	236.179
0.0506991	236.86
0.0509918	237.543
0.0512861	238.227
0.0515822	238.914
0.05188	239.603
0.0521795	240.293
0.0524807	240.986
0.0527837	241.68
0.0530884	242.377
0.0533949	243.076
0.0537032	243.776
0.0540132	244.479
0.054325	245.184
0.0546387	245.89
0.0549541	246.599
0.0552713	247.31
0.0555904	248.023
0.0559114	248.738
0.0562341	249.455
0.0565588	250.174
0.0568853	250.895
0.0572137	251.618
0.057544	252.343
0.0578762	253.07
0.0582103	253.8
0.0585464	254.531
0.0588844	255.265
0.0592243	256.001
0.0595662	256.739
0.0599101	257.479
0.060256	258.221
0.0606038	258.965
0.0609537	259.712
0.0613056	260.46
0.0616595	261.211
0.0620155	261.964
0.0623735	262.719
0.0627336	263.476
0.0630957	264.236
0.06346	264.997
0.0638263	265.761
0.0641948	266.527
0.0645654	267.295
0.0649382	268.066
0.0653131	268.838
0.0656901	269.613
0.0660693	270.39
0.0664508	271.17
0.0668344	271.951
0.0672202	272.735
0.0676083	273.521
0.0679986	274.31
0.0683912	275.1
0.068786	275.893
0.0691831	276.689
0.0695825	277.486
0.0699842	278.286
0.0703882	279.088
0.0707946	279.893
0.0712033	280.699
0.0716143	281.508
0.0720278	282.32
0.0724436	283.134
0.0728618	283.95
0.0732825	284.768
0.0737055	285.589
0.074131	286.412
0.074559	287.238
0.0749894	288.066
0.0754223	288.896
0.0758578	289.729
0.0762957	290.564
0.0767361	291.401
0.0771792	292.241
0.0776247	293.083
0.0780728	293.928
0.0785236	294.775
0.0789769	295.625
0.0794328	296.477
0.0798914	297.332
0.0803526	298.189
0.0808165	299.048
0.0812831	299.91
0.0817523	300.775
0.0822243	301.642
0.082699	302.511
0.0831764	303.383
0.0836566	304.258
0.0841395	305.135
0.0846253	306.014
0.0851138	306.896
0.0856052	307.781
0.0860994	308.668
0.0865964	309.558
0.0870964	310.45
0.0875992	311.345
0.0881049	312.242
0.0886135	313.142
0.0891251	314.045
0.0896396	314.95
0.0901571	315.858
0.0906776	316.768
0.0912011	317.681
0.0917276	318.597
0.0922571	319.515
0.0927897	320.436
0.0933254	321.36
0.0938642	322.286
0.0944061	323.215
0.0949511	324.147
0.0954993	325.081
0.0960506	326.018
0.0966051	326.958
0.0971628	327.9
0.0977237	328.845
0.0982879	329.793
0.0988553	330.744
0.099426	331.697
0.1	332.653
0.100577	333.612
0.101158	334.573
0.101742	335.538
0.102329	336.505
0.10292	337.475
0.103514	338.448
0.104112	339.423
0.104713	340.401
0.105317	341.383
0.105925	342.367
0.106537	343.353
0.107152	344.343
0.107771	345.336
0.108393	346.331
0.109018	347.329
0.109648	348.33
0.110281	349.334
0.110917	350.341
0.111558	351.351
0.112202	352.364
0.11285	353.38
0.113501	354.398
0.114156	355.42
0.114815	356.444
0.115478	357.471
0.116145	358.502
0.116815	359.535
0.11749	360.571
0.118168	361.611
0.11885	362.653
0.119536	363.698
0.120226	364.747
0.120921	365.798
0.121619	366.852
0.122321	367.91
0.123027	368.97
0.123737	370.034
0.124451	371.1
0.12517	372.17
0.125893	373.243
0.126619	374.319
0.12735	375.397
0.128086	376.48
0.128825	377.565
0.129569	378.653
0.130317	379.744
0.131069	380.839
0.131826	381.937
0.132587	383.038
0.133352	384.142
0.134122	385.249
0.134896	386.359
0.135675	387.473
0.136458	388.59
0.137246	389.71
0.138038	390.833
0.138835	391.96
0.139637	393.089
0.140443	394.222
0.141254	395.359
0.142069	396.498
0.142889	397.641
0.143714	398.787
0.144544	399.937
0.145378	401.09
0.146218	402.246
0.147062	403.405
0.147911	404.568
0.148765	405.734
0.149624	406.903
0.150487	408.076
0.151356	409.253
0.15223	410.432
0.153109	411.615
0.153993	412.802
0.154882	413.991
0.155776	415.185
0.156675	416.381
0.15758	417.582
0.158489	418.785
0.159404	419.992
0.160325	421.203
0.16125	422.417
0.162181	423.635
0.163117	424.856
0.164059	426.08
0.165006	427.308
0.165959	428.54
0.166917	429.775
0.16788	431.014
0.16885	432.256
0.169824	433.502
0.170805	434.752
0.171791	436.005
0.172783	437.262
0.17378	438.522
0.174783	439.786
0.175792	441.054
0.176807	442.325
0.177828	443.6
0.178855	444.878
0.179887	446.161
0.180926	447.447
0.18197	448.736
0.183021	450.03
0.184077	451.327
0.18514	452.628
0.186209	453.933
0.187284	455.241
0.188365	456.553
0.189452	457.869
0.190546	459.189
0.191646	460.512
0.192752	461.84
0.193865	463.171
0.194984	464.506
0.19611	465.845
0.197242	467.188
0.198381	468.534
0.199526	469.885
0.200678	471.239
0.201837	472.597
0.203002	473.96
0.204174	475.326
0.205353	476.696
0.206538	478.07
0.20773	479.448
0.20893	480.83
0.210136	482.216
0.211349	483.606
0.212569	485
0.213796	486.398
0.21503	487.8
0.216272	489.206
0.21752	490.616
0.218776	492.03
0.220039	493.448
0.221309	494.87
0.222587	496.297
0.223872	497.727
0.225165	499.162
0.226464	500.601
0.227772	502.044
0.229087	503.491
0.230409	504.942
0.231739	506.397
0.233077	507.857
0.234423	509.321
0.235776	510.789
0.237137	512.261
0.238506	513.738
0.239883	515.218
0.241268	516.703
0.242661	518.193
0.244062	519.686
0.245471	521.184
0.246888	522.687
0.248313	524.193
0.249747	525.704
0.251189	527.219
0.252639	528.739
0.254097	530.263
0.255564	531.791
0.25704	533.324
0.258523	534.862
0.260016	536.403
0.261517	537.949
0.263027	539.5
0.264545	541.055
0.266073	542.614
0.267609	544.178
0.269153	545.747
0.270707	547.32
0.27227	548.898
0.273842	550.48
0.275423	552.066
0.277013	553.658
0.278612	555.254
0.280221	556.854
0.281838	558.459
0.283465	560.069
0.285102	561.683
0.286748	563.302
0.288403	564.926
0.290068	566.554
0.291743	568.187
0.293427	569.825
0.295121	571.467
0.296825	573.114
0.298538	574.766
0.300262	576.423
0.301995	578.085
0.303739	579.751
0.305492	581.422
0.307256	583.098
0.30903	584.778
0.310814	586.464
0.312608	588.154
0.314413	589.85
0.316228	591.55
0.318053	593.255
0.31989	594.965
0.321736	596.68
0.323594	598.4
0.325462	600.125
0.327341	601.854
0.32923	603.589
0.331131	605.329
0.333043	607.074
0.334965	608.823
0.336899	610.578
0.338844	612.338
0.3408	614.103
0.342768	615.873
0.344747	617.648
0.346737	619.429
0.348739	621.214
0.350752	623.005
0.352777	624.801
0.354813	626.601
0.356862	628.408
0.358922	630.219
0.360994	632.035
0.363078	633.857
0.365174	635.684
0.367282	637.516
0.369403	639.354
0.371535	641.197
0.37368	643.045
0.375837	644.899
0.378007	646.757
0.380189	648.622
0.382384	650.491
0.384592	652.366
0.386812	654.246
0.389045	656.132
0.391291	658.023
0.39355	659.92
0.395822	661.822
0.398107	663.73
0.400405	665.643
0.402717	667.562
0.405042	669.486
0.40738	671.416
0.409732	673.351
0.412098	675.292
0.414477	677.238
0.416869	679.19
0.419276	681.148
0.421697	683.111
0.424131	685.08
0.42658	687.055
0.429042	689.035
0.431519	691.021
0.43401	693.013
0.436516	695.011
0.439036	697.014
0.44157	699.023
0.44412	701.038
0.446684	703.058
0.449262	705.085
0.451856	707.117
0.454465	709.155
0.457088	711.199
0.459727	713.249
0.462381	715.305
0.46505	717.367
0.467735	719.435
0.470435	721.508
0.473151	723.588
0.475883	725.674
0.47863	727.765
0.481393	729.863
0.484172	731.967
0.486968	734.077
0.489779	736.192
0.492606	738.314
0.49545	740.443
0.49831	742.577
0.501187	744.717
0.504081	746.864
0.506991	749.016
0.509918	751.175
0.512861	753.341
0.515822	755.512
0.5188	757.69
0.521795	759.874
0.524807	762.064
0.527837	764.26
0.530884	766.463
0.533949	768.673
0.537032	770.888
0.540132	773.11
0.54325	775.339
0.546387	777.573
0.549541	779.815
0.552713	782.062
0.555904	784.317
0.559114	786.577
0.562341	788.844
0.565588	791.118
0.568853	793.398
0.572137	795.685
0.57544	797.979
0.578762	800.279
0.582103	802.586
0.585464	804.899
0.588844	807.219
0.592243	809.546
0.595662	811.879
0.599101	814.219
0.60256	816.566
0.606038	818.92
0.609537	821.28
0.613056	823.647
0.616595	826.022
0.620155	828.402
0.623735	830.79
0.627336	833.185
0.630957	835.586
0.6346	837.995
0.638263	840.41
0.641948	842.833
0.645654	845.262
0.649382	847.698
0.653131	850.142
0.656901	852.592
0.660693	855.05
0.664508	857.514
0.668344	859.986
0.672202	862.465
0.676083	864.951
0.679986	867.444
0.683912	869.944
0.68786	872.452
0.691831	874.966
0.695825	877.488
0.699842	880.018
0.703882	882.855
0.707946	885.719
0.712033	888.598
0.716143	891.49
0.720278	894.398
0.724436	897.32
0.728618	900.256
0.732825	903.207
0.737055	906.173
0.74131	909.154
0.74559	912.149
0.749894	915.159
0.754223	918.184
0.758578	921.224
0.762957	924.279
0.767361	927.349
0.771792	930.434
0.776247	933.534
0.780728	936.649
0.785236	939.78
0.789769	942.925
0.794328	946.086
0.798914	949.262
0.803526	952.454
0.808165	955.66
0.812831	958.883
0.817523	962.12
0.822243	965.374
0.82699	968.642
0.831764	971.926
0.836566	975.226
0.841395	978.496
0.846253	981.67
0.851138	984.857
0.856052	988.06
0.860994	991.278
0.865964	994.51
0.870964	997.757
0.875992	1001.02
0.881049	1004.3
0.886135	1007.59
0.891251	1010.9
0.896396	1014.22
0.901571	1017.55
0.906776	1020.91
0.912011	1024.27
0.917276	1027.66
0.922571	1031.05
0.927897	1034.47
0.933254	1037.89
0.938642	1041.34
0.944061	1044.79
0.949511	1048.27
0.954993	1051.75
0.960506	1055.26
0.966051	1058.77
0.971628	1062.31
0.977237	1065.86
0.982879	1069.42
0.988553	1073
0.99426	1076.59
1	1080.2
1.00577	1083.82
1.01158	1087.46
1.01742	1091.12
1.02329	1094.79
1.0292	1098.47
1.03514	1102.17
1.04112	1105.88
1.04713	1109.61
1.05317	1113.36
1.05925	1117.12
1.06537	1120.89
1.07152	1124.68
1.07771	1128.49
1.08393	1132.3
1.09018	1136.14
1.09648	1139.99
1.10281	1143.85
1.10917	1147.73
1.11558	1151.62
1.12202	1155.52
1.1285	1159.4
1.13501	1163.29
1.14156	1167.2
1.14815	1171.12
1.15478	1175.06
1.16145	1179.01
1.16815	1182.98
1.1749	1186.97
1.18168	1190.97
1.1885	1194.98
1.19536	1199.02
1.20226	1203.06
1.20921	1207.13
1.21619	1211.21
1.22321	1215.3
1.23027	1219.42
1.23737	1223.55
1.24451	1227.7
1.2517	1231.86
1.25893	1236.04
1.26619	1240.24
1.2735	1244.46
1.28086	1248.7
1.28825	1252.95
1.29569	1257.23
1.30317	1261.52
1.31069	1265.83
1.31826	1270.17
1.32587	1274.52
1.33352	1278.89
1.34122	1283.28
1.34896	1287.69
1.35675	1292.13
1.36458	1296.58
1.37246	1301.06
1.38038	1305.56
1.38835	1310.08
1.39637	1314.62
1.40443	1319.19
1.41254	1323.78
1.42069	1328.39
1.42889	1333.02
1.43714	1337.68
1.44544	1342.36
1.45378	1347.07
1.46218	1351.8
1.47062	1356.55
1.47911	1361.32
1.48765	1366.12
1.49624	1370.95
1.50487	1375.79
1.51356	1380.66
1.5223	1385.56
1.53109	1390.48
1.53993	1395.42
1.54882	1400.39
1.55776	1405.38
1.56675	1410.39
1.5758	1415.43
1.58489	1420.5
1.59404	1425.59
1.60325	1430.7
1.6125	1435.83
1.62181	1441
1.63117	1446.18
1.64059	1451.39
1.65006	1456.63
1.65959	1461.88
1.66917	1467.17
1.6788	1472.48
1.6885	1477.81
1.69824	1483.17
1.70805	1488.55
1.71791	1493.95
1.72783	1499.38
1.7378	1504.84
1.74783	1510.32
1.75792	1515.82
1.76807	1521.34
1.77828	1526.89
1.78855	1532.46
1.79887	1538.05
1.80926	1543.66
1.8197	1549.3
1.83021	1554.96
1.84077	1560.64
1.8514	1566.34
1.86209	1572.06
1.87284	1577.8
1.88365	1583.56
1.89452	1589.34
1.90546	1595.14
1.91646	1600.96
1.92752	1606.8
1.93865	1612.66
1.94984	1618.53
1.9611	1624.43
1.97242	1630.34
1.98381	1636.26
1.99526	1642.2
2.00678	1648.16
2.01837	1654.14
2.03002	1660.13
2.04174	1666.13
2.05353	1672.15
2.06538	1678.18
2.0773	1684.23
2.0893	1690.29
2.10136	1696.37
2.11349	1702.45
2.12569	1708.55
2.13796	1714.66
2.1503	1720.78
2.16272	1726.92
2.1752	1733.06
2.18776	1739.21
2.20039	1745.37
2.21309	1751.54
2.22587	1757.72
2.23872	1763.91
2.25165	1770.1
2.26464	1776.3
2.27772	1782.51
2.29087	1788.72
2.30409	1794.94
2.31739	1801.16
2.33077	1807.39
2.34423	1813.62
2.35776	1819.86
2.37137	1826.1
2.38506	1832.35
2.39883	1838.6
2.41268	1844.85
2.42661	1851.1
2.44062	1857.36
2.45471	1863.61
2.46888	1869.87
2.48313	1876.13
2.49747	1882.39
2.51189	1888.65
2.52639	1894.91
2.54097	1901.17
2.55564	1907.43
2.5704	1913.69
2.58523	1919.94
2.60016	1926.2
2.61517	1932.45
2.63027	1938.7
2.64545	1944.94
2.66073	1951.19
2.67609	1957.43
2.69153	1963.67
2.70707	1969.9
2.7227	1976.14
2.73842	1982.36
2.75423	1988.59
2.77013	1994.81
2.78612	2001.02
2.80221	2007.23
2.81838	2013.45
2.83465	2019.65
2.85102	2025.86
2.86748	2032.05
2.88403	2038.24
2.90068	2044.43
2.91743	2050.61
2.93427	2056.78
2.95121	2062.95
2.96825	2069.11
2.98538	2075.26
3.00262	2081.4
3.01995	2087.54
3.03739	2093.67
3.05492	2099.79
3.07256	2105.9
3.0903	2112.01
3.10814	2118.11
3.12608	2124.19
3.14413	2130.27
3.16228	2136.34
3.18053	2142.4
3.1989	2148.46
3.21736	2154.5
3.23594	2160.53
3.25462	2166.55
3.27341	2172.56
3.2923	2178.56
3.31131	2184.56
3.33043	2190.54
3.34965	2196.51
3.36899	2202.47
3.38844	2208.42
3.408	2214.35
3.42768	2220.28
3.44747	2226.19
3.46737	2232.1
3.48739	2237.99
3.50752	2243.87
3.52777	2249.74
3.54813	2255.6
3.56862	2261.45
3.58922	2267.28
3.60994	2273.1
3.63078	2278.91
3.65174	2284.71
3.67282	2290.5
3.69403	2296.28
3.71535	2302.04
3.7368	2307.79
3.75837	2313.53
3.78007	2319.26
3.80189	2324.98
3.82384	2330.69
3.84592	2336.38
3.86812	2342.07
3.89045	2347.74
3.91291	2353.4
3.9355	2359.05
3.95822	2364.69
3.98107	2370.32
4.00405	2375.94
4.02717	2381.55
4.05042	2387.15
4.0738	2392.74
4.09732	2398.32
4.12098	2403.9
4.14477	2409.46
4.16869	2415.01
4.19276	2420.56
4.21697	2426.03
4.24131	2431.47
4.2658	2436.89
4.29042	2442.31
4.31519	2447.72
4.3401	2453.12
4.36516	2458.51
4.39036	2463.89
4.4157	2469.26
4.4412	2474.62
4.46684	2479.97
4.49262	2485.3
4.51856	2490.63
4.54465	2495.95
4.57088	2501.26
4.59727	2506.55
4.62381	2511.83
4.6505	2517.1
4.67735	2522.36
4.70435	2527.61
4.73151	2532.84
4.75883	2538.06
4.7863	2543.27
4.81393	2548.47
4.84172	2553.65
4.86968	2558.81
4.89779	2563.97
4.92606	2569.11
4.9545	2574.23
4.9831	2579.34
5.01187	2584.44
5.04081	2589.52
5.06991	2594.58
5.09918	2599.63
5.12861	2604.67
5.15822	2609.69
5.188	2614.69
5.21795	2619.68
5.24807	2624.65
5.27837	2629.61
5.30884	2634.55
5.33949	2639.47
5.37032	2644.38
5.40132	2649.27
5.4325	2654.15
5.46387	2659
5.49541	2663.84
5.52713	2668.67
5.55904	2673.48
5.59114	2678.27
5.62341	2683.06
5.65588	2687.84
5.68853	2692.6
5.72137	2697.34
5.7544	2702.07
5.78762	2706.78
5.82103	2711.48
5.85464	2716.15
5.88844	2720.81
5.92243	2725.45
5.95662	2730.07
5.99101	2734.68
6.0256	2739.27
6.06038	2743.83
6.09537	2748.39
6.13056	2752.92
6.16595	2757.43
6.20155	2761.93
6.23735	2766.41
6.27336	2770.87
6.30957	2775.32
6.346	2779.74
6.38263	2784.15
6.41948	2788.54
6.45654	2792.92
6.49382	2797.27
6.53131	2801.61
6.56901	2805.93
6.60693	2810.24
6.64508	2814.53
6.68344	2818.8
6.72202	2823.06
6.76083	2827.3
6.79986	2831.52
6.83912	2835.73
6.8786	2839.92
6.91831	2844.1
6.95825	2848.27
6.99842	2852.42
7.03882	2856.56
7.07946	2860.69
7.12033	2864.8
7.16143	2868.9
7.20278	2872.98
7.24436	2877.05
7.28618	2881.1
7.32825	2885.14
7.37055	2889.17
7.4131	2893.18
7.4559	2897.18
7.49894	2901.16
7.54223	2905.13
7.58578	2909.08
7.62957	2913.02
7.67361	2916.94
7.71792	2920.84
7.76247	2924.73
7.80728	2928.61
7.85236	2932.47
7.89769	2936.31
7.94328	2940.14
7.98914	2943.95
8.03526	2947.75
8.08165	2951.54
8.12831	2955.3
8.17523	2959.05
8.22243	2962.79
8.2699	2966.51
8.31764	2970.22
8.36566	2973.91
8.41395	2977.59
8.46253	2981.25
8.51138	2984.91
8.56052	2988.54
8.60994	2992.17
8.65964	2995.77
8.70964	2999.36
8.75992	3002.94
8.81049	3006.49
8.86135	3010.04
8.91251	3013.56
8.96396	3017.07
9.01571	3020.56
9.06776	3024.03
9.12011	3027.49
9.17276	3030.93
9.22571	3034.35
9.27897	3037.76
9.33254	3041.14
9.38642	3044.51
9.44061	3047.86
9.49511	3051.2
9.54993	3054.51
9.60506	3057.81
9.66051	3061.09
9.71628	3064.35
9.77237	3067.59
9.82879	3070.81
9.88553	3074.01
9.9426	3077.2
10	3080.37
10.0577	3083.52
10.1158	3086.65
10.1742	3089.76
10.2329	3092.85
10.292	3095.92
10.3514	3098.98
10.4112	3102.02
10.4713	3105.03
10.5317	3108.03
10.5925	3111.02
10.6537	3113.98
10.7152	3116.93
10.7771	3119.85
10.8393	3122.76
10.9018	3125.65
10.9648	3128.53
11.0281	3131.39
11.0917	3134.23
11.1558	3137.05
11.2202	3139.85
11.285	3142.61
11.3501	3145.36
11.4156	3148.09
11.4815	3150.8
11.5478	3153.49
11.6145	3156.17
11.6815	3158.83
11.749	3161.47
11.8168	3164.09
11.885	3166.69
11.9536	3169.27
12.0226	3171.83
12.0921	3174.37
12.1619	3176.89
12.2321	3179.4
12.3027	3181.88
12.3737	3184.34
12.4451	3186.77
12.517	3189.19
12.5893	3191.59
12.6619	3193.96
12.735	3196.31
12.8086	3198.64
12.8825	3200.94
12.9569	3203.22
13.0317	3205.48
13.1069	3207.72
13.1826	3209.93
13.2587	3212.12
13.3352	3214.28
13.4122	3216.42
13.4896	3218.54
13.5675	3220.63
13.6458	3222.69
13.7246	3224.73
13.8038	3226.74
13.8835	3228.73
13.9637	3230.7
14.0443	3232.64
14.1254	3234.55
14.2069	3236.44
14.2889	3238.31
14.3714	3240.15
14.4544	3241.96
14.5378	3243.74
14.6218	3245.5
14.7062	3247.22
14.7911	3248.92
14.8765	3250.6
14.9624	3252.24
15.0487	3253.85
15.1356	3255.44
15.223	3257
15.3109	3258.53
15.3993	3260.03
15.4882	3261.5
15.5776	3262.94
15.6675	3264.35
15.758	3265.73
15.8489	3267.09
15.9404	3268.41
16.0325	3269.7
16.125	3270.96
16.2181	3272.2
16.3117	3273.4
16.4059	3274.57
16.5006	3275.71
16.5959	3276.82
16.6917	3277.9
16.788	3278.96
16.885	3279.98
16.9824	3280.97
17.0805	3281.93
17.1791	3282.86
17.2783	3283.75
17.378	3284.62
17.4783	3285.46
17.5792	3286.26
17.6807	3287.03
17.7828	3287.77
17.8855	3288.48
17.9887	3289.16
18.0926	3289.8
18.197	3290.41
18.3021	3290.99
18.4077	3291.54
18.514	3292.05
18.6209	3292.54
18.7284	3292.98
18.8365	3293.4
18.9452	3293.78
19.0546	3294.13
19.1646	3294.45
19.2752	3294.74
19.3865	3294.99
19.4984	3295.21
19.611	3295.39
19.7242	3295.54
19.8381	3295.66
19.9526	3295.75
20.0678	3295.8
20.1837	3295.83
20.3002	3295.81
20.4174	3295.77
20.5353	3295.69
20.6538	3295.57
20.773	3295.43
20.893	3295.24
21.0136	3295.03
21.1349	3294.78
21.2569	3294.5
21.3796	3294.19
21.503	3293.84
21.6272	3293.45
21.752	3293.04
21.8776	3292.59
22.0039	3292.11
22.1309	3291.59
22.2587	3291.04
22.3872	3290.46
22.5165	3289.84
22.6464	3289.2
22.7772	3288.52
22.9087	3287.8
23.0409	3287.06
23.1739	3286.28
23.3077	3285.46
23.4423	3284.62
23.5776	3283.74
23.7137	3282.82
23.8506	3281.88
23.9883	3280.9
24.1268	3279.88
24.2661	3278.84
24.4062	3277.76
24.5471	3276.65
24.6888	3275.5
24.8313	3274.33
24.9747	3273.12
25.1189	3271.87
25.2639	3270.6
25.4097	3269.29
25.5564	3267.95
25.704	3266.58
25.8523	3265.18
26.0016	3263.74
26.1517	3262.28
26.3027	3260.78
26.4545	3259.25
26.6073	3257.69
26.7609	3256.11
26.9153	3254.49
27.0707	3252.84
27.227	3251.16
27.3842	3249.45
27.5423	3247.72
27.7013	3245.95
27.8612	3244.16
28.0221	3242.34
28.1838	3240.5
28.3465	3238.63
28.5102	3236.73
28.6748	3234.81
28.8403	3232.85
29.0068	3230.87
29.1743	3228.87
29.3427	3226.83
29.5121	3224.77
29.6825	3222.68
29.8538	3220.56
30.0262	3218.41
30.1995	3216.24
30.3739	3214.03
30.5492	3211.8
30.7256	3209.54
30.903	3207.25
31.0814	3204.93
31.2608	3202.58
31.4413	3200.21
31.6228	3197.8
31.8053	3195.37
31.989	3192.91
32.1736	3190.42
32.3594	3187.9
32.5462	3185.35
32.7341	3182.77
32.923	3180.17
33.1131	3177.53
33.3043	3174.87
33.4965	3172.18
33.6899	3169.46
33.8844	3166.71
34.08	3163.93
34.2768	3161.12
34.4747	3158.29
34.6737	3155.43
34.8739	3152.53
35.0752	3149.62
35.2777	3146.67
35.4813	3143.7
35.6862	3140.69
35.8922	3137.66
36.0994	3134.61
36.3078	3131.52
36.5174	3128.41
36.7282	3125.28
36.9403	3122.11
37.1535	3118.93
37.368	3115.71
37.5837	3112.47
37.8007	3109.2
38.0189	3105.91
38.2384	3102.6
38.4592	3099.26
38.6812	3095.9
38.9045	3092.51
39.1291	3089.1
39.355	3085.67
39.5822	3082.21
39.8107	3078.74
40.0405	3075.24
40.2717	3071.72
40.5042	3068.18
40.738	3064.62
40.9732	3061.04
41.2098	3057.45
41.4477	3053.83
41.6869	3050.2
41.9276	3046.55
42.1697	3042.87
42.4131	3039.15
42.658	3035.43
42.9042	3031.68
43.1519	3027.92
43.401	3024.15
43.6516	3020.35
43.9036	3016.55
44.157	3012.72
44.412	3008.88
44.6684	3005.02
44.9262	3001.15
45.1856	2997.26
45.4465	2993.36
45.7088	2989.44
45.9727	2985.5
46.2381	2981.55
46.505	2977.58
46.7735	2973.6
47.0435	2969.6
47.3151	2965.58
47.5883	2961.55
47.863	2957.5
48.1393	2953.44
48.4172	2949.36
48.6968	2945.26
48.9779	2941.15
49.2606	2937.02
49.545	2932.88
49.831	2928.72
50.1187	2924.54
50.4081	2920.35
50.6991	2916.15
50.9918	2911.93
51.2861	2907.69
51.5822	2903.44
51.88	2899.17
52.1795	2894.89
52.4807	2890.59
52.7837	2886.27
53.0884	2881.94
53.3949	2877.6
53.7032	2873.24
54.0132	2868.87
54.325	2864.48
54.6387	2860.07
54.9541	2855.66
55.2713	2851.22
55.5904	2846.77
55.9114	2842.31
56.2341	2837.83
56.5588	2833.34
56.8853	2828.83
57.2137	2824.3
57.544	2819.77
57.8762	2815.21
58.2103	2810.65
58.5464	2806.07
58.8844	2801.48
59.2243	2796.87
59.5662	2792.25
59.9101	2787.61
60.256	2782.97
60.6038	2778.31
60.9537	2773.63
61.3056	2768.94
61.6595	2764.24
62.0155	2759.53
62.3735	2754.8
62.7336	2750.07
63.0957	2745.32
63.46	2740.55
63.8263	2735.78
64.1948	2730.99
64.5654	2726.19
64.9382	2721.38
65.3131	2716.56
65.6901	2711.72
66.0693	2706.88
66.4508	2702.02
66.8344	2697.15
67.2202	2692.28
67.6083	2687.39
67.9986	2682.49
68.3912	2677.58
68.786	2672.66
69.1831	2667.73
69.5825	2662.79
69.9842	2657.84
70.3882	2652.88
70.7946	2647.92
71.2033	2642.94
71.6143	2637.95
72.0278	2632.96
72.4436	2627.96
72.8618	2622.95
73.2825	2617.93
73.7055	2612.9
74.131	2607.86
74.559	2602.81
74.9894	2597.76
75.4223	2592.7
75.8578	2587.63
76.2957	2582.55
76.7361	2577.46
77.1792	2572.37
77.6247	2567.27
78.0728	2562.16
78.5236	2557.04
78.9769	2551.91
79.4328	2546.78
79.8914	2541.64
80.3526	2536.49
80.8165	2531.34
81.2831	2526.18
81.7523	2521.01
82.2243	2515.83
82.699	2510.65
83.1764	2505.46
83.6566	2500.26
84.1395	2495.06
84.6253	2489.84
85.1138	2484.62
85.6052	2479.39
86.0994	2474.16
86.5964	2468.92
87.0964	2463.68
87.5992	2458.42
88.1049	2453.17
88.6135	2447.9
89.1251	2442.63
89.6396	2437.36
90.1571	2432.07
90.6776	2426.79
91.2011	2421.5
91.7276	2416.2
92.2571	2410.9
92.7897	2405.59
93.3254	2400.28
93.8642	2394.96
94.4061	2389.63
94.9511	2384.31
95.4993	2378.97
96.0506	2373.64
96.6051	2368.3
97.1628	2362.95
97.7237	2357.6
98.2879	2352.24
98.8553	2346.88
99.426	2341.52
100	2336.15
100.577	2330.78
101.158	2325.4
101.742	2320.02
102.329	2314.64
102.92	2309.25
103.514	2303.86
104.112	2298.46
104.713	2293.06
105.317	2287.66
105.925	2282.25
106.537	2276.84
107.152	2271.43
107.771	2266.01
108.393	2260.59
109.018	2255.16
109.648	2249.73
110.281	2244.3
110.917	2238.87
111.558	2233.43
112.202	2227.99
112.85	2222.56
113.501	2217.13
114.156	2211.69
114.815	2206.25
115.478	2200.81
116.145	2195.37
116.815	2189.92
117.49	2184.47
118.168	2179.02
118.85	2173.56
119.536	2168.11
120.226	2162.65
120.921	2157.19
121.619	2151.73
122.321	2146.27
123.027	2140.8
123.737	2135.34
124.451	2129.87
125.17	2124.4
125.893	2118.93
126.619	2113.46
127.35	2107.99
128.086	2102.52
128.825	2097.05
129.569	2091.58
130.317	2086.11
131.069	2080.64
131.826	2075.17
132.587	2069.7
133.352	2064.22
134.122	2058.75
134.896	2053.28
135.675	2047.81
136.458	2042.35
137.246	2036.88
138.038	2031.41
138.835	2025.94
139.637	2020.48
140.443	2015.01
141.254	2009.54
142.069	2004.08
142.889	1998.61
143.714	1993.14
144.544	1987.68
145.378	1982.22
146.218	1976.76
147.062	1971.3
147.911	1965.85
148.765	1960.39
149.624	1954.94
150.487	1949.49
151.356	1944.04
152.23	1938.6
153.109	1933.16
153.993	1927.72
154.882	1922.28
155.776	1916.85
156.675	1911.42
157.58	1905.99
158.489	1900.56
159.404	1895.14
160.325	1889.72
161.25	1884.3
162.181	1878.89
163.117	1873.48
164.059	1868.07
165.006	1862.66
165.959	1857.26
166.917	1851.86
167.88	1846.47
168.85	1841.07
169.824	1835.68
170.805	1830.29
171.791	1824.91
172.783	1819.52
173.78	1814.15
174.783	1808.77
175.792	1803.4
176.807	1798.03
177.828	1792.67
178.855	1787.31
179.887	1781.95
180.926	1776.6
181.97	1771.25
183.021	1765.91
184.077	1760.57
185.14	1755.23
186.209	1749.9
187.284	1744.58
188.365	1739.26
189.452	1733.94
190.546	1728.63
191.646	1723.32
192.752	1718.02
193.865	1712.72
194.984	1707.43
196.11	1702.14
197.242	1696.85
198.381	1691.57
199.526	1686.3
200.678	1681.03
201.837	1675.77
203.002	1670.51
204.174	1665.26
205.353	1660.01
206.538	1654.77
207.73	1649.53
208.93	1644.3
210.136	1639.08
211.349	1633.86
212.569	1628.64
213.796	1623.44
215.03	1618.24
216.272	1613.04
217.52	1607.85
218.776	1602.67
220.039	1597.5
221.309	1592.33
222.587	1587.16
223.872	1582.01
225.165	1576.85
226.464	1571.71
227.772	1566.57
229.087	1561.44
230.409	1556.32
231.739	1551.2
233.077	1546.09
234.423	1540.98
235.776	1535.89
237.137	1530.8
238.506	1525.71
239.883	1520.64
241.268	1515.57
242.661	1510.51
244.062	1505.46
245.471	1500.42
246.888	1495.38
248.313	1490.35
249.747	1485.33
251.189	1480.31
252.639	1475.31
254.097	1470.31
255.564	1465.32
257.04	1460.34
258.523	1455.36
260.016	1450.4
261.517	1445.44
263.027	1440.49
264.545	1435.55
266.073	1430.61
267.609	1425.69
269.153	1420.77
270.707	1415.86
272.27	1410.96
273.842	1406.06
275.423	1401.17
277.013	1396.29
278.612	1391.42
280.221	1386.55
281.838	1381.69
283.465	1376.83
285.102	1371.98
286.748	1367.14
288.403	1362.31
290.068	1357.48
291.743	1352.66
293.427	1347.85
295.121	1343.05
296.825	1338.26
298.538	1333.48
300.262	1328.71
301.995	1323.94
303.739	1319.19
305.492	1314.44
307.256	1309.71
309.03	1304.98
310.814	1300.27
312.608	1295.56
314.413	1290.87
316.228	1286.19
318.053	1281.51
319.89	1276.85
321.736	1272.2
323.594	1267.56
325.462	1262.93
327.341	1258.31
329.23	1253.71
331.131	1249.11
333.043	1244.53
334.965	1239.96
336.899	1235.4
338.844	1230.85
340.8	1226.31
342.768	1221.79
344.747	1217.27
346.737	1212.77
348.739	1208.28
350.752	1203.81
352.777	1199.34
354.813	1194.89
356.862	1190.45
358.922	1186.02
360.994	1181.6
363.078	1177.19
365.174	1172.8
367.282	1168.42
369.403	1164.05
371.535	1159.69
373.68	1155.34
375.837	1151
378.007	1146.68
380.189	1142.36
382.384	1138.06
384.592	1133.76
386.812	1129.48
389.045	1125.21
391.291	1120.94
393.55	1116.69
395.822	1112.45
398.107	1108.21
400.405	1103.99
402.717	1099.77
405.042	1095.57
407.38	1091.36
409.732	1087.17
412.098	1082.99
414.477	1078.81
416.869	1074.64
419.276	1070.47
421.697	1066.37
424.131	1062.3
426.58	1058.23
429.042	1054.17
431.519	1050.12
434.01	1046.07
436.516	1042.04
439.036	1038
441.57	1033.98
444.12	1029.96
446.684	1025.95
449.262	1021.95
451.856	1017.96
454.465	1013.97
457.088	1009.99
459.727	1006.02
462.381	1002.06
465.05	998.11
467.735	994.168
470.435	990.234
473.151	986.31
475.883	982.395
478.63	978.49
481.393	974.595
484.172	970.709
486.968	966.834
489.779	962.969
492.606	959.115
495.45	955.271
498.31	951.438
501.187	947.615
504.081	943.804
506.991	940.004
509.918	936.215
512.861	932.438
515.822	928.672
518.8	924.917
521.795	921.175
524.807	917.444
527.837	913.725
530.884	910.018
533.949	906.323
537.032	902.641
540.132	898.971
543.25	895.313
546.387	891.667
549.541	888.035
552.713	884.414
555.904	880.807
559.114	877.211
562.341	873.616
565.588	870.029
568.853	866.455
572.137	862.893
575.44	859.344
578.762	855.808
582.103	852.285
585.464	848.776
588.844	845.279
592.243	841.796
595.662	838.325
599.101	834.869
602.56	831.425
606.038	827.995
609.537	824.578
613.056	821.174
616.595	817.783
620.155	814.406
623.735	811.042
627.336	807.691
630.957	804.353
634.6	801.029
638.263	797.717
641.948	794.418
645.654	791.132
649.382	787.859
653.131	784.598
656.901	781.35
660.693	778.114
664.508	774.89
668.344	771.678
672.202	768.478
676.083	765.289
679.986	762.112
683.912	758.946
687.86	755.791
691.831	752.646
695.825	749.512
699.842	746.388
703.882	743.272
707.946	740.166
712.033	737.07
716.143	733.984
720.278	730.908
724.436	727.842
728.618	724.787
732.825	721.741
737.055	718.706
741.31	715.682
745.59	712.668
749.894	709.664
754.223	706.671
758.578	703.689
762.957	700.718
767.361	697.757
771.792	694.806
776.247	691.867
780.728	688.938
785.236	686.021
789.769	683.113
794.328	680.217
798.914	677.332
803.526	674.457
808.165	671.592
812.831	668.739
817.523	665.896
822.243	663.064
826.99	660.242
831.764	657.43
836.566	654.629
841.395	651.837
846.253	649.051
851.138	646.275
856.052	643.509
860.994	640.754
865.964	638.01
870.964	635.276
875.992	632.553
881.049	629.84
886.135	627.139
891.251	624.448
896.396	621.768
901.571	619.1
906.776	616.442
912.011	613.796
917.276	611.16
922.571	608.536
927.897	605.924
933.254	603.322
938.642	600.732
944.061	598.153
949.511	595.586
954.993	593.03
960.506	590.485
966.051	587.951
971.628	585.429
977.237	582.918
982.879	580.418
988.553	577.93
994.26	575.452
1000	572.986
1005.77	570.53
1011.58	568.086
1017.42	565.652
1023.29	563.229
1029.2	560.816
1035.14	558.414
1041.12	556.022
1047.13	553.641
1053.17	551.269
1059.25	548.907
1065.37	546.555
1071.52	544.212
1077.71	541.879
1083.93	539.555
1090.18	537.239
1096.48	534.932
1102.81	532.633
1109.17	530.342
1115.58	528.059
1122.02	525.789
1128.5	523.539
1135.01	521.296
1141.56	519.06
1148.15	516.832
1154.78	514.612
1161.45	512.4
1168.15	510.195
1174.9	507.998
1181.68	505.81
1188.5	503.629
1195.36	501.457
1202.26	499.293
1209.21	497.137
1216.19	494.989
1223.21	492.85
1230.27	490.72
1237.37	488.598
1244.51	486.484
1251.7	484.38
1258.93	482.284
1266.19	480.197
1273.5	478.118
1280.86	476.049
1288.25	473.988
1295.69	471.936
1303.17	469.893
1310.69	467.86
1318.26	465.835
1325.87	463.818
1333.52	461.811
1341.22	459.813
1348.96	457.824
1356.75	455.843
1364.58	453.872
1372.46	451.909
1380.38	449.955
1388.35	448.01
1396.37	446.074
1404.43	444.144
1412.54	442.22
1420.69	440.306
1428.89	438.4
1437.14	436.502
1445.44	434.614
1453.78	432.734
1462.18	430.863
1470.62	429
1479.11	427.147
1487.65	425.302
1496.24	423.466
1504.87	421.639
1513.56	419.82
1522.3	418.01
1531.09	416.209
1539.93	414.416
1548.82	412.633
1557.76	410.857
1566.75	409.09
1575.8	407.332
1584.89	405.581
1594.04	403.84
1603.25	402.106
1612.5	400.38
1621.81	398.662
1631.17	396.952
1640.59	395.25
1650.06	393.556
1659.59	391.869
1669.17	390.189
1678.8	388.516
1688.5	386.85
1698.24	385.191
1708.05	383.539
1717.91	381.894
1727.83	380.257
1737.8	378.626
1747.83	377.002
1757.92	375.386
1768.07	373.777
1778.28	372.175
1788.55	370.58
1798.87	368.993
1809.26	367.413
1819.7	365.84
1830.21	364.274
1840.77	362.715
1851.4	361.164
1862.09	359.62
1872.84	358.083
1883.65	356.553
1894.52	355.031
1905.46	353.515
1916.46	352.006
1927.52	350.505
1938.65	349.01
1949.84	347.522
1961.1	346.041
1972.42	344.567
1983.81	343.1
1995.26	341.639
2006.78	340.185
2018.37	338.737
2030.02	337.297
2041.74	335.863
2053.53	334.436
2065.38	333.016
2077.3	331.603
2089.3	330.196
2101.36	328.796
2113.49	327.403
2125.69	326.016
2137.96	324.636
2150.3	323.262
2162.72	321.895
2175.2	320.535
2187.76	319.181
2200.39	317.833
2213.09	316.492
2225.87	315.157
2238.72	313.827
2251.65	312.504
2264.64	311.187
2277.72	309.876
2290.87	308.571
2304.09	307.272
2317.39	305.979
2330.77	304.693
2344.23	303.412
2357.76	302.138
2371.37	300.869
2385.06	299.607
2398.83	298.351
2412.68	297.101
2426.61	295.857
2440.62	294.62
2454.71	293.388
2468.88	292.162
2483.13	290.942
2497.47	289.729
2511.89	288.521
2526.39	287.319
2540.97	286.122
2555.64	284.932
2570.4	283.747
2585.23	282.568
2600.16	281.395
2615.17	280.227
2630.27	279.065
2645.45	277.908
2660.73	276.757
2676.09	275.611
2691.53	274.47
2707.07	273.335
2722.7	272.205
2738.42	271.079
2754.23	269.959
2770.13	268.843
2786.12	267.732
2802.21	266.625
2818.38	265.52
2834.65	264.42
2851.02	263.325
2867.48	262.234
2884.03	261.147
2900.68	260.066
2917.43	258.989
2934.27	257.917
2951.21	256.85
2968.25	255.787
2985.38	254.73
3002.62	253.677
3019.95	252.63
3037.39	251.588
3054.92	250.55
3072.56	249.518
3090.3	248.492
3108.14	247.47
3126.08	246.454
3144.13	245.442
3162.28	244.437
3180.53	243.436
3198.9	242.441
3217.36	241.451
3235.94	240.467
3254.62	239.488
3273.41	238.515
3292.3	237.547
3311.31	236.585
3330.43	235.628
3349.65	234.676
3368.99	233.73
3388.44	232.79
3408	231.855
3427.68	230.925
3447.47	230.001
3467.37	229.083
3487.39	228.17
3507.52	227.262
3527.77	226.36
3548.13	225.463
3568.62	224.571
3589.22	223.685
3609.94	222.803
3630.78	221.928
3651.74	221.057
3672.82	220.191
3694.03	219.33
3715.35	218.475
3736.8	217.624
3758.37	216.778
3780.07	215.937
3801.89	215.1
3823.84	214.268
3845.92	213.441
3868.12	212.617
3890.45	211.798
3912.91	210.983
3935.5	210.173
3958.22	209.366
3981.07	208.562
4004.05	207.754
4027.17	206.893
4050.42	206.036
4073.8	205.182
4097.32	204.333
4120.98	203.486
4144.77	202.643
4168.69	201.803
4192.76	200.965
4216.97	200.147
4241.31	199.34
4265.8	198.535
4290.42	197.732
4315.19	196.932
4340.1	196.135
4365.16	195.341
4390.36	194.55
4415.7	193.762
4441.2	192.976
4466.84	192.194
4492.62	191.414
4518.56	190.638
4544.65	189.864
4570.88	189.094
4597.27	188.327
4623.81	187.563
4650.5	186.802
4677.35	186.045
4704.35	185.291
4731.51	184.54
4758.83	183.792
4786.3	183.048
4813.93	182.307
4841.72	181.57
4869.68	180.836
4897.79	180.105
4926.06	179.379
4954.5	178.655
4983.1	177.935
5011.87	177.219
5040.81	176.507
5069.91	175.798
5099.18	175.093
5128.61	174.391
5158.22	173.694
5188	173
5217.95	172.31
5248.07	171.623
5278.37	170.941
5308.84	170.262
5339.49	169.587
5370.32	168.916
5401.32	168.249
5432.5	167.586
5463.87	166.926
5495.41	166.271
5527.13	165.619
5559.04	164.972
5591.14	164.328
5623.41	163.685
5655.88	163.046
5688.53	162.41
5721.37	161.778
5754.4	161.15
5787.62	160.526
5821.03	159.906
5854.64	159.29
5888.44	158.678
5922.43	158.069
5956.62	157.465
5991.01	156.864
6025.6	156.268
6060.38	155.675
6095.37	155.086
6130.56	154.501
6165.95	153.92
6201.55	153.342
6237.35	152.769
6273.36	152.199
6309.57	151.632
6346	151.07
6382.63	150.511
6419.48	149.955
6456.54	149.404
6493.82	148.855
6531.31	148.31
6569.01	147.769
6606.93	147.231
6645.08	146.696
6683.44	146.164
6722.02	145.635
6760.83	145.11
6799.86	144.587
6839.12	144.068
6878.6	143.551
6918.31	143.037
6958.25	142.525
6998.42	142.017
7038.82	141.51
7079.46	141.006
7120.33	140.504
7161.43	140.005
7202.78	139.508
7244.36	139.014
7286.18	138.522
7328.25	138.033
7370.55	137.546
7413.1	137.062
7455.9	136.58
7498.94	136.101
7542.23	135.624
7585.78	135.15
7629.57	134.679
7673.61	134.21
7717.92	133.744
7762.47	133.28
7807.28	132.819
7852.36	132.36
7897.69	131.904
7943.28	131.45
7989.14	130.999
8035.26	130.551
8081.65	130.105
8128.31	129.661
8175.23	129.22
8222.43	128.781
8269.9	128.345
8317.64	127.911
8365.66	127.48
8413.95	127.051
8462.53	126.623
8511.38	126.198
8560.52	125.775
8609.94	125.355
8659.64	124.936
8709.64	124.521
8759.92	124.108
8810.49	123.697
8861.35	123.289
8912.51	122.883
8963.96	122.479
9015.71	122.078
9067.76	121.68
9120.11	121.284
9172.76	120.89
9225.71	120.499
9278.97	120.111
9332.54	119.724
9386.42	119.341
9440.61	118.96
9495.11	118.581
9549.93	118.205
9605.06	117.831
9660.51	117.46
9716.28	117.091
9772.37	116.724
9828.79	116.36
9885.53	115.998
9942.6	115.639
10000	115.282
10057.7	114.927
10115.8	114.575
10174.2	114.225
10232.9	113.877
10292	113.532
10351.4	113.188
10411.2	112.847
10471.3	112.508
10531.7	112.171
10592.5	111.836
10653.7	111.503
10715.2	111.172
10777.1	110.843
10839.3	110.516
10901.8	110.191
10964.8	109.867
11028.1	109.545
11091.7	109.225
11155.8	108.906
11220.2	108.59
11285	108.278
11350.1	107.966
11415.6	107.657
11481.5	107.349
11547.8	107.042
11614.5	106.737
11681.5	106.434
11749	106.132
11816.8	105.832
11885	105.533
11953.6	105.236
12022.6	104.941
12092.1	104.647
12161.9	104.355
12232.1	104.064
12302.7	103.775
12373.7	103.488
12445.1	103.202
12517	102.918
12589.3	102.636
12661.9	102.356
12735	102.077
12808.6	101.8
12882.5	101.524
12956.9	101.25
13031.7	100.978
13106.9	100.708
13182.6	100.439
13258.7	100.172
13335.2	99.9068
13412.2	99.6431
13489.6	99.3811
13567.5	99.1209
13645.8	98.8623
13724.6	98.6053
13803.8	98.35
13883.5	98.0964
13963.7	97.8443
14044.3	97.5936
14125.4	97.3441
14206.9	97.0963
14288.9	96.8501
14371.4	96.6055
14454.4	96.3626
14537.8	96.1212
14621.8	95.8815
14706.2	95.6434
14791.1	95.4069
14876.5	95.1721
14962.4	94.9388
15048.7	94.7072
15135.6	94.4771
15223	94.2486
15310.9	94.0218
15399.3	93.7964
15488.2	93.5727
15577.6	93.3505
15667.5	93.1298
15758	92.9107
15848.9	92.6931
15940.4	92.4769
16032.5	92.2623
16125	92.0491
16218.1	91.8373
16311.7	91.6269
16405.9	91.418
16500.6	91.2103
16595.9	91.0041
16691.7	90.7991
16788	90.5954
16885	90.3929
16982.4	90.1916
17080.5	89.9916
17179.1	89.7929
17278.3	89.5954
17378	89.3991
17478.3	89.2042
17579.2	89.0105
17680.7	88.818
17782.8	88.6268
17885.5	88.4369
17988.7	88.2483
18092.6	88.0609
18197	87.8748
18302.1	87.6899
18407.7	87.5063
18514	87.324
18620.9	87.1429
18728.4	86.963
18836.5	86.7844
18945.2	86.607
19054.6	86.4309
19164.6	86.2559
19275.2	86.0822
19386.5	85.9096
19498.4	85.7382
19611	85.568
19724.2	85.399
19838.1	85.2311
19952.6	85.0643
20067.8	84.8988
20183.7	84.7343
20300.2	84.5711
20417.4	84.409
20535.3	84.248
20653.8	84.0882
20773	83.9296
20893	83.7721
21013.6	83.6157
21134.9	83.4605
21256.9	83.3064
21379.6	83.1535
21503	83.0016
21627.2	82.8509
21752	82.7013
21877.6	82.5527
22003.9	82.4053
22130.9	82.2589
22258.7	82.1135
22387.2	81.9692
22516.5	81.8259
22646.4	81.6837
22777.2	81.5424
22908.7	81.4022
23040.9	81.263
23173.9	81.1249
23307.7	80.9877
23442.3	80.8516
23577.6	80.7164
23713.7	80.5823
23850.6	80.4491
23988.3	80.317
24126.8	80.1858
24266.1	80.0556
24406.2	79.9264
24547.1	79.7981
24688.8	79.6708
24831.3	79.5444
24974.7	79.419
25118.9	79.2944
25263.9	79.1708
25409.7	79.048
25556.4	78.9262
25704	78.8051
25852.3	78.6849
26001.6	78.5655
26151.7	78.4469
26302.7	78.3291
26454.5	78.2121
26607.3	78.0957
26760.9	77.9801
26915.3	77.8652
27070.7	77.7509
27227	77.6372
27384.2	77.5242
27542.3	77.4117
27701.3	77.2997
27861.2	77.1883
28022.1	77.0767
28183.8	76.9623
28346.5	76.8487
28510.2	76.736
28674.8	76.6242
28840.3	76.5132
29006.8	76.4031
29174.3	76.2938
29342.7	76.1854
29512.1	76.0778
29682.5	75.971
29853.8	75.8651
30026.2	75.76
30199.5	75.6558
30373.9	75.5523
30549.2	75.4497
30725.6	75.3478
30903	75.2468
31081.4	75.1466
31260.8	75.0472
31441.3	74.9485
31622.8	74.8507
31805.3	74.7536
31989	74.6573
32173.6	74.5618
32359.4	74.4671
32546.2	74.3731
32734.1	74.2798
32923	74.1874
33113.1	74.0957
33304.3	74.0047
33496.5	73.9145
33689.9	73.825
33884.4	73.7362
34080	73.6482
34276.8	73.5609
34474.7	73.4744
34673.7	73.3885
34873.9	73.3034
35075.2	73.219
35277.7	73.1352
35481.3	73.0522
35686.2	72.9699
35892.2	72.8883
36099.4	72.8074
36307.8	72.7271
36517.4	72.6476
36728.2	72.5687
36940.3	72.4905
37153.5	72.4129
37368	72.3361
37583.7	72.2598
37800.7	72.1843
38018.9	72.1094
38238.4	72.0352
38459.2	71.9616
38681.2	71.8886
38904.5	71.8163
39129.1	71.7446
39355	71.6736
39582.2	71.6032
39810.7	71.5334
40040.5	71.4643
40271.7	71.3957
40504.2	71.3278
40738	71.2605
40973.2	71.1938
41209.8	71.1277
41447.7	71.0622
41686.9	70.9972
41927.6	70.9329
42169.7	70.8692
42413.1	70.8061
42658	70.7435
42904.2	70.6815
43151.9	70.6201
43401	70.5593
43651.6	70.4991
43903.6	70.4394
44157	70.3802
44412	70.3217
44668.4	70.2636
44926.2	70.2062
45185.6	70.1493
45446.5	70.0929
45708.8	70.0371
45972.7	69.9818
46238.1	69.927
46505	69.8728
46773.5	69.8191
47043.5	69.7659
47315.1	69.7133
47588.3	69.6612
47863	69.6096
48139.3	69.5585
48417.2	69.5079
48696.8	69.4578
48977.9	69.4082
49260.6	69.3591
49545	69.3106
49831	69.2625
50118.7	69.2149
50408.1	69.1678
50699.1	69.1212
50991.8	69.075
51286.1	69.0294
51582.2	68.9842
51880	68.9395
52179.5	68.8952
52480.7	68.8514
52783.7	68.8081
53088.4	68.7653
53394.9	68.7229
53703.2	68.6809
54013.2	68.6395
54325	68.5984
54638.7	68.5578
54954.1	68.5177
55271.3	68.478
55590.4	68.4387
55911.4	68.3999
56234.1	68.3615
56558.8	68.3235
56885.3	68.286
57213.7	68.2488
57544	68.2121
57876.2	68.1759
58210.3	68.14
58546.4	68.1045
58884.4	68.0695
59224.3	68.0348
59566.2	68.0006
59910.1	67.9668
60256	67.9333
60603.8	67.9003
60953.7	67.8677
61305.6	67.8354
61659.5	67.8035
62015.5	67.7721
62373.5	67.741
62733.6	67.7103
63095.7	67.6799
63460	67.65
63826.3	67.6204
64194.8	67.5911
64565.4	67.5623
64938.2	67.5338
65313.1	67.5057
65690.1	67.4779
66069.3	67.4505
66450.8	67.4235
66834.4	67.3968
67220.2	67.3704
67608.3	67.3444
67998.6	67.3188
68391.2	67.2935
68786	67.2685
69183.1	67.2439
69582.5	67.2196
69984.2	67.1956
70388.2	67.172
70794.6	67.1487
71203.3	67.1257
71614.3	67.103
72027.8	67.0807
72443.6	67.0587
72861.8	67.037
73282.5	67.0156
73705.5	66.9945
74131	66.9738
74559	66.9533
74989.4	66.9332
75422.3	66.9133
75857.8	66.8938
76295.7	66.8746
76736.1	66.8556
77179.2	66.837
77624.7	66.8186
78072.8	66.8005
78523.6	66.7828
78976.9	66.7653
79432.8	66.748
79891.4	66.7311
80352.6	66.7145
80816.5	66.6981
81283.1	66.682
81752.3	66.6662
82224.3	66.6506
82699	66.6353
83176.4	66.6203
83656.6	66.6056
84139.5	66.5911
84625.3	66.5768
85113.8	66.5629
85605.2	66.5491
86099.4	66.5357
86596.4	66.5225
87096.4	66.5095
87599.2	66.4968
88104.9	66.4843
88613.5	66.4721
89125.1	66.4602
89639.6	66.4484
90157.1	66.4369
90677.6	66.4257
91201.1	66.4146
91727.6	66.4039
92257.1	66.3933
92789.7	66.383
93325.4	66.3729
93864.2	66.363
94406.1	66.3533
94951.1	66.3439
95499.3	66.3347
96050.6	66.3257
96605.1	66.3169
97162.8	66.3084
97723.7	66.3
98287.9	66.2919
98855.3	66.284
99426	66.2762
100000	66.2687
100577	66.2614
101158	66.2543
101742	66.2474
102329	66.2407
102920	66.2342
103514	66.2279
104112	66.2218
104713	66.2158
105317	66.2101
105925	66.2045
106537	66.1992
107152	66.194
107771	66.189
108393	66.1842
109018	66.1796
109648	66.1751
110281	66.1709
110917	66.1668
111558	66.1628
112202	66.1591
112850	66.1555
113501	66.1521
114156	66.1489
114815	66.1458
115478	66.1429
116145	66.1401
116815	66.1375
117490	66.1351
118168	66.1329
118850	66.1308
119536	66.1288
120226	66.127
120921	66.1254
121619	66.1239
122321	66.1225
123027	66.1213
123737	66.1203
124451	66.1194
125170	66.1187
125893	66.118
126619	66.1176
127350	66.1172
128086	66.1171
128825	66.117
129569	66.1171
130317	66.1173
131069	66.1177
131826	66.1182
132587	66.1188
133352	66.1195
134122	66.1204
134896	66.1214
135675	66.1225
136458	66.1238
137246	66.1252
138038	66.1267
138835	66.1283
139637	66.13
140443	66.1319
141254	66.1338
142069	66.1359
142889	66.1381
143714	66.1405
144544	66.1429
145378	66.1454
146218	66.1481
147062	66.1508
147911	66.1537
148765	66.1567
149624	66.1598
150487	66.1629
151356	66.1662
152230	66.1696
153109	66.1731
153993	66.1767
154882	66.1804
155776	66.1841
156675	66.188
157580	66.192
158489	66.1961
159404	66.2002
160325	66.2045
161250	66.2088
162181	66.2132
163117	66.2178
164059	66.2224
165006	66.2271
165959	66.2318
166917	66.2367
167880	66.2417
168850	66.2467
169824	66.2518
170805	66.257
171791	66.2623
172783	66.2676
173780	66.273
174783	66.2785
175792	66.2841
176807	66.2898
177828	66.2955
178855	66.3013
179887	66.3072
180926	66.3131
181970	66.3191
183021	66.3252
184077	66.3314
185140	66.3376
186209	66.3439
187284	66.3502
188365	66.3566
189452	66.3631
190546	66.3697
191646	66.3763
192752	66.3829
193865	66.3897
194984	66.3964
196110	66.4033
197242	66.4102
198381	66.4171
199526	66.4242
200678	66.4312
201837	66.4384
203002	66.4455
204174	66.4528
205353	66.46
206538	66.4674
207730	66.4748
208930	66.4822
210136	66.4897
211349	66.4972
212569	66.5048
213796	66.5124
215030	66.5201
216272	66.5278
217520	66.5356
218776	66.5434
220039	66.5513
221309	66.5592
222587	66.5671
223872	66.5751
225165	66.5831
226464	66.5911
227772	66.5992
229087	66.6074
230409	66.6156
231739	66.6238
233077	66.632
234423	66.6403
235776	66.6486
237137	66.657
238506	66.6654
239883	66.6738
241268	66.6822
242661	66.6907
244062	66.6992
245471	66.7078
246888	66.7164
248313	66.725
249747	66.7336
251189	66.7423
252639	66.7509
254097	66.7597
255564	66.7684
257040	66.7772
258523	66.786
260016	66.7948
261517	66.8037
263027	66.8125
264545	66.8214
266073	66.8303
267609	66.8393
269153	66.8482
270707	66.8572
272270	66.8662
273842	66.8752
275423	66.8843
277013	66.8933
278612	66.9024
280221	66.9115
281838	66.9206
283465	66.9298
285102	66.9389
286748	66.9481
288403	66.9572
290068	66.9664
291743	66.9756
293427	66.9849
295121	66.9941
296825	67.0034
298538	67.0126
300262	67.0219
301995	67.0312
303739	67.0405
305492	67.0498
307256	67.0591
309030	67.0684
310814	67.0778
312608	67.0871
314413	67.0965
316228	67.1059
318053	67.1152
319890	67.1246
321736	67.134
323594	67.1434
325462	67.1528
327341	67.1622
329230	67.1716
331131	67.181
333043	67.1905
334965	67.1999
336899	67.2093
338844	67.2188
340800	67.2282
342768	67.2376
344747	67.2471
346737	67.2565
348739	67.266
350752	67.2754
352777	67.2849
354813	67.2943
356862	67.3038
358922	67.3133
360994	67.3227
363078	67.3322
365174	67.3416
367282	67.3511
369403	67.3605
371535	67.37
373680	67.3794
375837	67.3889
378007	67.3983
380189	67.4077
382384	67.4172
384592	67.4266
386812	67.436
389045	67.4455
391291	67.4549
393550	67.4643
395822	67.4737
398107	67.4831
400405	67.4925
402717	67.5019
405042	67.5113
407380	67.5207
409732	67.53
412098	67.5394
414477	67.5488
416869	67.5581
419276	67.5675
421697	67.5768
424131	67.5861
426580	67.5954
429042	67.6048
431519	67.6141
434010	67.6234
436516	67.6326
439036	67.6419
441570	67.6512
444120	67.6604
446684	67.6697
449262	67.6789
451856	67.6881
454465	67.6973
457088	67.7066
459727	67.7157
462381	67.7249
465050	67.7341
467735	67.7432
470435	67.7524
473151	67.7615
475883	67.7706
478630	67.7797
481393	67.7888
484172	67.7979
486968	67.807
489779	67.816
492606	67.8251
495450	67.8341
498310	67.8431
501187	67.8521
504081	67.8611
506991	67.8701
509918	67.879
512861	67.8879
515822	67.8969
518800	67.9058
521795	67.9147
524807	67.9235
527837	67.9324
530884	67.9413
533949	67.9501
537032	67.9589
540132	67.9677
543250	67.9765
546387	67.9852
549541	67.994
552713	68.0027
555904	68.0114
559114	68.0201
562341	68.0288
565588	68.0375
568853	68.0461
572137	68.0547
575440	68.0633
578762	68.0719
582103	68.0805
585464	68.0891
588844	68.0976
592243	68.1061
595662	68.1146
599101	68.1231
602560	68.1316
606038	68.14
609537	68.1484
613056	68.1568
616595	68.1652
620155	68.1736
623735	68.1819
627336	68.1903
630957	68.1986
634600	68.2068
638263	68.2151
641948	68.2234
645654	68.2316
649382	68.2398
653131	68.248
656901	68.2562
660693	68.2643
664508	68.2724
668344	68.2805
672202	68.2886
676083	68.2967
679986	68.3047
683912	68.3128
687860	68.3208
691831	68.3287
695825	68.3367
699842	68.3446
703882	68.3526
707946	68.3604
712033	68.3683
716143	68.3762
720278	68.384
724436	68.3918
728618	68.3996
732825	68.4074
737055	68.4151
741310	68.4228
745590	68.4305
749894	68.4382
754223	68.4459
758578	68.4535
762957	68.4611
767361	68.4687
771792	68.4763
776247	68.4838
780728	68.4914
785236	68.4989
789769	68.5063
794328	68.5138
798914	68.5212
803526	68.5286
808165	68.536
812831	68.5434
817523	68.5507
822243	68.5581
826990	68.5654
831764	68.5726
836566	68.5799
841395	68.5871
846253	68.5943
851138	68.6015
856052	68.6087
860994	68.6158
865964	68.6229
870964	68.63
875992	68.6371
881049	68.6441
886135	68.6512
891251	68.6582
896396	68.6651
901571	68.6721
906776	68.679
912011	68.6859
917276	68.6928
922571	68.6997
927897	68.7065
933254	68.7133
938642	68.7201
944061	68.7269
949511	68.7336
954993	68.7403
960506	68.747
966051	68.7537
971628	68.7603
977237	68.767
982879	68.7736
988553	68.7802
994260	68.7867
1e+06	68.7932
1.00577e+06	68.7997
1.01158e+06	68.8062
1.01742e+06	68.8127
1.02329e+06	68.8191
1.0292e+06	68.8255
1.03514e+06	68.8319
1.04112e+06	68.8383
1.04713e+06	68.8446
1.05317e+06	68.851
1.05925e+06	68.8573
1.06537e+06	68.8635
1.07152e+06	68.8698
1.07771e+06	68.876
1.08393e+06	68.8822
1.09018e+06	68.8884
1.09648e+06	68.8945
1.10281e+06	68.9007
1.10917e+06	68.9068
1.11558e+06	68.9129
1.12202e+06	68.9189
1.1285e+06	68.925
1.13501e+06	68.931
1.14156e+06	68.937
1.14815e+06	68.9429
1.15478e+06	68.9489
1.16145e+06	68.9548
1.16815e+06	68.9607
1.1749e+06	68.9665
1.18168e+06	68.9724
1.1885e+06	68.9782
1.19536e+06	68.984
1.20226e+06	68.9898
1.20921e+06	68.9956
1.21619e+06	69.0013
1.22321e+06	69.007
1.23027e+06	69.0127
1.23737e+06	69.0183
1.24451e+06	69.024
1.2517e+06	69.0296
1.25893e+06	69.0352
1.26619e+06	69.0408
1.2735e+06	69.0463
1.28086e+06	69.0518
1.28825e+06	69.0573
1.29569e+06	69.0628
1.30317e+06	69.0682
1.31069e+06	69.0737
1.31826e+06	69.0791
1.32587e+06	69.0845
1.33352e+06	69.0898
1.34122e+06	69.0952
1.34896e+06	69.1005
1.35675e+06	69.1058
1.36458e+06	69.111
1.37246e+06	69.1163
1.38038e+06	69.1215
1.38835e+06	69.1267
1.39637e+06	69.1319
1.40443e+06	69.137
1.41254e+06	69.1421
1.42069e+06	69.1472
1.42889e+06	69.1523
1.43714e+06	69.1574
1.44544e+06	69.1624
1.45378e+06	69.1674
1.46218e+06	69.1724
1.47062e+06	69.1774
1.47911e+06	69.1824
1.48765e+06	69.1873
1.49624e+06	69.1922
1.50487e+06	69.1971
1.51356e+06	69.2019
1.5223e+06	69.2068
1.53109e+06	69.2116
1.53993e+06	69.2164
1.54882e+06	69.2211
1.55776e+06	69.2259
1.56675e+06	69.2306
1.5758e+06	69.2353
1.58489e+06	69.24
1.59404e+06	69.2446
1.60325e+06	69.2493
1.6125e+06	69.2539
1.62181e+06	69.2585
1.63117e+06	69.263
1.64059e+06	69.2676
1.65006e+06	69.2721
1.65959e+06	69.2766
1.66917e+06	69.2811
1.6788e+06	69.2855
1.6885e+06	69.29
1.69824e+06	69.2944
1.70805e+06	69.2988
1.71791e+06	69.3031
1.72783e+06	69.3075
1.7378e+06	69.3118
1.74783e+06	69.3161
1.75792e+06	69.3204
1.76807e+06	69.3247
1.77828e+06	69.3289
1.78855e+06	69.3331
1.79887e+06	69.3373
1.80926e+06	69.3415
1.8197e+06	69.3457
1.83021e+06	69.3498
1.84077e+06	69.3539
1.8514e+06	69.358
1.86209e+06	69.3621
1.87284e+06	69.3661
1.88365e+06	69.3702
1.89452e+06	69.3742
1.90546e+06	69.3781
1.91646e+06	69.3821
1.92752e+06	69.3861
1.93865e+06	69.39
1.94984e+06	69.3939
1.9611e+06	69.3978
1.97242e+06	69.4016
1.98381e+06	69.4055
1.99526e+06	69.4093
2.00678e+06	69.4131
2.01837e+06	69.4169
2.03002e+06	69.4206
2.04174e+06	69.4244
2.05353e+06	69.4281
2.06538e+06	69.4318
2.0773e+06	69.4355
2.0893e+06	69.4391
2.10136e+06	69.4427
2.11349e+06	69.4464
2.12569e+06	69.45
2.13796e+06	69.4535
2.1503e+06	69.4571
2.16272e+06	69.4606
2.1752e+06	69.4641
2.18776e+06	69.4676
2.20039e+06	69.4711
2.21309e+06	69.4746
2.22587e+06	69.478
2.23872e+06	69.4814
2.25165e+06	69.4848
2.26464e+06	69.4882
2.27772e+06	69.4916
2.29087e+06	69.4949
2.30409e+06	69.4982
2.31739e+06	69.5015
2.33077e+06	69.5048
2.34423e+06	69.5081
2.35776e+06	69.5113
2.37137e+06	69.5145
2.38506e+06	69.5177
2.39883e+06	69.5209
2.41268e+06	69.5241
2.42661e+06	69.5272
2.44062e+06	69.5304
2.45471e+06	69.5335
2.46888e+06	69.5366
2.48313e+06	69.5397
2.49747e+06	69.5427
2.51189e+06	69.5457
2.52639e+06	69.5488
2.54097e+06	69.5518
2.55564e+06	69.5547
2.5704e+06	69.5577
2.58523e+06	69.5606
2.60016e+06	69.5636
2.61517e+06	69.5665
2.63027e+06	69.5694
2.64545e+06	69.5722
2.66073e+06	69.5751
2.67609e+06	69.5779
2.69153e+06	69.5807
2.70707e+06	69.5835
2.7227e+06	69.5863
2.73842e+06	69.5891
2.75423e+06	69.5918
2.77013e+06	69.5946
2.78612e+06	69.5973
2.80221e+06	69.6
2.81838e+06	69.6026
2.83465e+06	69.6053
2.85102e+06	69.6079
2.86748e+06	69.6106
2.88403e+06	69.6132
2.90068e+06	69.6157
2.91743e+06	69.6183
2.93427e+06	69.6209
2.95121e+06	69.6234
2.96825e+06	69.6259
2.98538e+06	69.6284
3.00262e+06	69.6309
3.01995e+06	69.6334
3.03739e+06	69.6358
3.05492e+06	69.6383
3.07256e+06	69.6407
3.0903e+06	69.6431
3.10814e+06	69.6455
3.12608e+06	69.6478
3.14413e+06	69.6502
3.16228e+06	69.6525
3.18053e+06	69.6549
3.1989e+06	69.6572
3.21736e+06	69.6594
3.23594e+06	69.6617
3.25462e+06	69.664
3.27341e+06	69.6662
3.2923e+06	69.6684
3.31131e+06	69.6706
3.33043e+06	69.6728
3.34965e+06	69.675
3.36899e+06	69.6772
3.38844e+06	69.6793
3.408e+06	69.6814
3.42768e+06	69.6836
3.44747e+06	69.6857
3.46737e+06	69.6877
3.48739e+06	69.6898
3.50752e+06	69.6919
3.52777e+06	69.6939
3.54813e+06	69.6959
3.56862e+06	69.6979
3.58922e+06	69.6999
3.60994e+06	69.7019
3.63078e+06	69.7038
3.65174e+06	69.7058
3.67282e+06	69.7077
3.69403e+06	69.7096
3.71535e+06	69.7115
3.7368e+06	69.7134
3.75837e+06	69.7153
3.78007e+06	69.7171
3.80189e+06	69.719
3.82384e+06	69.7208
3.84592e+06	69.7226
3.86812e+06	69.7244
3.89045e+06	69.7262
3.91291e+06	69.728
3.9355e+06	69.7297
3.95822e+06	69.7315
3.98107e+06	69.7332
4.00405e+06	69.7349
4.02717e+06	69.7366
4.05042e+06	69.7383
4.0738e+06	69.74
4.09732e+06	69.7416
4.12098e+06	69.7433
4.14477e+06	69.7449
4.16869e+06	69.7465
4.19276e+06	69.7481
4.21697e+06	69.7497
4.24131e+06	69.7513
4.2658e+06	69.7529
4.29042e+06	69.7544
4.31519e+06	69.756
4.3401e+06	69.7575
4.36516e+06	69.759
4.39036e+06	69.7605
4.4157e+06	69.762
4.4412e+06	69.7634
4.46684e+06	69.7649
4.49262e+06	69.7664
4.51856e+06	69.7678
4.54465e+06	69.7692
4.57088e+06	69.7706
4.59727e+06	69.772
4.62381e+06	69.7734
4.6505e+06	69.7748
4.67735e+06	69.7761
4.70435e+06	69.7775
4.73151e+06	69.7788
4.75883e+06	69.7801
4.7863e+06	69.7814
4.81393e+06	69.7827
4.84172e+06	69.784
4.86968e+06	69.7853
4.89779e+06	69.7866
4.92606e+06	69.7878
4.9545e+06	69.789
4.9831e+06	69.7903
5.01187e+06	69.7915
5.04081e+06	69.7927
5.06991e+06	69.7939
5.09918e+06	69.7951
5.12861e+06	69.7962
5.15822e+06	69.7974
5.188e+06	69.7985
5.21795e+06	69.7997
5.24807e+06	69.8008
5.27837e+06	69.8019
5.30884e+06	69.803
5.33949e+06	69.8041
5.37032e+06	69.8052
5.40132e+06	69.8062
5.4325e+06	69.8073
5.46387e+06	69.8083
5.49541e+06	69.8094
5.52713e+06	69.8104
5.55904e+06	69.8114
5.59114e+06	69.8124
5.62341e+06	69.8134
5.65588e+06	69.8144
5.68853e+06	69.8154
5.72137e+06	69.8163
5.7544e+06	69.8173
5.78762e+06	69.8182
5.82103e+06	69.8192
5.85464e+06	69.8201
5.88844e+06	69.821
5.92243e+06	69.8219
5.95662e+06	69.8228
5.99101e+06	69.8237
6.0256e+06	69.8245
6.06038e+06	69.8254
6.09537e+06	69.8262
6.13056e+06	69.8271
6.16595e+06	69.8279
6.20155e+06	69.8287
6.23735e+06	69.8296
6.27336e+06	69.8304
6.30957e+06	69.8312
6.346e+06	69.8319
6.38263e+06	69.8327
6.41948e+06	69.8335
6.45654e+06	69.8343
6.49382e+06	69.835
6.53131e+06	69.8357
6.56901e+06	69.8365
6.60693e+06	69.8372
6.64508e+06	69.8379
6.68344e+06	69.8386
6.72202e+06	69.8393
6.76083e+06	69.84
6.79986e+06	69.8407
6.83912e+06	69.8414
6.8786e+06	69.842
6.91831e+06	69.8427
6.95825e+06	69.8433
6.99842e+06	69.844
7.03882e+06	69.8446
7.07946e+06	69.8452
7.12033e+06	69.8458
7.16143e+06	69.8464
7.20278e+06	69.847
7.24436e+06	69.8476
7.28618e+06	69.8482
7.32825e+06	69.8488
7.37055e+06	69.8493
7.4131e+06	69.8499
7.4559e+06	69.8504
7.49894e+06	69.851
7.54223e+06	69.8515
7.58578e+06	69.852
7.62957e+06	69.8526
7.67361e+06	69.8531
7.71792e+06	69.8536
7.76247e+06	69.8541
7.80728e+06	69.8546
7.85236e+06	69.8551
7.89769e+06	69.8555
7.94328e+06	69.856
7.98914e+06	69.8565
8.03526e+06	69.8569
8.08165e+06	69.8574
8.12831e+06	69.8578
8.17523e+06	69.8582
8.22243e+06	69.8587
8.2699e+06	69.8591
8.31764e+06	69.8595
8.36566e+06	69.8599
8.41395e+06	69.8603
8.46253e+06	69.8607
8.51138e+06	69.8611
8.56052e+06	69.8615
8.60994e+06	69.8619
8.65964e+06	69.8622
8.70964e+06	69.8626
8.75992e+06	69.863
8.81049e+06	69.8633
8.86135e+06	69.8637
8.91251e+06	69.864
8.96396e+06	69.8643
9.01571e+06	69.8647
9.06776e+06	69.865
9.12011e+06	69.8653
9.17276e+06	69.8656
9.22571e+06	69.8659
9.27897e+06	69.8662
9.33254e+06	69.8665
9.38642e+06	69.8668
9.44061e+06	69.8671
9.49511e+06	69.8674
9.54993e+06	69.8677
9.60506e+06	69.8679
9.66051e+06	69.8682
9.71628e+06	69.8684
9.77237e+06	69.8687
9.82879e+06	69.8689
9.88553e+06	69.8692
9.9426e+06	69.8694
1e+07	69.8697
