Stopping power dEdx from Ionisation for Si28[0.0] Z = 14 in G4_TISSUE_SOFT_ICRP, process name: ionIoni
E [MeV]	dEdx [MeV/mm]
0.001	58.4178
0.00100577	58.5862
0.00101158	58.755
0.00101742	58.9244
0.00102329	59.0942
0.0010292	59.2646
0.00103514	59.4354
0.00104112	59.6067
0.00104713	59.7785
0.00105317	59.9508
0.00105925	60.1236
0.00106537	60.2969
0.00107152	60.4707
0.00107771	60.645
0.00108393	60.8198
0.00109018	60.9951
0.00109648	61.1709
0.00110281	61.3472
0.00110917	61.5241
0.00111558	61.7014
0.00112202	61.8792
0.0011285	62.0576
0.00113501	62.2365
0.00114156	62.4159
0.00114815	62.5958
0.00115478	62.7762
0.00116145	62.9571
0.00116815	63.1386
0.0011749	63.3206
0.00118168	63.5031
0.0011885	63.6861
0.00119536	63.8697
0.00120226	64.0538
0.00120921	64.2384
0.00121619	64.4236
0.00122321	64.6093
0.00123027	64.7955
0.00123737	64.9823
0.00124451	65.1696
0.0012517	65.3574
0.00125893	65.5458
0.00126619	65.7347
0.0012735	65.9242
0.00128086	66.1142
0.00128825	66.3048
0.00129569	66.4959
0.00130317	66.6876
0.00131069	66.8798
0.00131826	67.0726
0.00132587	67.2659
0.00133352	67.4598
0.00134122	67.6542
0.00134896	67.8492
0.00135675	68.0448
0.00136458	68.2409
0.00137246	68.4376
0.00138038	68.6349
0.00138835	68.8327
0.00139637	69.0311
0.00140443	69.2301
0.00141254	69.4297
0.00142069	69.6298
0.00142889	69.8305
0.00143714	70.0318
0.00144544	70.2336
0.00145378	70.436
0.00146218	70.6391
0.00147062	70.8427
0.00147911	71.0469
0.00148765	71.2517
0.00149624	71.457
0.00150487	71.663
0.00151356	71.8696
0.0015223	72.0767
0.00153109	72.2845
0.00153993	72.4928
0.00154882	72.7018
0.00155776	72.9113
0.00156675	73.1215
0.0015758	73.3322
0.00158489	73.5436
0.00159404	73.7556
0.00160325	73.9682
0.0016125	74.1814
0.00162181	74.3952
0.00163117	74.6096
0.00164059	74.8247
0.00165006	75.0404
0.00165959	75.2567
0.00166917	75.4736
0.0016788	75.6911
0.0016885	75.9093
0.00169824	76.1281
0.00170805	76.3475
0.00171791	76.5676
0.00172783	76.7883
0.0017378	77.0096
0.00174783	77.2316
0.00175792	77.4542
0.00176807	77.6775
0.00177828	77.9014
0.00178855	78.1259
0.00179887	78.3511
0.00180926	78.5769
0.0018197	78.8034
0.00183021	79.0305
0.00184077	79.2583
0.0018514	79.4868
0.00186209	79.7159
0.00187284	79.9457
0.00188365	80.1761
0.00189452	80.4072
0.00190546	80.639
0.00191646	80.8714
0.00192752	81.1045
0.00193865	81.3383
0.00194984	81.5727
0.0019611	81.8079
0.00197242	82.0437
0.00198381	82.2801
0.00199526	82.5173
0.00200678	82.7551
0.00201837	82.9937
0.00203002	83.2329
0.00204174	83.4728
0.00205353	83.7134
0.00206538	83.9547
0.0020773	84.1967
0.0020893	84.4394
0.00210136	84.6828
0.00211349	84.9268
0.00212569	85.1716
0.00213796	85.4171
0.0021503	85.6633
0.00216272	85.9103
0.0021752	86.1579
0.00218776	86.4062
0.00220039	86.6553
0.00221309	86.905
0.00222587	87.1555
0.00223872	87.4068
0.00225165	87.6587
0.00226464	87.9114
0.00227772	88.1648
0.00229087	88.4189
0.00230409	88.6737
0.00231739	88.9293
0.00233077	89.1857
0.00234423	89.4427
0.00235776	89.7005
0.00237137	89.9591
0.00238506	90.2184
0.00239883	90.4784
0.00241268	90.7392
0.00242661	91.0008
0.00244062	91.2631
0.00245471	91.5261
0.00246888	91.7899
0.00248313	92.0545
0.00249747	92.3198
0.00251189	92.5859
0.00252639	92.8528
0.00254097	93.1204
0.00255564	93.3888
0.0025704	93.658
0.00258523	93.928
0.00260016	94.1987
0.00261517	94.4702
0.00263027	94.7425
0.00264545	95.0156
0.00266073	95.2895
0.00267609	95.5641
0.00269153	95.8396
0.00270707	96.1158
0.0027227	96.3929
0.00273842	96.6707
0.00275423	96.9494
0.00277013	97.2288
0.00278612	97.5091
0.00280221	97.7901
0.00281838	98.072
0.00283465	98.3547
0.00285102	98.6382
0.00286748	98.9225
0.00288403	99.2076
0.00290068	99.4936
0.00291743	99.7803
0.00293427	100.068
0.00295121	100.356
0.00296825	100.646
0.00298538	100.936
0.00300262	101.227
0.00301995	101.518
0.00303739	101.811
0.00305492	102.105
0.00307256	102.399
0.0030903	102.694
0.00310814	102.99
0.00312608	103.287
0.00314413	103.585
0.00316228	103.883
0.00318053	104.183
0.0031989	104.483
0.00321736	104.784
0.00323594	105.086
0.00325462	105.389
0.00327341	105.693
0.0032923	105.997
0.00331131	106.303
0.00333043	106.609
0.00334965	106.917
0.00336899	107.225
0.00338844	107.534
0.003408	107.844
0.00342768	108.155
0.00344747	108.466
0.00346737	108.779
0.00348739	109.093
0.00350752	109.407
0.00352777	109.722
0.00354813	110.039
0.00356862	110.356
0.00358922	110.674
0.00360994	110.993
0.00363078	111.313
0.00365174	111.634
0.00367282	111.955
0.00369403	112.278
0.00371535	112.602
0.0037368	112.926
0.00375837	113.252
0.00378007	113.578
0.00380189	113.906
0.00382384	114.234
0.00384592	114.563
0.00386812	114.893
0.00389045	115.225
0.00391291	115.557
0.0039355	115.89
0.00395822	116.224
0.00398107	116.559
0.00400405	116.895
0.00402717	117.232
0.00405042	117.57
0.0040738	117.908
0.00409732	118.248
0.00412098	118.589
0.00414477	118.931
0.00416869	119.274
0.00419276	119.618
0.00421697	119.962
0.00424131	120.308
0.0042658	120.655
0.00429042	121.003
0.00431519	121.351
0.0043401	121.701
0.00436516	122.052
0.00439036	122.404
0.0044157	122.757
0.0044412	123.11
0.00446684	123.465
0.00449262	123.821
0.00451856	124.178
0.00454465	124.536
0.00457088	124.895
0.00459727	125.255
0.00462381	125.616
0.0046505	125.978
0.00467735	126.341
0.00470435	126.705
0.00473151	127.071
0.00475883	127.437
0.0047863	127.804
0.00481393	128.173
0.00484172	128.542
0.00486968	128.912
0.00489779	129.284
0.00492606	129.657
0.0049545	130.03
0.0049831	130.405
0.00501187	130.781
0.00504081	131.158
0.00506991	131.536
0.00509918	131.915
0.00512861	132.295
0.00515822	132.677
0.005188	133.059
0.00521795	133.443
0.00524807	133.827
0.00527837	134.213
0.00530884	134.6
0.00533949	134.988
0.00537032	135.377
0.00540132	135.767
0.0054325	136.159
0.00546387	136.551
0.00549541	136.945
0.00552713	137.339
0.00555904	137.735
0.00559114	138.132
0.00562341	138.53
0.00565588	138.93
0.00568853	139.33
0.00572137	139.732
0.0057544	140.134
0.00578762	140.538
0.00582103	140.943
0.00585464	141.35
0.00588844	141.757
0.00592243	142.166
0.00595662	142.576
0.00599101	142.986
0.0060256	143.399
0.00606038	143.812
0.00609537	144.226
0.00613056	144.642
0.00616595	145.059
0.00620155	145.477
0.00623735	145.897
0.00627336	146.317
0.00630957	146.739
0.006346	147.162
0.00638263	147.586
0.00641948	148.011
0.00645654	148.438
0.00649382	148.866
0.00653131	149.295
0.00656901	149.725
0.00660693	150.157
0.00664508	150.59
0.00668344	151.024
0.00672202	151.459
0.00676083	151.896
0.00679986	152.333
0.00683912	152.772
0.0068786	153.213
0.00691831	153.654
0.00695825	154.097
0.00699842	154.539
0.00703882	154.974
0.00707946	155.41
0.00712033	155.847
0.00716143	156.285
0.00720278	156.725
0.00724436	157.166
0.00728618	157.608
0.00732825	158.052
0.00737055	158.496
0.0074131	158.942
0.0074559	159.39
0.00749894	159.838
0.00754223	160.288
0.00758578	160.74
0.00762957	161.192
0.00767361	161.646
0.00771792	162.101
0.00776247	162.557
0.00780728	163.015
0.00785236	163.474
0.00789769	163.935
0.00794328	164.396
0.00798914	164.859
0.00803526	165.324
0.00808165	165.79
0.00812831	166.257
0.00817523	166.725
0.00822243	167.195
0.0082699	167.666
0.00831764	168.138
0.00836566	168.612
0.00841395	169.087
0.00846253	169.564
0.00851138	170.042
0.00856052	170.521
0.00860994	171.002
0.00865964	171.484
0.00870964	171.968
0.00875992	172.452
0.00881049	172.939
0.00886135	173.426
0.00891251	173.916
0.00896396	174.406
0.00901571	174.898
0.00906776	175.391
0.00912011	175.886
0.00917276	176.382
0.00922571	176.88
0.00927897	177.379
0.00933254	177.879
0.00938642	178.381
0.00944061	178.885
0.00949511	179.39
0.00954993	179.896
0.00960506	180.404
0.00966051	180.913
0.00971628	181.424
0.00977237	181.936
0.00982879	182.449
0.00988553	182.965
0.0099426	183.481
0.01	183.999
0.0100577	184.519
0.0101158	185.04
0.0101742	185.563
0.0102329	186.087
0.010292	186.613
0.0103514	187.14
0.0104112	187.668
0.0104713	188.199
0.0105317	188.731
0.0105925	189.264
0.0106537	189.799
0.0107152	190.335
0.0107771	190.873
0.0108393	191.413
0.0109018	191.954
0.0109648	192.496
0.0110281	193.04
0.0110917	193.586
0.0111558	194.134
0.0112202	194.682
0.011285	195.233
0.0113501	195.785
0.0114156	196.339
0.0114815	196.894
0.0115478	197.451
0.0116145	198.01
0.0116815	198.57
0.011749	199.132
0.0118168	199.695
0.011885	200.26
0.0119536	200.827
0.0120226	201.395
0.0120921	201.965
0.0121619	202.537
0.0122321	203.11
0.0123027	203.685
0.0123737	204.261
0.0124451	204.84
0.012517	205.42
0.0125893	206.001
0.0126619	206.585
0.012735	207.17
0.0128086	207.756
0.0128825	208.345
0.0129569	208.935
0.0130317	209.527
0.0131069	210.12
0.0131826	210.716
0.0132587	211.313
0.0133352	211.911
0.0134122	212.512
0.0134896	213.114
0.0135675	213.718
0.0136458	214.324
0.0137246	214.931
0.0138038	215.54
0.0138835	216.151
0.0139637	216.764
0.0140443	217.379
0.0141254	217.995
0.0142069	218.613
0.0142889	219.233
0.0143714	219.855
0.0144544	220.478
0.0145378	221.103
0.0146218	221.731
0.0147062	222.36
0.0147911	222.99
0.0148765	223.623
0.0149624	224.257
0.0150487	224.894
0.0151356	225.532
0.015223	226.172
0.0153109	226.814
0.0153993	227.457
0.0154882	228.103
0.0155776	228.751
0.0156675	229.4
0.015758	230.051
0.0158489	230.704
0.0159404	231.359
0.0160325	232.016
0.016125	232.675
0.0162181	233.336
0.0163117	233.999
0.0164059	234.663
0.0165006	235.33
0.0165959	235.998
0.0166917	236.669
0.016788	237.341
0.016885	238.015
0.0169824	238.692
0.0170805	239.37
0.0171791	240.05
0.0172783	240.733
0.017378	241.417
0.0174783	242.103
0.0175792	242.791
0.0176807	243.481
0.0177828	244.174
0.0178855	244.868
0.0179887	245.564
0.0180926	246.262
0.018197	246.963
0.0183021	247.665
0.0184077	248.37
0.018514	249.076
0.0186209	249.784
0.0187284	250.495
0.0188365	251.208
0.0189452	251.922
0.0190546	252.639
0.0191646	253.358
0.0192752	254.079
0.0193865	254.802
0.0194984	255.527
0.019611	256.255
0.0197242	256.984
0.0198381	257.716
0.0199526	258.45
0.0200678	259.185
0.0201837	259.923
0.0203002	260.663
0.0204174	261.406
0.0205353	262.15
0.0206538	262.897
0.020773	263.646
0.020893	264.397
0.0210136	265.15
0.0211349	265.905
0.0212569	266.663
0.0213796	267.423
0.021503	268.185
0.0216272	268.949
0.021752	269.715
0.0218776	270.484
0.0220039	271.255
0.0221309	272.028
0.0222587	272.804
0.0223872	273.581
0.0225165	274.361
0.0226464	275.144
0.0227772	275.928
0.0229087	276.715
0.0230409	277.504
0.0231739	278.296
0.0233077	279.09
0.0234423	279.886
0.0235776	280.684
0.0237137	281.485
0.0238506	282.288
0.0239883	283.093
0.0241268	283.901
0.0242661	284.711
0.0244062	285.524
0.0245471	286.339
0.0246888	287.156
0.0248313	287.976
0.0249747	288.798
0.0251189	289.622
0.0252639	290.449
0.0254097	291.278
0.0255564	292.11
0.025704	292.944
0.0258523	293.781
0.0260016	294.62
0.0261517	295.462
0.0263027	296.306
0.0264545	297.152
0.0266073	298.001
0.0267609	298.852
0.0269153	299.706
0.0270707	300.563
0.027227	301.421
0.0273842	302.283
0.0275423	303.147
0.0277013	304.013
0.0278612	304.882
0.0280221	305.534
0.0281838	305.737
0.0283465	305.942
0.0285102	306.149
0.0286748	306.358
0.0288403	306.57
0.0290068	306.783
0.0291743	306.999
0.0293427	307.216
0.0295121	307.436
0.0296825	307.658
0.0298538	307.881
0.0300262	308.107
0.0301995	308.334
0.0303739	308.563
0.0305492	308.794
0.0307256	309.027
0.030903	309.262
0.0310814	309.498
0.0312608	309.736
0.0314413	309.976
0.0316228	310.218
0.0318053	310.461
0.031989	310.706
0.0321736	310.953
0.0323594	311.201
0.0325462	311.451
0.0327341	311.702
0.032923	311.955
0.0331131	312.21
0.0333043	312.466
0.0334965	312.724
0.0336899	312.983
0.0338844	313.243
0.03408	313.506
0.0342768	313.769
0.0344747	314.034
0.0346737	314.3
0.0348739	314.568
0.0350752	314.837
0.0352777	315.108
0.0354813	315.38
0.0356862	315.653
0.0358922	315.928
0.0360994	316.204
0.0363078	316.481
0.0365174	316.76
0.0367282	317.039
0.0369403	317.321
0.0371535	317.603
0.037368	317.887
0.0375837	318.172
0.0378007	318.458
0.0380189	318.745
0.0382384	319.034
0.0384592	319.323
0.0386812	319.614
0.0389045	319.907
0.0391291	320.2
0.039355	320.494
0.0395822	320.79
0.0398107	321.087
0.0400405	321.385
0.0402717	321.684
0.0405042	321.985
0.040738	322.286
0.0409732	322.588
0.0412098	322.892
0.0414477	323.197
0.0416869	323.503
0.0419276	323.81
0.0421697	324.118
0.0424131	324.427
0.042658	324.737
0.0429042	325.049
0.0431519	325.361
0.043401	325.674
0.0436516	325.989
0.0439036	326.305
0.044157	326.621
0.044412	326.939
0.0446684	327.258
0.0449262	327.578
0.0451856	327.899
0.0454465	328.22
0.0457088	328.543
0.0459727	328.867
0.0462381	329.193
0.046505	329.519
0.0467735	329.846
0.0470435	330.174
0.0473151	330.503
0.0475883	330.834
0.047863	331.165
0.0481393	331.497
0.0484172	331.831
0.0486968	332.165
0.0489779	332.5
0.0492606	332.837
0.049545	333.174
0.049831	333.513
0.0501187	333.853
0.0504081	334.193
0.0506991	334.535
0.0509918	334.878
0.0512861	335.221
0.0515822	335.566
0.05188	335.912
0.0521795	336.259
0.0524807	336.607
0.0527837	336.956
0.0530884	337.306
0.0533949	337.657
0.0537032	338.009
0.0540132	338.362
0.054325	338.717
0.0546387	339.072
0.0549541	339.428
0.0552713	339.786
0.0555904	340.144
0.0559114	340.504
0.0562341	340.865
0.0565588	341.227
0.0568853	341.59
0.0572137	341.954
0.057544	342.319
0.0578762	342.685
0.0582103	343.052
0.0585464	343.421
0.0588844	343.79
0.0592243	344.161
0.0595662	344.532
0.0599101	344.905
0.060256	345.279
0.0606038	345.655
0.0609537	346.031
0.0613056	346.408
0.0616595	346.787
0.0620155	347.167
0.0623735	347.548
0.0627336	347.93
0.0630957	348.313
0.06346	348.698
0.0638263	349.083
0.0641948	349.47
0.0645654	349.858
0.0649382	350.247
0.0653131	350.638
0.0656901	351.03
0.0660693	351.422
0.0664508	351.817
0.0668344	352.212
0.0672202	352.609
0.0676083	353.006
0.0679986	353.406
0.0683912	353.806
0.068786	354.208
0.0691831	354.611
0.0695825	355.015
0.0699842	355.42
0.0703882	355.827
0.0707946	356.235
0.0712033	356.645
0.0716143	357.055
0.0720278	357.468
0.0724436	357.881
0.0728618	358.296
0.0732825	358.712
0.0737055	359.129
0.074131	359.548
0.074559	359.968
0.0749894	360.39
0.0754223	360.813
0.0758578	361.237
0.0762957	361.663
0.0767361	362.09
0.0771792	362.519
0.0776247	362.949
0.0780728	363.38
0.0785236	363.813
0.0789769	364.248
0.0794328	364.683
0.0798914	365.121
0.0803526	365.56
0.0808165	366
0.0812831	366.442
0.0817523	366.885
0.0822243	367.33
0.082699	367.776
0.0831764	368.224
0.0836566	368.673
0.0841395	369.124
0.0846253	369.576
0.0851138	370.03
0.0856052	370.486
0.0860994	370.943
0.0865964	371.402
0.0870964	371.862
0.0875992	372.324
0.0881049	372.788
0.0886135	373.253
0.0891251	373.72
0.0896396	374.189
0.0901571	374.659
0.0906776	375.13
0.0912011	375.604
0.0917276	376.079
0.0922571	376.556
0.0927897	377.035
0.0933254	377.515
0.0938642	377.997
0.0944061	378.48
0.0949511	378.966
0.0954993	379.453
0.0960506	379.942
0.0966051	380.433
0.0971628	380.925
0.0977237	381.419
0.0982879	381.915
0.0988553	382.413
0.099426	382.913
0.1	383.414
0.100577	383.918
0.101158	384.423
0.101742	384.93
0.102329	385.439
0.10292	385.949
0.103514	386.462
0.104112	386.976
0.104713	387.493
0.105317	388.011
0.105925	388.531
0.106537	389.053
0.107152	389.577
0.107771	390.103
0.108393	390.631
0.109018	391.161
0.109648	391.693
0.110281	392.227
0.110917	392.763
0.111558	393.3
0.112202	393.84
0.11285	394.382
0.113501	394.926
0.114156	395.472
0.114815	396.02
0.115478	396.57
0.116145	397.122
0.116815	397.676
0.11749	398.233
0.118168	398.791
0.11885	399.351
0.119536	399.914
0.120226	400.479
0.120921	401.046
0.121619	401.615
0.122321	402.186
0.123027	402.759
0.123737	403.335
0.124451	403.912
0.12517	404.492
0.125893	405.074
0.126619	405.659
0.12735	406.245
0.128086	406.834
0.128825	407.425
0.129569	408.018
0.130317	408.614
0.131069	409.211
0.131826	409.811
0.132587	410.414
0.133352	411.018
0.134122	411.625
0.134896	412.235
0.135675	412.846
0.136458	413.46
0.137246	414.077
0.138038	414.695
0.138835	415.316
0.139637	415.94
0.140443	416.566
0.141254	417.194
0.142069	417.824
0.142889	418.457
0.143714	419.093
0.144544	419.731
0.145378	420.371
0.146218	421.014
0.147062	421.659
0.147911	422.307
0.148765	422.957
0.149624	423.61
0.150487	424.265
0.151356	424.923
0.15223	425.583
0.153109	426.246
0.153993	426.911
0.154882	427.579
0.155776	428.249
0.156675	428.922
0.15758	429.598
0.158489	430.276
0.159404	430.957
0.160325	431.64
0.16125	432.326
0.162181	433.015
0.163117	433.706
0.164059	434.4
0.165006	435.097
0.165959	435.796
0.166917	436.498
0.16788	437.202
0.16885	437.91
0.169824	438.62
0.170805	439.332
0.171791	440.048
0.172783	440.766
0.17378	441.487
0.174783	442.21
0.175792	442.937
0.176807	443.666
0.177828	444.398
0.178855	445.133
0.179887	445.87
0.180926	446.61
0.18197	447.354
0.183021	448.099
0.184077	448.848
0.18514	449.6
0.186209	450.354
0.187284	451.112
0.188365	451.872
0.189452	452.635
0.190546	453.401
0.191646	454.17
0.192752	454.941
0.193865	455.716
0.194984	456.493
0.19611	457.274
0.197242	458.057
0.198381	458.844
0.199526	459.633
0.200678	460.425
0.201837	461.221
0.203002	462.019
0.204174	462.82
0.205353	463.624
0.206538	464.431
0.20773	465.242
0.20893	466.055
0.210136	466.871
0.211349	467.69
0.212569	468.513
0.213796	469.338
0.21503	470.167
0.216272	470.998
0.21752	471.833
0.218776	472.671
0.220039	473.511
0.221309	474.355
0.222587	475.202
0.223872	476.052
0.225165	476.906
0.226464	477.762
0.227772	478.622
0.229087	479.484
0.230409	480.35
0.231739	481.219
0.233077	482.091
0.234423	482.967
0.235776	483.845
0.237137	484.727
0.238506	485.612
0.239883	486.5
0.241268	487.392
0.242661	488.286
0.244062	489.184
0.245471	490.085
0.246888	490.99
0.248313	491.897
0.249747	492.808
0.251189	493.722
0.252639	494.64
0.254097	495.56
0.255564	496.484
0.25704	497.412
0.258523	498.342
0.260016	499.276
0.261517	500.213
0.263027	501.154
0.264545	502.098
0.266073	503.045
0.267609	503.996
0.269153	504.949
0.270707	505.907
0.27227	506.867
0.273842	507.831
0.275423	508.799
0.277013	509.769
0.278612	510.744
0.280221	511.721
0.281838	512.702
0.283465	513.686
0.285102	514.674
0.286748	515.665
0.288403	516.66
0.290068	517.658
0.291743	518.659
0.293427	519.664
0.295121	520.672
0.296825	521.684
0.298538	522.699
0.300262	523.718
0.301995	524.74
0.303739	525.766
0.305492	526.795
0.307256	527.827
0.30903	528.863
0.310814	529.903
0.312608	530.946
0.314413	531.992
0.316228	533.042
0.318053	534.095
0.31989	535.152
0.321736	536.213
0.323594	537.277
0.325462	538.344
0.327341	539.415
0.32923	540.49
0.331131	541.568
0.333043	542.65
0.334965	543.735
0.336899	544.823
0.338844	545.916
0.3408	547.011
0.342768	548.111
0.344747	549.213
0.346737	550.32
0.348739	551.43
0.350752	552.543
0.352777	553.66
0.354813	554.781
0.356862	555.905
0.358922	557.032
0.360994	558.164
0.363078	559.298
0.365174	560.437
0.367282	561.579
0.369403	562.724
0.371535	563.873
0.37368	565.026
0.375837	566.182
0.378007	567.342
0.380189	568.505
0.382384	569.672
0.384592	570.842
0.386812	572.016
0.389045	573.194
0.391291	574.375
0.39355	575.56
0.395822	576.748
0.398107	577.94
0.400405	579.135
0.402717	580.334
0.405042	581.536
0.40738	582.743
0.409732	583.952
0.412098	585.165
0.414477	586.382
0.416869	587.602
0.419276	588.826
0.421697	590.053
0.424131	591.284
0.42658	592.518
0.429042	593.756
0.431519	594.998
0.43401	596.243
0.436516	597.491
0.439036	598.743
0.44157	599.998
0.44412	601.257
0.446684	602.52
0.449262	603.786
0.451856	605.055
0.454465	606.328
0.457088	607.605
0.459727	608.884
0.462381	610.168
0.46505	611.454
0.467735	612.745
0.470435	614.038
0.473151	615.335
0.475883	616.636
0.47863	617.94
0.481393	619.247
0.484172	620.558
0.486968	621.872
0.489779	623.19
0.492606	624.511
0.49545	625.835
0.49831	627.163
0.501187	628.494
0.504081	629.828
0.506991	631.166
0.509918	632.507
0.512861	633.851
0.515822	635.198
0.5188	636.549
0.521795	637.903
0.524807	639.261
0.527837	640.621
0.530884	641.985
0.533949	643.352
0.537032	644.723
0.540132	646.096
0.54325	647.473
0.546387	648.853
0.549541	650.236
0.552713	651.622
0.555904	653.011
0.559114	654.403
0.562341	655.799
0.565588	657.197
0.568853	658.599
0.572137	660.003
0.57544	661.411
0.578762	662.821
0.582103	664.235
0.585464	665.652
0.588844	667.071
0.592243	669.304
0.595662	672.34
0.599101	675.399
0.60256	678.48
0.606038	681.583
0.609537	684.709
0.613056	687.858
0.616595	691.03
0.620155	694.225
0.623735	697.444
0.627336	700.686
0.630957	703.953
0.6346	707.243
0.638263	710.558
0.641948	713.897
0.645654	717.261
0.649382	720.65
0.653131	724.064
0.656901	727.503
0.660693	730.968
0.664508	734.459
0.668344	737.976
0.672202	741.519
0.676083	745.088
0.679986	748.684
0.683912	752.307
0.68786	755.958
0.691831	759.635
0.695825	763.341
0.699842	767.074
0.703882	770.662
0.707946	773.847
0.712033	777.049
0.716143	780.268
0.720278	783.503
0.724436	786.756
0.728618	790.026
0.732825	793.314
0.737055	796.618
0.74131	799.94
0.74559	803.279
0.749894	806.636
0.754223	810.01
0.758578	813.402
0.762957	816.812
0.767361	820.239
0.771792	823.684
0.776247	827.146
0.780728	830.627
0.785236	834.125
0.789769	837.641
0.794328	841.175
0.798914	844.728
0.803526	848.298
0.808165	851.886
0.812831	855.493
0.817523	859.118
0.822243	862.761
0.82699	866.423
0.831764	870.102
0.836566	873.801
0.841395	877.517
0.846253	881.253
0.851138	885.007
0.856052	888.779
0.860994	892.57
0.865964	896.38
0.870964	900.208
0.875992	904.055
0.881049	907.921
0.886135	911.806
0.891251	915.71
0.896396	919.632
0.901571	923.574
0.906776	927.535
0.912011	931.514
0.917276	935.513
0.922571	939.531
0.927897	943.567
0.933254	947.624
0.938642	951.699
0.944061	955.793
0.949511	959.907
0.954993	964.04
0.960506	968.192
0.966051	972.364
0.971628	976.555
0.977237	980.765
0.982879	984.995
0.988553	989.244
0.99426	993.513
1	997.801
1.00577	1002.11
1.01158	1006.44
1.01742	1010.78
1.02329	1015.15
1.0292	1019.53
1.03514	1023.94
1.04112	1028.36
1.04713	1032.81
1.05317	1037.27
1.05925	1041.76
1.06537	1046.26
1.07152	1050.78
1.07771	1055.32
1.08393	1059.89
1.09018	1064.47
1.09648	1069.07
1.10281	1073.69
1.10917	1078.33
1.11558	1082.99
1.12202	1087.67
1.1285	1092.37
1.13501	1097.09
1.14156	1101.83
1.14815	1106.59
1.15478	1111.36
1.16145	1116.16
1.16815	1120.98
1.1749	1125.81
1.18168	1130.67
1.1885	1135.54
1.19536	1140.44
1.20226	1145.35
1.20921	1150.29
1.21619	1155.24
1.22321	1160.21
1.23027	1165.2
1.23737	1170.21
1.24451	1175.24
1.2517	1180.29
1.25893	1185.36
1.26619	1190.45
1.2735	1195.55
1.28086	1200.68
1.28825	1205.82
1.29569	1210.99
1.30317	1216.17
1.31069	1221.37
1.31826	1226.59
1.32587	1231.83
1.33352	1237.08
1.34122	1242.36
1.34896	1247.65
1.35675	1252.97
1.36458	1258.3
1.37246	1263.65
1.38038	1269.01
1.38835	1274.4
1.39637	1279.8
1.40443	1285.22
1.41254	1290.66
1.42069	1296.12
1.42889	1301.6
1.43714	1307.09
1.44544	1312.6
1.45378	1318.13
1.46218	1323.67
1.47062	1329.24
1.47911	1334.82
1.48765	1340.41
1.49624	1346.03
1.50487	1351.66
1.51356	1357.31
1.5223	1362.97
1.53109	1368.65
1.53993	1374.35
1.54882	1380.06
1.55776	1385.79
1.56675	1391.54
1.5758	1397.3
1.58489	1403.08
1.59404	1408.87
1.60325	1414.68
1.6125	1420.51
1.62181	1426.34
1.63117	1432.2
1.64059	1438.07
1.65006	1443.95
1.65959	1449.85
1.66917	1455.77
1.6788	1461.69
1.6885	1467.64
1.69824	1473.59
1.70805	1479.56
1.71791	1485.55
1.72783	1491.55
1.7378	1497.56
1.74783	1503.58
1.75792	1509.62
1.76807	1515.67
1.77828	1521.73
1.78855	1527.8
1.79887	1533.89
1.80926	1539.99
1.8197	1546.1
1.83021	1552.23
1.84077	1558.36
1.8514	1564.51
1.86209	1570.66
1.87284	1576.83
1.88365	1583.01
1.89452	1589.2
1.90546	1595.4
1.91646	1601.61
1.92752	1607.82
1.93865	1614.05
1.94984	1620.29
1.9611	1626.54
1.97242	1632.79
1.98381	1639.06
1.99526	1645.33
2.00678	1651.61
2.01837	1657.9
2.03002	1664.19
2.04174	1670.5
2.05353	1676.81
2.06538	1683.13
2.0773	1689.45
2.0893	1695.78
2.10136	1702.12
2.11349	1708.46
2.12569	1714.81
2.13796	1721.16
2.1503	1727.52
2.16272	1733.89
2.1752	1740.25
2.18776	1746.62
2.20039	1751.84
2.21309	1758.21
2.22587	1764.57
2.23872	1770.95
2.25165	1777.32
2.26464	1783.7
2.27772	1790.07
2.29087	1796.45
2.30409	1802.83
2.31739	1809.22
2.33077	1815.6
2.34423	1821.98
2.35776	1828.37
2.37137	1834.75
2.38506	1841.13
2.39883	1847.51
2.41268	1853.9
2.42661	1860.27
2.44062	1866.65
2.45471	1873.03
2.46888	1879.4
2.48313	1885.77
2.49747	1892.14
2.51189	1898.5
2.52639	1904.86
2.54097	1911.21
2.55564	1917.57
2.5704	1923.91
2.58523	1930.25
2.60016	1936.59
2.61517	1942.92
2.63027	1949.24
2.64545	1955.55
2.66073	1961.86
2.67609	1968.16
2.69153	1974.46
2.70707	1980.74
2.7227	1987.02
2.73842	1993.29
2.75423	1999.55
2.77013	2005.8
2.78612	2012.04
2.80221	2018.27
2.81838	2024.49
2.83465	2030.7
2.85102	2036.89
2.86748	2043.08
2.88403	2049.25
2.90068	2055.41
2.91743	2061.56
2.93427	2067.69
2.95121	2073.81
2.96825	2079.92
2.98538	2086.01
3.00262	2092.09
3.01995	2098.15
3.03739	2104.2
3.05492	2110.23
3.07256	2116.24
3.0903	2122.24
3.10814	2128.22
3.12608	2134.19
3.14413	2140.13
3.16228	2146.06
3.18053	2151.97
3.1989	2157.86
3.21736	2163.73
3.23594	2169.58
3.25462	2175.41
3.27341	2181.22
3.2923	2187.01
3.31131	2192.78
3.33043	2198.53
3.34965	2204.25
3.36899	2209.95
3.38844	2215.63
3.408	2221.29
3.42768	2226.93
3.44747	2232.54
3.46737	2238.12
3.48739	2243.68
3.50752	2249.22
3.52777	2254.73
3.54813	2260.22
3.56862	2265.68
3.58922	2271.11
3.60994	2276.52
3.63078	2281.9
3.65174	2287.25
3.67282	2292.57
3.69403	2297.87
3.71535	2303.14
3.7368	2308.38
3.75837	2313.59
3.78007	2318.77
3.80189	2323.92
3.82384	2329.04
3.84592	2334.13
3.86812	2339.19
3.89045	2344.22
3.91291	2349.22
3.9355	2354.18
3.95822	2359.12
3.98107	2364.02
4.00405	2368.89
4.02717	2373.73
4.05042	2378.53
4.0738	2383.3
4.09732	2388.03
4.12098	2392.73
4.14477	2397.4
4.16869	2402.03
4.19276	2406.63
4.21697	2411.19
4.24131	2415.72
4.2658	2420.21
4.29042	2424.66
4.31519	2429.08
4.3401	2433.46
4.36516	2437.8
4.39036	2442.11
4.4157	2446.38
4.4412	2450.61
4.46684	2454.81
4.49262	2458.96
4.51856	2463.08
4.54465	2467.16
4.57088	2471.2
4.59727	2475.2
4.62381	2479.16
4.6505	2483.09
4.67735	2486.97
4.70435	2490.81
4.73151	2494.61
4.75883	2498.38
4.7863	2502.1
4.81393	2505.78
4.84172	2509.42
4.86968	2513.02
4.89779	2516.58
4.92606	2520.1
4.9545	2523.57
4.9831	2527.01
5.01187	2530.4
5.04081	2533.75
5.06991	2537.06
5.09918	2540.33
5.12861	2543.55
5.15822	2546.73
5.188	2549.87
5.21795	2552.97
5.24807	2556.02
5.27837	2559.03
5.30884	2562
5.33949	2564.92
5.37032	2567.8
5.40132	2570.64
5.4325	2573.44
5.46387	2576.19
5.49541	2578.9
5.52713	2581.56
5.55904	2584.18
5.59114	2586.76
5.62341	2589.29
5.65588	2591.78
5.68853	2594.23
5.72137	2596.63
5.7544	2598.99
5.78762	2601.3
5.82103	2603.57
5.85464	2605.8
5.88844	2607.98
5.92243	2610.12
5.95662	2612.22
5.99101	2614.27
6.0256	2616.27
6.06038	2618.24
6.09537	2620.16
6.13056	2622.03
6.16595	2623.86
6.20155	2625.65
6.23735	2627.4
6.27336	2629.1
6.30957	2630.76
6.346	2632.37
6.38263	2633.94
6.41948	2635.47
6.45654	2636.95
6.49382	2638.39
6.53131	2639.79
6.56901	2641.14
6.60693	2642.46
6.64508	2643.72
6.68344	2644.95
6.72202	2646.13
6.76083	2647.27
6.79986	2648.37
6.83912	2649.43
6.8786	2650.44
6.91831	2651.41
6.95825	2652.34
6.99842	2653.23
7.03882	2654.08
7.07946	2654.88
7.12033	2655.65
7.16143	2656.37
7.20278	2657.05
7.24436	2657.69
7.28618	2658.29
7.32825	2658.85
7.37055	2659.37
7.4131	2659.85
7.4559	2660.29
7.49894	2660.68
7.54223	2661.04
7.58578	2661.36
7.62957	2661.64
7.67361	2661.88
7.71792	2662.09
7.76247	2662.25
7.80728	2662.38
7.85236	2662.46
7.89769	2662.51
7.94328	2662.52
7.98914	2662.5
8.03526	2662.43
8.08165	2662.33
8.12831	2662.2
8.17523	2662.02
8.22243	2661.81
8.2699	2661.56
8.31764	2661.28
8.36566	2660.96
8.41395	2660.61
8.46253	2660.22
8.51138	2659.79
8.56052	2659.33
8.60994	2658.84
8.65964	2658.31
8.70964	2657.75
8.75992	2657.16
8.81049	2656.53
8.86135	2655.87
8.91251	2655.17
8.96396	2654.44
9.01571	2653.68
9.06776	2652.89
9.12011	2652.07
9.17276	2651.21
9.22571	2650.33
9.27897	2649.41
9.33254	2648.46
9.38642	2647.48
9.44061	2646.47
9.49511	2645.44
9.54993	2637.22
9.60506	2636.21
9.66051	2635.16
9.71628	2634.09
9.77237	2632.99
9.82879	2631.86
9.88553	2630.7
9.9426	2629.51
10	2628.3
10.0577	2627.06
10.1158	2625.79
10.1742	2624.49
10.2329	2623.17
10.292	2621.82
10.3514	2620.44
10.4112	2619.04
10.4713	2617.61
10.5317	2616.15
10.5925	2614.68
10.6537	2613.17
10.7152	2611.65
10.7771	2610.09
10.8393	2608.52
10.9018	2606.92
10.9648	2605.3
11.0281	2603.65
11.0917	2601.98
11.1558	2600.29
11.2202	2598.58
11.285	2596.85
11.3501	2595.09
11.4156	2593.32
11.4815	2591.52
11.5478	2589.7
11.6145	2587.86
11.6815	2586
11.749	2584.13
11.8168	2582.23
11.885	2580.31
11.9536	2578.38
12.0226	2576.42
12.0921	2574.45
12.1619	2572.46
12.2321	2570.45
12.3027	2568.43
12.3737	2566.39
12.4451	2564.33
12.517	2562.25
12.5893	2560.16
12.6619	2558.05
12.735	2555.93
12.8086	2553.79
12.8825	2551.63
12.9569	2549.46
13.0317	2547.28
13.1069	2545.08
13.1826	2542.87
13.2587	2540.64
13.3352	2538.4
13.4122	2536.14
13.4896	2533.88
13.5675	2531.6
13.6458	2529.3
13.7246	2527
13.8038	2524.68
13.8835	2522.35
13.9637	2520.01
14.0443	2517.66
14.1254	2515.29
14.2069	2512.92
14.2889	2510.53
14.3714	2508.13
14.4544	2505.73
14.5378	2503.31
14.6218	2500.88
14.7062	2498.45
14.7911	2496
14.8765	2493.54
14.9624	2491.08
15.0487	2488.6
15.1356	2486.12
15.223	2483.63
15.3109	2481.13
15.3993	2478.63
15.4882	2476.11
15.5776	2473.59
15.6675	2471.06
15.758	2468.52
15.8489	2465.98
15.9404	2463.43
16.0325	2460.87
16.125	2458.3
16.2181	2455.73
16.3117	2453.15
16.4059	2450.57
16.5006	2447.98
16.5959	2445.39
16.6917	2442.78
16.788	2440.18
16.885	2437.57
16.9824	2434.95
17.0805	2432.33
17.1791	2429.7
17.2783	2427.07
17.378	2424.43
17.4783	2421.79
17.5792	2419.15
17.6807	2416.5
17.7828	2413.85
17.8855	2411.19
17.9887	2408.53
18.0926	2405.87
18.197	2403.2
18.3021	2400.53
18.4077	2397.85
18.514	2395.17
18.6209	2392.49
18.7284	2389.81
18.8365	2387.12
18.9452	2384.43
19.0546	2381.74
19.1646	2379.04
19.2752	2376.35
19.3865	2373.65
19.4984	2370.94
19.611	2368.24
19.7242	2365.53
19.8381	2362.82
19.9526	2360.11
20.0678	2357.4
20.1837	2354.68
20.3002	2351.97
20.4174	2349.25
20.5353	2346.53
20.6538	2343.81
20.773	2341.08
20.893	2338.36
21.0136	2335.63
21.1349	2332.91
21.2569	2330.18
21.3796	2327.45
21.503	2324.71
21.6272	2321.98
21.752	2319.25
21.8776	2316.51
22.0039	2313.78
22.1309	2311.04
22.2587	2308.3
22.3872	2305.56
22.5165	2302.82
22.6464	2300.08
22.7772	2297.34
22.9087	2294.6
23.0409	2291.86
23.1739	2289.11
23.3077	2286.37
23.4423	2283.62
23.5776	2280.88
23.7137	2278.13
23.8506	2275.38
23.9883	2272.63
24.1268	2269.88
24.2661	2267.13
24.4062	2264.38
24.5471	2261.63
24.6888	2258.88
24.8313	2256.13
24.9747	2253.38
25.1189	2250.62
25.2639	2247.87
25.4097	2245.11
25.5564	2242.36
25.704	2239.6
25.8523	2236.85
26.0016	2234.09
26.1517	2231.33
26.3027	2228.57
26.4545	2225.81
26.6073	2223.05
26.7609	2220.29
26.9153	2217.53
27.0707	2214.77
27.227	2212.01
27.3842	2209.25
27.5423	2206.48
27.7013	2203.72
27.8612	2200.95
28.0221	2198.18
28.1838	2195.42
28.3465	2192.65
28.5102	2189.88
28.6748	2187.11
28.8403	2184.34
29.0068	2181.57
29.1743	2178.8
29.3427	2176.02
29.5121	2173.25
29.6825	2170.47
29.8538	2167.7
30.0262	2164.92
30.1995	2162.14
30.3739	2159.36
30.5492	2156.58
30.7256	2153.8
30.903	2151.02
31.0814	2148.23
31.2608	2145.45
31.4413	2142.66
31.6228	2139.87
31.8053	2137.08
31.989	2134.29
32.1736	2131.5
32.3594	2128.71
32.5462	2125.91
32.7341	2123.12
32.923	2120.32
33.1131	2117.52
33.3043	2114.72
33.4965	2111.92
33.6899	2109.11
33.8844	2106.31
34.08	2103.5
34.2768	2100.69
34.4747	2097.88
34.6737	2095.06
34.8739	2092.25
35.0752	2089.43
35.2777	2086.61
35.4813	2083.8
35.6862	2080.97
35.8922	2078.15
36.0994	2075.32
36.3078	2072.49
36.5174	2069.66
36.7282	2066.83
36.9403	2063.99
37.1535	2061.15
37.368	2058.31
37.5837	2055.47
37.8007	2052.63
38.0189	2049.78
38.2384	2046.93
38.4592	2044.08
38.6812	2041.23
38.9045	2038.37
39.1291	2035.51
39.355	2032.65
39.5822	2029.78
39.8107	2026.92
40.0405	2024.05
40.2717	2021.18
40.5042	2018.3
40.738	2015.42
40.9732	2012.54
41.2098	2009.66
41.4477	2006.77
41.6869	2003.88
41.9276	2000.99
42.1697	1998.1
42.4131	1995.2
42.658	1992.3
42.9042	1989.4
43.1519	1986.49
43.401	1983.58
43.6516	1980.67
43.9036	1977.75
44.157	1974.83
44.412	1971.91
44.6684	1968.98
44.9262	1966.05
45.1856	1963.12
45.4465	1960.18
45.7088	1957.25
45.9727	1954.3
46.2381	1951.36
46.505	1948.41
46.7735	1945.46
47.0435	1942.5
47.3151	1939.54
47.5883	1936.58
47.863	1933.61
48.1393	1930.64
48.4172	1927.67
48.6968	1924.69
48.9779	1921.71
49.2606	1918.72
49.545	1915.73
49.831	1912.74
50.1187	1909.75
50.4081	1906.75
50.6991	1903.74
50.9918	1900.74
51.2861	1897.72
51.5822	1894.71
51.88	1891.69
52.1795	1888.67
52.4807	1885.64
52.7837	1882.61
53.0884	1879.58
53.3949	1876.54
53.7032	1873.5
54.0132	1870.45
54.325	1867.4
54.6387	1864.34
54.9541	1861.29
55.2713	1858.22
55.5904	1855.05
55.9114	1851.14
56.2341	1847.22
56.5588	1843.32
56.8853	1839.42
57.2137	1835.52
57.544	1831.62
57.8762	1827.84
58.2103	1823.94
58.5464	1820.04
58.8844	1816.16
59.2243	1812.27
59.5662	1808.38
59.9101	1804.49
60.256	1800.6
60.6038	1796.71
60.9537	1792.82
61.3056	1788.94
61.6595	1785.05
62.0155	1781.41
62.3735	1777.52
62.7336	1773.71
63.0957	1769.83
63.46	1765.95
63.8263	1762.07
64.1948	1758.19
64.5654	1754.31
64.9382	1750.43
65.3131	1746.55
65.6901	1742.67
66.0693	1738.8
66.4508	1734.92
66.8344	1731.04
67.2202	1727.16
67.6083	1723.29
67.9986	1720.43
68.3912	1716.54
68.786	1712.66
69.1831	1708.78
69.5825	1701.49
69.9842	1697.55
70.3882	1693.92
70.7946	1689.98
71.2033	1686.04
71.6143	1682.11
72.0278	1678.17
72.4436	1674.24
72.8618	1670.32
73.2825	1666.39
73.7055	1662.46
74.131	1658.54
74.559	1654.61
74.9894	1650.68
75.4223	1646.75
75.8578	1642.83
76.2957	1638.9
76.7361	1634.97
77.1792	1631.04
77.6247	1627.12
78.0728	1623.19
78.5236	1619.26
78.9769	1615.33
79.4328	1611.4
79.8914	1607.47
80.3526	1603.54
80.8165	1599.61
81.2831	1595.68
81.7523	1591.75
82.2243	1587.81
82.699	1584.89
83.1764	1580.95
83.6566	1577.02
84.1395	1573.08
84.6253	1569.14
85.1138	1565.21
85.6052	1561.27
86.0994	1557.33
86.5964	1553.39
87.0964	1549.45
87.5992	1545.51
88.1049	1541.57
88.6135	1537.63
89.1251	1533.69
89.6396	1529.76
90.1571	1525.82
90.6776	1521.88
91.2011	1517.94
91.7276	1514.01
92.2571	1510.07
92.7897	1506.14
93.3254	1502.2
93.8642	1498.27
94.4061	1494.4
94.9511	1490.47
95.4993	1486.54
96.0506	1482.61
96.6051	1478.68
97.1628	1474.75
97.7237	1470.86
98.2879	1467.09
98.8553	1463.32
99.426	1459.55
100	1455.77
100.577	1452
101.158	1448.23
101.742	1444.45
102.329	1440.68
102.92	1436.9
103.514	1433.13
104.112	1429.35
104.713	1425.58
105.317	1421.81
105.925	1418.03
106.537	1414.26
107.152	1410.49
107.771	1406.71
108.393	1402.94
109.018	1399.17
109.648	1395.4
110.281	1391.63
110.917	1387.86
111.558	1384.1
112.202	1380.33
112.85	1376.56
113.501	1373.19
114.156	1369.42
114.815	1365.65
115.478	1361.89
116.145	1358.12
116.815	1354.36
117.49	1350.6
118.168	1346.84
118.85	1343.08
119.536	1339.33
120.226	1335.58
120.921	1331.83
121.619	1328.08
122.321	1324.33
123.027	1320.59
123.737	1316.85
124.451	1314.02
125.17	1310.28
125.893	1306.54
126.619	1302.8
127.35	1299.06
128.086	1295.33
128.825	1291.6
129.569	1287.88
130.317	1284.15
131.069	1280.44
131.826	1276.72
132.587	1273.01
133.352	1269.3
134.122	1265.59
134.896	1261.89
135.675	1258.19
136.458	1254.5
137.246	1250.81
138.038	1247.12
138.835	1243.44
139.637	1239.76
140.443	1236.09
141.254	1232.41
142.069	1228.75
142.889	1225.08
143.714	1221.42
144.544	1217.77
145.378	1214.11
146.218	1210.47
147.062	1206.82
147.911	1203.18
148.765	1199.55
149.624	1195.92
150.487	1192.29
151.356	1188.67
152.23	1185.05
153.109	1181.44
153.993	1177.83
154.882	1174.22
155.776	1170.62
156.675	1167.03
157.58	1163.46
158.489	1159.87
159.404	1156.54
160.325	1152.95
161.25	1149.38
162.181	1145.8
163.117	1142.23
164.059	1138.67
165.006	1135.11
165.959	1131.55
166.917	1128
167.88	1124.46
168.85	1120.92
169.824	1117.38
170.805	1113.85
171.791	1110.32
172.783	1106.8
173.78	1103.28
174.783	1099.77
175.792	1096.26
176.807	1092.76
177.828	1089.26
178.855	1085.76
179.887	1082.28
180.926	1078.79
181.97	1075.31
183.021	1071.84
184.077	1068.37
185.14	1065.49
186.209	1062.03
187.284	1058.57
188.365	1055.12
189.452	1051.67
190.546	1048.22
191.646	1044.79
192.752	1041.35
193.865	1037.93
194.984	1034.5
196.11	1031.09
197.242	1027.68
198.381	1024.27
199.526	1020.87
200.678	1017.47
201.837	1014.08
203.002	1010.7
204.174	1007.32
205.353	1003.95
206.538	1000.58
207.73	997.217
208.93	994.182
210.136	990.825
211.349	987.473
212.569	984.127
213.796	980.786
215.03	977.451
216.272	974.122
217.52	970.798
218.776	967.48
220.039	964.168
221.309	960.876
222.587	957.574
223.872	954.279
225.165	950.989
226.464	947.705
227.772	944.426
229.087	941.154
230.409	937.889
231.739	934.629
233.077	931.375
234.423	928.127
235.776	924.885
237.137	921.648
238.506	918.418
239.883	915.193
241.268	911.974
242.661	908.762
244.062	905.555
245.471	902.354
246.888	899.159
248.313	895.97
249.747	892.788
251.189	889.611
252.639	886.44
254.097	883.276
255.564	880.117
257.04	876.965
258.523	873.819
260.016	870.679
261.517	867.546
263.027	864.418
264.545	861.297
266.073	858.182
267.609	855.074
269.153	851.972
270.707	848.876
272.27	845.786
273.842	842.703
275.423	839.626
277.013	836.556
278.612	833.492
280.221	830.435
281.838	827.384
283.465	824.34
285.102	821.302
286.748	818.271
288.403	815.247
290.068	812.229
291.743	809.218
293.427	806.417
295.121	803.416
296.825	800.422
298.538	797.435
300.262	794.454
301.995	791.48
303.739	788.513
305.492	785.553
307.256	782.6
309.03	779.653
310.814	776.714
312.608	773.781
314.413	770.856
316.228	767.937
318.053	765.025
319.89	762.12
321.736	759.222
323.594	756.332
325.462	753.448
327.341	750.571
329.23	747.702
331.131	744.839
333.043	741.984
334.965	739.136
336.899	736.295
338.844	733.461
340.8	730.634
342.768	727.814
344.747	725.002
346.737	722.197
348.739	719.4
350.752	716.61
352.777	713.827
354.813	711.051
356.862	708.282
358.922	705.521
360.994	702.767
363.078	700.02
365.174	697.281
367.282	694.549
369.403	691.824
371.535	689.107
373.68	686.397
375.837	683.695
378.007	681
380.189	678.312
382.384	675.632
384.592	672.959
386.812	670.294
389.045	667.636
391.291	664.985
393.55	662.342
395.822	659.707
398.107	657.079
400.405	654.458
402.717	651.845
405.042	649.24
407.38	646.642
409.732	644.052
412.098	641.469
414.477	638.893
416.869	636.326
419.276	633.764
421.697	631.212
424.131	628.667
426.58	626.131
429.042	623.601
431.519	621.08
434.01	618.565
436.516	616.059
439.036	613.56
441.57	611.068
444.12	608.584
446.684	606.108
449.262	603.639
451.856	601.178
454.465	598.724
457.088	596.278
459.727	593.839
462.381	591.408
465.05	588.985
467.735	586.569
470.435	584.161
473.151	581.761
475.883	579.368
478.63	576.983
481.393	574.605
484.172	572.235
486.968	569.872
489.779	567.517
492.606	565.169
495.45	562.829
498.31	560.496
501.187	558.171
504.081	555.854
506.991	553.544
509.918	551.241
512.861	548.947
515.822	546.659
518.8	544.379
521.795	542.107
524.807	539.842
527.837	537.585
530.884	535.336
533.949	533.093
537.032	530.858
540.132	528.631
543.25	526.411
546.387	524.199
549.541	521.994
552.713	519.797
555.904	517.607
559.114	515.425
562.341	513.25
565.588	511.082
568.853	508.922
572.137	506.77
575.44	504.624
578.762	502.487
582.103	500.356
585.464	498.234
588.844	496.118
592.243	494.01
595.662	491.909
599.101	489.816
602.56	487.73
606.038	485.652
609.537	483.581
613.056	481.517
616.595	479.46
620.155	477.411
623.735	475.369
627.336	473.335
630.957	471.308
634.6	469.288
638.263	467.275
641.948	465.27
645.654	463.272
649.382	461.282
653.131	459.298
656.901	457.322
660.693	455.353
664.508	453.391
668.344	451.437
672.202	449.489
676.083	447.549
679.986	445.617
683.912	443.691
687.86	441.772
691.831	439.861
695.825	437.957
699.842	436.06
703.882	434.17
707.946	432.287
712.033	430.411
716.143	428.542
720.278	426.681
724.436	424.827
728.618	422.979
732.825	421.139
737.055	419.306
741.31	417.48
745.59	415.661
749.894	413.849
754.223	412.044
758.578	410.245
762.957	408.454
767.361	406.67
771.792	404.893
776.247	403.122
780.728	401.359
785.236	399.603
789.769	397.853
794.328	396.11
798.914	394.374
803.526	392.645
808.165	390.923
812.831	389.207
817.523	387.499
822.243	385.797
826.99	384.102
831.764	382.414
836.566	380.732
841.395	379.057
846.253	377.389
851.138	375.727
856.052	374.073
860.994	372.425
865.964	370.783
870.964	369.149
875.992	367.521
881.049	365.899
886.135	364.284
891.251	362.676
896.396	361.074
901.571	359.479
906.776	357.89
912.011	356.308
917.276	354.733
922.571	353.163
927.897	351.601
933.254	350.045
938.642	348.495
944.061	346.951
949.511	345.414
954.993	343.884
960.506	342.36
966.051	340.842
971.628	339.33
977.237	337.825
982.879	336.326
988.553	334.833
994.26	333.347
1000	331.867
1005.77	330.393
1011.58	328.925
1017.42	327.464
1023.29	326.008
1029.2	324.559
1035.14	323.116
1041.12	321.68
1047.13	320.249
1053.17	318.824
1059.25	317.406
1065.37	315.993
1071.52	314.587
1077.71	313.186
1083.93	311.792
1090.18	310.403
1096.48	309.021
1102.81	307.644
1109.17	306.274
1115.58	304.909
1122.02	303.551
1128.5	302.198
1135.01	300.851
1141.56	299.51
1148.15	298.174
1154.78	296.845
1161.45	295.521
1168.15	294.203
1174.9	292.891
1181.68	291.585
1188.5	290.284
1195.36	288.989
1202.26	287.7
1209.21	286.416
1216.19	285.138
1223.21	283.866
1230.27	282.599
1237.37	281.338
1244.51	280.083
1251.7	278.833
1258.93	277.588
1266.19	276.349
1273.5	275.116
1280.86	273.888
1288.25	272.666
1295.69	271.449
1303.17	270.237
1310.69	269.031
1318.26	267.831
1325.87	266.635
1333.52	265.445
1341.22	264.261
1348.96	263.082
1356.75	261.908
1364.58	260.739
1372.46	259.576
1380.38	258.417
1388.35	257.265
1396.37	256.117
1404.43	254.974
1412.54	253.837
1420.69	252.705
1428.89	251.578
1437.14	250.456
1445.44	249.34
1453.78	248.228
1462.18	247.121
1470.62	246.02
1479.11	244.924
1487.65	243.832
1496.24	242.746
1504.87	241.664
1513.56	240.588
1522.3	239.516
1531.09	238.45
1539.93	237.388
1548.82	236.331
1557.76	235.28
1566.75	234.233
1575.8	233.19
1584.89	232.153
1594.04	231.121
1603.25	230.093
1612.5	229.07
1621.81	228.052
1631.17	227.038
1640.59	226.029
1650.06	225.025
1659.59	224.026
1669.17	223.031
1678.8	222.041
1688.5	221.056
1698.24	220.075
1708.05	219.099
1717.91	218.127
1727.83	217.16
1737.8	216.197
1747.83	215.239
1757.92	214.286
1768.07	213.337
1778.28	212.392
1788.55	211.452
1798.87	210.517
1809.26	209.585
1819.7	208.659
1830.21	207.736
1840.77	206.818
1851.4	205.904
1862.09	204.995
1872.84	204.09
1883.65	203.189
1894.52	202.293
1905.46	201.401
1916.46	200.513
1927.52	199.629
1938.65	198.749
1949.84	197.874
1961.1	197.003
1972.42	196.136
1983.81	195.273
1995.26	194.414
2006.78	193.56
2018.37	192.709
2030.02	191.863
2041.74	191.021
2053.53	190.183
2065.38	189.348
2077.3	188.518
2089.3	187.692
2101.36	186.87
2113.49	186.051
2125.69	185.237
2137.96	184.427
2150.3	183.62
2162.72	182.818
2175.2	182.019
2187.76	181.224
2200.39	180.433
2213.09	179.646
2225.87	178.863
2238.72	178.083
2251.65	177.308
2264.64	176.536
2277.72	175.768
2290.87	175.003
2304.09	174.242
2317.39	173.485
2330.77	172.732
2344.23	171.983
2357.76	171.237
2371.37	170.494
2385.06	169.756
2398.83	169.021
2412.68	168.289
2426.61	167.561
2440.62	166.837
2454.71	166.116
2468.88	165.399
2483.13	164.685
2497.47	163.975
2511.89	163.268
2526.39	162.565
2540.97	161.866
2555.64	161.169
2570.4	160.476
2585.23	159.787
2600.16	159.101
2615.17	158.418
2630.27	157.739
2645.45	157.063
2660.73	156.391
2676.09	155.721
2691.53	155.056
2707.07	154.393
2722.7	153.734
2738.42	153.078
2754.23	152.425
2770.13	151.775
2786.12	151.129
2802.21	150.486
2818.38	149.846
2834.65	149.209
2851.02	148.576
2867.48	147.946
2884.03	147.318
2900.68	146.694
2917.43	146.073
2934.27	145.456
2951.21	144.841
2968.25	144.229
2985.38	143.621
3002.62	143.015
3019.95	142.412
3037.39	141.813
3054.92	141.216
3072.56	140.623
3090.3	140.032
3108.14	139.445
3126.08	138.86
3144.13	138.279
3162.28	137.7
3180.53	137.124
3198.9	136.551
3217.36	135.981
3235.94	135.414
3254.62	134.85
3273.41	134.289
3292.3	133.73
3311.31	133.174
3330.43	132.621
3349.65	132.071
3368.99	131.524
3388.44	130.979
3408	130.438
3427.68	129.899
3447.47	129.362
3467.37	128.829
3487.39	128.298
3507.52	127.77
3527.77	127.244
3548.13	126.722
3568.62	126.201
3589.22	125.684
3609.94	125.169
3630.78	124.657
3651.74	124.147
3672.82	123.64
3694.03	123.136
3715.35	122.634
3736.8	122.135
3758.37	121.638
3780.07	121.144
3801.89	120.653
3823.84	120.164
3845.92	119.677
3868.12	119.193
3890.45	118.711
3912.91	118.232
3935.5	117.756
3958.22	117.282
3981.07	116.81
4004.05	116.341
4027.17	115.874
4050.42	115.409
4073.8	114.947
4097.32	114.487
4120.98	114.03
4144.77	113.575
4168.69	113.123
4192.76	112.672
4216.97	112.225
4241.31	111.779
4265.8	111.336
4290.42	110.895
4315.19	110.456
4340.1	110.02
4365.16	109.586
4390.36	109.154
4415.7	108.724
4441.2	108.297
4466.84	107.871
4492.62	107.449
4518.56	107.028
4544.65	106.609
4570.88	106.193
4597.27	105.779
4623.81	105.367
4650.5	104.957
4677.35	104.549
4704.35	104.144
4731.51	103.74
4758.83	103.339
4786.3	102.94
4813.93	102.543
4841.72	102.147
4869.68	101.755
4897.79	101.364
4926.06	100.975
4954.5	100.588
4983.1	100.203
5011.87	99.8206
5040.81	99.4399
5069.91	99.0612
5099.18	98.6845
5128.61	98.3098
5158.22	97.9371
5188	97.5664
5217.95	97.1976
5248.07	96.8308
5278.37	96.466
5308.84	96.1031
5339.49	95.7421
5370.32	95.383
5401.32	95.0258
5432.5	94.6706
5463.87	94.3172
5495.41	93.9657
5527.13	93.6161
5559.04	93.2683
5591.14	92.9225
5623.41	92.5784
5655.88	92.2362
5688.53	91.8959
5721.37	91.5573
5754.4	91.2206
5787.62	90.8857
5821.03	90.5526
5854.64	90.2212
5888.44	89.8917
5922.43	89.5639
5956.62	89.2379
5991.01	88.9136
6025.6	88.5911
6060.38	88.2704
6095.37	87.9513
6130.56	87.634
6165.95	87.3184
6201.55	87.0045
6237.35	86.6923
6273.36	86.3819
6309.57	86.073
6346	85.7659
6382.63	85.4605
6419.48	85.1567
6456.54	84.8545
6493.82	84.554
6531.31	84.2551
6569.01	83.9579
6606.93	83.6623
6645.08	83.3683
6683.44	83.0759
6722.02	82.7851
6760.83	82.4959
6799.86	82.2083
6839.12	81.9223
6878.6	81.6378
6918.31	81.3549
6958.25	81.0736
6998.42	80.7938
7038.82	80.5155
7079.46	80.2388
7120.33	79.9636
7161.43	79.69
7202.78	79.4178
7244.36	79.1471
7286.18	78.878
7328.25	78.6103
7370.55	78.3442
7413.1	78.0795
7455.9	77.8162
7498.94	77.5545
7542.23	77.2942
7585.78	77.0353
7629.57	76.7779
7673.61	76.5219
7717.92	76.2674
7762.47	76.0143
7807.28	75.7626
7852.36	75.5123
7897.69	75.2635
7943.28	75.016
7989.14	74.7699
8035.26	74.5252
8081.65	74.2818
8128.31	74.0399
8175.23	73.7993
8222.43	73.5601
8269.9	73.3222
8317.64	73.0856
8365.66	72.8505
8413.95	72.6166
8462.53	72.3841
8511.38	72.1529
8560.52	71.923
8609.94	71.6944
8659.64	71.4671
8709.64	71.2411
8759.92	71.0164
8810.49	70.793
8861.35	70.5709
8912.51	70.3501
8963.96	70.1305
9015.71	69.9122
9067.76	69.6951
9120.11	69.4793
9172.76	69.2647
9225.71	69.0514
9278.97	68.8393
9332.54	68.6284
9386.42	68.4188
9440.61	68.2104
9495.11	68.0032
9549.93	67.7971
9605.06	67.5923
9660.51	67.3887
9716.28	67.1863
9772.37	66.985
9828.79	66.785
9885.53	66.5861
9942.6	66.3883
10000	66.1918
10057.7	65.9963
10115.8	65.8021
10174.2	65.609
10232.9	65.417
10292	65.2261
10351.4	65.0364
10411.2	64.8478
10471.3	64.6604
10531.7	64.474
10592.5	64.2887
10653.7	64.1046
10715.2	63.9216
10777.1	63.7396
10839.3	63.5587
10901.8	63.379
10964.8	63.2002
11028.1	63.0226
11091.7	62.8461
11155.8	62.6706
11220.2	62.4961
11285	62.3227
11350.1	62.1504
11415.6	61.9791
11481.5	61.8089
11547.8	61.6396
11614.5	61.4715
11681.5	61.3043
11749	61.1382
11816.8	60.973
11885	60.8089
11953.6	60.6458
12022.6	60.4837
12092.1	60.3226
12161.9	60.1625
12232.1	60.0034
12302.7	59.8452
12373.7	59.6881
12445.1	59.5319
12517	59.3767
12589.3	59.2224
12661.9	59.0691
12735	58.9168
12808.6	58.7654
12882.5	58.615
12956.9	58.4655
13031.7	58.317
13106.9	58.1693
13182.6	58.0227
13258.7	57.8769
13335.2	57.7321
13412.2	57.5882
13489.6	57.4452
13567.5	57.3031
13645.8	57.1619
13724.6	57.0216
13803.8	56.8822
13883.5	56.7438
13963.7	56.6062
14044.3	56.4695
14125.4	56.3336
14206.9	56.1987
14288.9	56.0646
14371.4	55.9314
14454.4	55.799
14537.8	55.6676
14621.8	55.5369
14706.2	55.4072
14791.1	55.2783
14876.5	55.1502
14962.4	55.0229
15048.7	54.8966
15135.6	54.771
15223	54.6463
15310.9	54.5224
15399.3	54.3993
15488.2	54.277
15577.6	54.1556
15667.5	54.035
15758	53.9152
15848.9	53.7961
15940.4	53.6779
16032.5	53.5605
16125	53.4439
16218.1	53.3281
16311.7	53.213
16405.9	53.0988
16500.6	52.9853
16595.9	52.8726
16691.7	52.7607
16788	52.6495
16885	52.5391
16982.4	52.4295
17080.5	52.3206
17179.1	52.2125
17278.3	52.1051
17378	51.9985
17478.3	51.8926
17579.2	51.7875
17680.7	51.6831
17782.8	51.5794
17885.5	51.4765
17988.7	51.3743
18092.6	51.2728
18197	51.1721
18302.1	51.0721
18407.7	50.9727
18514	50.8741
18620.9	50.7763
18728.4	50.6791
18836.5	50.5826
18945.2	50.4868
19054.6	50.3917
19164.6	50.2973
19275.2	50.2036
19386.5	50.1106
19498.4	50.0183
19611	49.9266
19724.2	49.8356
19838.1	49.7453
19952.6	49.6557
20067.8	49.5667
20183.7	49.4785
20300.2	49.3908
20417.4	49.3039
20535.3	49.2175
20653.8	49.1319
20773	49.0469
20893	48.9625
21013.6	48.8788
21134.9	48.7957
21256.9	48.7133
21379.6	48.6315
21503	48.5503
21627.2	48.4698
21752	48.3899
21877.6	48.3106
22003.9	48.2319
22130.9	48.1539
22258.7	48.0765
22387.2	47.9996
22516.5	47.9234
22646.4	47.8478
22777.2	47.7729
22908.7	47.6985
23040.9	47.6247
23173.9	47.5515
23307.7	47.4789
23442.3	47.4069
23577.6	47.3355
23713.7	47.2647
23850.6	47.1944
23988.3	47.1248
24126.8	47.0557
24266.1	46.9872
24406.2	46.9193
24547.1	46.8519
24688.8	46.7851
24831.3	46.7189
24974.7	46.6532
25118.9	46.5881
25263.9	46.5236
25409.7	46.4596
25556.4	46.3961
25704	46.3333
25852.3	46.2709
26001.6	46.2091
26151.7	46.1479
26302.7	46.0872
26454.5	46.027
26607.3	45.9674
26760.9	45.9083
26915.3	45.8497
27070.7	45.7895
27227	45.7271
27384.2	45.6653
27542.3	45.6039
27701.3	45.543
27861.2	45.4827
28022.1	45.4229
28183.8	45.3636
28346.5	45.3047
28510.2	45.2464
28674.8	45.1886
28840.3	45.1312
29006.8	45.0744
29174.3	45.018
29342.7	44.9622
29512.1	44.9068
29682.5	44.8519
29853.8	44.7975
30026.2	44.7435
30199.5	44.6901
30373.9	44.6371
30549.2	44.5846
30725.6	44.5325
30903	44.4809
31081.4	44.4298
31260.8	44.3791
31441.3	44.3289
31622.8	44.2792
31805.3	44.2299
31989	44.1811
32173.6	44.1327
32359.4	44.0848
32546.2	44.0373
32734.1	43.9902
32923	43.9436
33113.1	43.8975
33304.3	43.8517
33496.5	43.8065
33689.9	43.7616
33884.4	43.7172
34080	43.6732
34276.8	43.6296
34474.7	43.5865
34673.7	43.5437
34873.9	43.5014
35075.2	43.4596
35277.7	43.4181
35481.3	43.377
35686.2	43.3364
35892.2	43.2962
36099.4	43.2563
36307.8	43.2169
36517.4	43.1779
36728.2	43.1393
36940.3	43.1011
37153.5	43.0633
37368	43.0258
37583.7	42.9888
37800.7	42.9522
38018.9	42.9159
38238.4	42.8801
38459.2	42.8446
38681.2	42.8095
38904.5	42.7748
39129.1	42.7405
39355	42.7066
39582.2	42.673
39810.7	42.6398
40040.5	42.607
40271.7	42.5745
40504.2	42.5424
40738	42.5107
40973.2	42.4793
41209.8	42.4484
41447.7	42.4177
41686.9	42.3874
41927.6	42.3575
42169.7	42.328
42413.1	42.2988
42658	42.2699
42904.2	42.2414
43151.9	42.2132
43401	42.1854
43651.6	42.1579
43903.6	42.1308
44157	42.104
44412	42.0776
44668.4	42.0515
44926.2	42.0257
45185.6	42.0002
45446.5	41.9751
45708.8	41.9503
45972.7	41.9259
46238.1	41.9018
46505	41.878
46773.5	41.8545
47043.5	41.8313
47315.1	41.8085
47588.3	41.7859
47863	41.7637
48139.3	41.7418
48417.2	41.7202
48696.8	41.699
48977.9	41.678
49260.6	41.6573
49545	41.637
49831	41.6169
50118.7	41.5972
50408.1	41.5778
50699.1	41.5586
50991.8	41.5398
51286.1	41.5212
51582.2	41.5029
51880	41.485
52179.5	41.4673
52480.7	41.4499
52783.7	41.4328
53088.4	41.416
53394.9	41.3994
53703.2	41.3832
54013.2	41.3672
54325	41.3515
54638.7	41.3361
54954.1	41.321
55271.3	41.3061
55590.4	41.2915
55911.4	41.2772
56234.1	41.2632
56558.8	41.2494
56885.3	41.2359
57213.7	41.2226
57544	41.2097
57876.2	41.1969
58210.3	41.1845
58546.4	41.1723
58884.4	41.1603
59224.3	41.1486
59566.2	41.1372
59910.1	41.126
60256	41.1151
60603.8	41.1044
60953.7	41.094
61305.6	41.0838
61659.5	41.0739
62015.5	41.0642
62373.5	41.0547
62733.6	41.0455
63095.7	41.0366
63460	41.0278
63826.3	41.0193
64194.8	41.0111
64565.4	41.0031
64938.2	40.9953
65313.1	40.9877
65690.1	40.9804
66069.3	40.9733
66450.8	40.9664
66834.4	40.9598
67220.2	40.9533
67608.3	40.9472
67998.6	40.9412
68391.2	40.9354
68786	40.9299
69183.1	40.9246
69582.5	40.9195
69984.2	40.9146
70388.2	40.9099
70794.6	40.9054
71203.3	40.9012
71614.3	40.8972
72027.8	40.8933
72443.6	40.8897
72861.8	40.8863
73282.5	40.8831
73705.5	40.8801
74131	40.8772
74559	40.8746
74989.4	40.8722
75422.3	40.87
75857.8	40.868
76295.7	40.8662
76736.1	40.8646
77179.2	40.8631
77624.7	40.8619
78072.8	40.8608
78523.6	40.86
78976.9	40.8593
79432.8	40.8588
79891.4	40.8585
80352.6	40.8584
80816.5	40.8585
81283.1	40.8587
81752.3	40.8592
82224.3	40.8598
82699	40.8606
83176.4	40.8615
83656.6	40.8627
84139.5	40.864
84625.3	40.8655
85113.8	40.8671
85605.2	40.869
86099.4	40.871
86596.4	40.8732
87096.4	40.8755
87599.2	40.878
88104.9	40.8807
88613.5	40.8835
89125.1	40.8865
89639.6	40.8897
90157.1	40.893
90677.6	40.8965
91201.1	40.9002
91727.6	40.904
92257.1	40.9079
92789.7	40.9121
93325.4	40.9163
93864.2	40.9208
94406.1	40.9253
94951.1	40.9301
95499.3	40.9349
96050.6	40.94
96605.1	40.9451
97162.8	40.9505
97723.7	40.9559
98287.9	40.9616
98855.3	40.9673
99426	40.9732
100000	40.9793
100577	40.9855
101158	40.9918
101742	40.9983
102329	41.0049
102920	41.0116
103514	41.0185
104112	41.0255
104713	41.0326
105317	41.0399
105925	41.0473
106537	41.0549
107152	41.0625
107771	41.0703
108393	41.0783
109018	41.0863
109648	41.0945
110281	41.1028
110917	41.1113
111558	41.1198
112202	41.1285
112850	41.1373
113501	41.1462
114156	41.1553
114815	41.1644
115478	41.1737
116145	41.1831
116815	41.1926
117490	41.2022
118168	41.212
118850	41.2218
119536	41.2318
120226	41.2419
120921	41.2521
121619	41.2624
122321	41.2728
123027	41.2833
123737	41.294
124451	41.3047
125170	41.3155
125893	41.3265
126619	41.3375
127350	41.3487
128086	41.3599
128825	41.3713
129569	41.3828
130317	41.3943
131069	41.406
131826	41.4177
132587	41.4296
133352	41.4415
134122	41.4536
134896	41.4657
135675	41.478
136458	41.4903
137246	41.5027
138038	41.5152
138835	41.5278
139637	41.5405
140443	41.5533
141254	41.5662
142069	41.5792
142889	41.5922
143714	41.6054
144544	41.6186
145378	41.6319
146218	41.6453
147062	41.6588
147911	41.6724
148765	41.686
149624	41.6998
150487	41.7136
151356	41.7275
152230	41.7414
153109	41.7555
153993	41.7696
154882	41.7838
155776	41.7981
156675	41.8125
157580	41.8269
158489	41.8414
159404	41.856
160325	41.8707
161250	41.8854
162181	41.9002
163117	41.9151
164059	41.9301
165006	41.9451
165959	41.9602
166917	41.9753
167880	41.9906
168850	42.0059
169824	42.0212
170805	42.0367
171791	42.0522
172783	42.0677
173780	42.0834
174783	42.0991
175792	42.1148
176807	42.1307
177828	42.1465
178855	42.1625
179887	42.1785
180926	42.1946
181970	42.2107
183021	42.2269
184077	42.2432
185140	42.2595
186209	42.2758
187284	42.2923
188365	42.3087
189452	42.3253
190546	42.3419
191646	42.3585
192752	42.3752
193865	42.392
194984	42.4088
196110	42.4257
197242	42.4426
198381	42.4596
199526	42.4766
200678	42.4937
201837	42.5108
203002	42.528
204174	42.5452
205353	42.5625
206538	42.5798
207730	42.5972
208930	42.6146
210136	42.6321
211349	42.6496
212569	42.6671
213796	42.6848
215030	42.7024
216272	42.7201
217520	42.7378
218776	42.7556
220039	42.7735
221309	42.7913
222587	42.8093
223872	42.8272
225165	42.8452
226464	42.8633
227772	42.8813
229087	42.8995
230409	42.9176
231739	42.9358
233077	42.9541
234423	42.9724
235776	42.9907
237137	43.009
238506	43.0274
239883	43.0459
241268	43.0643
242661	43.0828
244062	43.1014
245471	43.12
246888	43.1386
248313	43.1572
249747	43.1759
251189	43.1946
252639	43.2134
254097	43.2321
255564	43.251
257040	43.2698
258523	43.2887
260016	43.3076
261517	43.3265
263027	43.3455
264545	43.3645
266073	43.3835
267609	43.4026
269153	43.4217
270707	43.4408
272270	43.46
273842	43.4792
275423	43.4984
277013	43.5176
278612	43.5369
280221	43.5562
281838	43.5755
283465	43.5948
285102	43.6142
286748	43.6336
288403	43.653
290068	43.6725
291743	43.6919
293427	43.7114
295121	43.7309
296825	43.7505
298538	43.77
300262	43.7896
301995	43.8093
303739	43.8289
305492	43.8485
307256	43.8682
309030	43.8879
310814	43.9077
312608	43.9274
314413	43.9472
316228	43.967
318053	43.9868
319890	44.0066
321736	44.0264
323594	44.0463
325462	44.0662
327341	44.0861
329230	44.106
331131	44.126
333043	44.1459
334965	44.1659
336899	44.1859
338844	44.2059
340800	44.2259
342768	44.246
344747	44.2661
346737	44.2861
348739	44.3062
350752	44.3264
352777	44.3465
354813	44.3666
356862	44.3868
358922	44.407
360994	44.4271
363078	44.4474
365174	44.4676
367282	44.4878
369403	44.5081
371535	44.5283
373680	44.5486
375837	44.5689
378007	44.5892
380189	44.6095
382384	44.6298
384592	44.6501
386812	44.6705
389045	44.6908
391291	44.7112
393550	44.7316
395822	44.752
398107	44.7724
400405	44.7928
402717	44.8133
405042	44.8337
407380	44.8541
409732	44.8746
412098	44.8951
414477	44.9155
416869	44.936
419276	44.9565
421697	44.977
424131	44.9975
426580	45.0181
429042	45.0386
431519	45.0591
434010	45.0797
436516	45.1002
439036	45.1208
441570	45.1414
444120	45.162
446684	45.1825
449262	45.2031
451856	45.2237
454465	45.2443
457088	45.265
459727	45.2856
462381	45.3062
465050	45.3268
467735	45.3475
470435	45.3681
473151	45.3888
475883	45.4094
478630	45.4301
481393	45.4508
484172	45.4714
486968	45.4921
489779	45.5128
492606	45.5335
495450	45.5542
498310	45.5749
501187	45.5956
504081	45.6163
506991	45.637
509918	45.6577
512861	45.6784
515822	45.6991
518800	45.7199
521795	45.7406
524807	45.7613
527837	45.782
530884	45.8028
533949	45.8235
537032	45.8443
540132	45.865
543250	45.8857
546387	45.9065
549541	45.9272
552713	45.948
555904	45.9687
559114	45.9895
562341	46.0103
565588	46.031
568853	46.0518
572137	46.0725
575440	46.0933
578762	46.1141
582103	46.1348
585464	46.1556
588844	46.1764
592243	46.1971
595662	46.2179
599101	46.2387
602560	46.2594
606038	46.2802
609537	46.301
613056	46.3217
616595	46.3425
620155	46.3633
623735	46.3841
627336	46.4048
630957	46.4256
634600	46.4464
638263	46.4671
641948	46.4879
645654	46.5087
649382	46.5294
653131	46.5502
656901	46.571
660693	46.5917
664508	46.6125
668344	46.6332
672202	46.654
676083	46.6747
679986	46.6955
683912	46.7163
687860	46.737
691831	46.7578
695825	46.7785
699842	46.7992
703882	46.82
707946	46.8407
712033	46.8615
716143	46.8822
720278	46.9029
724436	46.9237
728618	46.9444
732825	46.9651
737055	46.9859
741310	47.0066
745590	47.0273
749894	47.048
754223	47.0687
758578	47.0894
762957	47.1101
767361	47.1308
771792	47.1515
776247	47.1722
780728	47.1929
785236	47.2136
789769	47.2343
794328	47.255
798914	47.2757
803526	47.2963
808165	47.317
812831	47.3377
817523	47.3584
822243	47.379
826990	47.3997
831764	47.4203
836566	47.441
841395	47.4616
846253	47.4823
851138	47.5029
856052	47.5235
860994	47.5442
865964	47.5648
870964	47.5854
875992	47.606
881049	47.6266
886135	47.6472
891251	47.6678
896396	47.6884
901571	47.709
906776	47.7296
912011	47.7502
917276	47.7707
922571	47.7913
927897	47.8119
933254	47.8324
938642	47.853
944061	47.8736
949511	47.8941
954993	47.9146
960506	47.9352
966051	47.9557
971628	47.9762
977237	47.9967
982879	48.0173
988553	48.0378
994260	48.0583
1e+06	48.0788
1.00577e+06	48.0993
1.01158e+06	48.1197
1.01742e+06	48.1402
1.02329e+06	48.1607
1.0292e+06	48.1812
1.03514e+06	48.2016
1.04112e+06	48.2221
1.04713e+06	48.2425
1.05317e+06	48.263
1.05925e+06	48.2834
1.06537e+06	48.3039
1.07152e+06	48.3243
1.07771e+06	48.3447
1.08393e+06	48.3651
1.09018e+06	48.3855
1.09648e+06	48.4059
1.10281e+06	48.4263
1.10917e+06	48.4467
1.11558e+06	48.4671
1.12202e+06	48.4875
1.1285e+06	48.5078
1.13501e+06	48.5282
1.14156e+06	48.5486
1.14815e+06	48.5689
1.15478e+06	48.5893
1.16145e+06	48.6096
1.16815e+06	48.6299
1.1749e+06	48.6503
1.18168e+06	48.6706
1.1885e+06	48.6909
1.19536e+06	48.7112
1.20226e+06	48.7315
1.20921e+06	48.7518
1.21619e+06	48.7721
1.22321e+06	48.7924
1.23027e+06	48.8126
1.23737e+06	48.8329
1.24451e+06	48.8532
1.2517e+06	48.8734
1.25893e+06	48.8936
1.26619e+06	48.9139
1.2735e+06	48.9341
1.28086e+06	48.9543
1.28825e+06	48.9746
1.29569e+06	48.9948
1.30317e+06	49.015
1.31069e+06	49.0352
1.31826e+06	49.0554
1.32587e+06	49.0755
1.33352e+06	49.0957
1.34122e+06	49.1159
1.34896e+06	49.136
1.35675e+06	49.1562
1.36458e+06	49.1763
1.37246e+06	49.1965
1.38038e+06	49.2166
1.38835e+06	49.2367
1.39637e+06	49.2569
1.40443e+06	49.277
1.41254e+06	49.2971
1.42069e+06	49.3172
1.42889e+06	49.3373
1.43714e+06	49.3573
1.44544e+06	49.3774
1.45378e+06	49.3975
1.46218e+06	49.4175
1.47062e+06	49.4376
1.47911e+06	49.4576
1.48765e+06	49.4777
1.49624e+06	49.4977
1.50487e+06	49.5177
1.51356e+06	49.5377
1.5223e+06	49.5577
1.53109e+06	49.5777
1.53993e+06	49.5977
1.54882e+06	49.6177
1.55776e+06	49.6377
1.56675e+06	49.6577
1.5758e+06	49.6776
1.58489e+06	49.6976
1.59404e+06	49.7175
1.60325e+06	49.7374
1.6125e+06	49.7574
1.62181e+06	49.7773
1.63117e+06	49.7972
1.64059e+06	49.8171
1.65006e+06	49.837
1.65959e+06	49.8569
1.66917e+06	49.8768
1.6788e+06	49.8967
1.6885e+06	49.9165
1.69824e+06	49.9364
1.70805e+06	49.9562
1.71791e+06	49.9761
1.72783e+06	49.9959
1.7378e+06	50.0158
1.74783e+06	50.0356
1.75792e+06	50.0554
1.76807e+06	50.0752
1.77828e+06	50.095
1.78855e+06	50.1148
1.79887e+06	50.1346
1.80926e+06	50.1543
1.8197e+06	50.1741
1.83021e+06	50.1938
1.84077e+06	50.2136
1.8514e+06	50.2333
1.86209e+06	50.2531
1.87284e+06	50.2728
1.88365e+06	50.2925
1.89452e+06	50.3122
1.90546e+06	50.3319
1.91646e+06	50.3516
1.92752e+06	50.3713
1.93865e+06	50.391
1.94984e+06	50.4106
1.9611e+06	50.4303
1.97242e+06	50.4499
1.98381e+06	50.4696
1.99526e+06	50.4892
2.00678e+06	50.5088
2.01837e+06	50.5285
2.03002e+06	50.5481
2.04174e+06	50.5677
2.05353e+06	50.5873
2.06538e+06	50.6069
2.0773e+06	50.6264
2.0893e+06	50.646
2.10136e+06	50.6656
2.11349e+06	50.6851
2.12569e+06	50.7047
2.13796e+06	50.7242
2.1503e+06	50.7437
2.16272e+06	50.7632
2.1752e+06	50.7828
2.18776e+06	50.8023
2.20039e+06	50.8218
2.21309e+06	50.8412
2.22587e+06	50.8607
2.23872e+06	50.8802
2.25165e+06	50.8996
2.26464e+06	50.9191
2.27772e+06	50.9385
2.29087e+06	50.958
2.30409e+06	50.9774
2.31739e+06	50.9968
2.33077e+06	51.0162
2.34423e+06	51.0356
2.35776e+06	51.055
2.37137e+06	51.0744
2.38506e+06	51.0938
2.39883e+06	51.1132
2.41268e+06	51.1325
2.42661e+06	51.1519
2.44062e+06	51.1712
2.45471e+06	51.1905
2.46888e+06	51.2099
2.48313e+06	51.2292
2.49747e+06	51.2485
2.51189e+06	51.2678
2.52639e+06	51.2871
2.54097e+06	51.3064
2.55564e+06	51.3256
2.5704e+06	51.3449
2.58523e+06	51.3642
2.60016e+06	51.3834
2.61517e+06	51.4027
2.63027e+06	51.4219
2.64545e+06	51.4411
2.66073e+06	51.4603
2.67609e+06	51.4795
2.69153e+06	51.4987
2.70707e+06	51.5179
2.7227e+06	51.5371
2.73842e+06	51.5563
2.75423e+06	51.5754
2.77013e+06	51.5946
2.78612e+06	51.6137
2.80221e+06	51.6329
2.81838e+06	51.652
2.83465e+06	51.6711
2.85102e+06	51.6902
2.86748e+06	51.7093
2.88403e+06	51.7284
2.90068e+06	51.7475
2.91743e+06	51.7666
2.93427e+06	51.7857
2.95121e+06	51.8047
2.96825e+06	51.8238
2.98538e+06	51.8428
3.00262e+06	51.8618
3.01995e+06	51.8809
3.03739e+06	51.8999
3.05492e+06	51.9189
3.07256e+06	51.9379
3.0903e+06	51.9569
3.10814e+06	51.9758
3.12608e+06	51.9948
3.14413e+06	52.0138
3.16228e+06	52.0327
3.18053e+06	52.0517
3.1989e+06	52.0706
3.21736e+06	52.0895
3.23594e+06	52.1085
3.25462e+06	52.1274
3.27341e+06	52.1463
3.2923e+06	52.1652
3.31131e+06	52.184
3.33043e+06	52.2029
3.34965e+06	52.2218
3.36899e+06	52.2406
3.38844e+06	52.2595
3.408e+06	52.2783
3.42768e+06	52.2972
3.44747e+06	52.316
3.46737e+06	52.3348
3.48739e+06	52.3536
3.50752e+06	52.3724
3.52777e+06	52.3912
3.54813e+06	52.41
3.56862e+06	52.4287
3.58922e+06	52.4475
3.60994e+06	52.4662
3.63078e+06	52.485
3.65174e+06	52.5037
3.67282e+06	52.5224
3.69403e+06	52.5411
3.71535e+06	52.5598
3.7368e+06	52.5785
3.75837e+06	52.5972
3.78007e+06	52.6159
3.80189e+06	52.6346
3.82384e+06	52.6532
3.84592e+06	52.6719
3.86812e+06	52.6905
3.89045e+06	52.7092
3.91291e+06	52.7278
3.9355e+06	52.7464
3.95822e+06	52.765
3.98107e+06	52.7836
4.00405e+06	52.8022
4.02717e+06	52.8208
4.05042e+06	52.8393
4.0738e+06	52.8579
4.09732e+06	52.8764
4.12098e+06	52.895
4.14477e+06	52.9135
4.16869e+06	52.932
4.19276e+06	52.9506
4.21697e+06	52.9691
4.24131e+06	52.9876
4.2658e+06	53.0061
4.29042e+06	53.0245
4.31519e+06	53.043
4.3401e+06	53.0615
4.36516e+06	53.0799
4.39036e+06	53.0984
4.4157e+06	53.1168
4.4412e+06	53.1352
4.46684e+06	53.1536
4.49262e+06	53.172
4.51856e+06	53.1904
4.54465e+06	53.2088
4.57088e+06	53.2272
4.59727e+06	53.2456
4.62381e+06	53.2639
4.6505e+06	53.2823
4.67735e+06	53.3006
4.70435e+06	53.3189
4.73151e+06	53.3373
4.75883e+06	53.3556
4.7863e+06	53.3739
4.81393e+06	53.3922
4.84172e+06	53.4105
4.86968e+06	53.4287
4.89779e+06	53.447
4.92606e+06	53.4653
4.9545e+06	53.4835
4.9831e+06	53.5017
5.01187e+06	53.52
5.04081e+06	53.5382
5.06991e+06	53.5564
5.09918e+06	53.5746
5.12861e+06	53.5928
5.15822e+06	53.611
5.188e+06	53.6292
5.21795e+06	53.6473
5.24807e+06	53.6655
5.27837e+06	53.6836
5.30884e+06	53.7018
5.33949e+06	53.7199
5.37032e+06	53.738
5.40132e+06	53.7561
5.4325e+06	53.7742
5.46387e+06	53.7923
5.49541e+06	53.8104
5.52713e+06	53.8284
5.55904e+06	53.8465
5.59114e+06	53.8646
5.62341e+06	53.8826
5.65588e+06	53.9006
5.68853e+06	53.9187
5.72137e+06	53.9367
5.7544e+06	53.9547
5.78762e+06	53.9727
5.82103e+06	53.9906
5.85464e+06	54.0086
5.88844e+06	54.0266
5.92243e+06	54.0445
5.95662e+06	54.0625
5.99101e+06	54.0804
6.0256e+06	54.0984
6.06038e+06	54.1163
6.09537e+06	54.1342
6.13056e+06	54.1521
6.16595e+06	54.17
6.20155e+06	54.1879
6.23735e+06	54.2057
6.27336e+06	54.2236
6.30957e+06	54.2414
6.346e+06	54.2593
6.38263e+06	54.2771
6.41948e+06	54.2949
6.45654e+06	54.3127
6.49382e+06	54.3305
6.53131e+06	54.3483
6.56901e+06	54.3661
6.60693e+06	54.3839
6.64508e+06	54.4017
6.68344e+06	54.4194
6.72202e+06	54.4372
6.76083e+06	54.4549
6.79986e+06	54.4726
6.83912e+06	54.4903
6.8786e+06	54.508
6.91831e+06	54.5257
6.95825e+06	54.5434
6.99842e+06	54.5611
7.03882e+06	54.5788
7.07946e+06	54.5964
7.12033e+06	54.6141
7.16143e+06	54.6317
7.20278e+06	54.6493
7.24436e+06	54.6669
7.28618e+06	54.6846
7.32825e+06	54.7022
7.37055e+06	54.7197
7.4131e+06	54.7373
7.4559e+06	54.7549
7.49894e+06	54.7724
7.54223e+06	54.79
7.58578e+06	54.8075
7.62957e+06	54.8251
7.67361e+06	54.8426
7.71792e+06	54.8601
7.76247e+06	54.8776
7.80728e+06	54.8951
7.85236e+06	54.9126
7.89769e+06	54.93
7.94328e+06	54.9475
7.98914e+06	54.9649
8.03526e+06	54.9824
8.08165e+06	54.9998
8.12831e+06	55.0172
8.17523e+06	55.0346
8.22243e+06	55.052
8.2699e+06	55.0694
8.31764e+06	55.0868
8.36566e+06	55.1042
8.41395e+06	55.1215
8.46253e+06	55.1389
8.51138e+06	55.1562
8.56052e+06	55.1736
8.60994e+06	55.1909
8.65964e+06	55.2082
8.70964e+06	55.2255
8.75992e+06	55.2428
8.81049e+06	55.2601
8.86135e+06	55.2773
8.91251e+06	55.2946
8.96396e+06	55.3118
9.01571e+06	55.3291
9.06776e+06	55.3463
9.12011e+06	55.3635
9.17276e+06	55.3807
9.22571e+06	55.3979
9.27897e+06	55.4151
9.33254e+06	55.4323
9.38642e+06	55.4495
9.44061e+06	55.4666
9.49511e+06	55.4838
9.54993e+06	55.5009
9.60506e+06	55.518
9.66051e+06	55.5351
9.71628e+06	55.5522
9.77237e+06	55.5693
9.82879e+06	55.5864
9.88553e+06	55.6035
9.9426e+06	55.6206
1e+07	55.6376
