Stopping power dEdx from Ionisation for Ti48[0.0] Z = 22 in G4_TISSUE_SOFT_ICRP, process name: ionIoni
E [MeV]	dEdx [MeV/mm]
0.001	65.0201
0.00100577	65.2075
0.00101158	65.3955
0.00101742	65.584
0.00102329	65.773
0.0010292	65.9626
0.00103514	66.1527
0.00104112	66.3434
0.00104713	66.5346
0.00105317	66.7264
0.00105925	66.9188
0.00106537	67.1116
0.00107152	67.3051
0.00107771	67.4991
0.00108393	67.6936
0.00109018	67.8888
0.00109648	68.0844
0.00110281	68.2807
0.00110917	68.4775
0.00111558	68.6749
0.00112202	68.8728
0.0011285	69.0713
0.00113501	69.2704
0.00114156	69.4701
0.00114815	69.6703
0.00115478	69.8711
0.00116145	70.0725
0.00116815	70.2745
0.0011749	70.4771
0.00118168	70.6802
0.0011885	70.8839
0.00119536	71.0883
0.00120226	71.2932
0.00120921	71.4986
0.00121619	71.7047
0.00122321	71.9114
0.00123027	72.1187
0.00123737	72.3266
0.00124451	72.535
0.0012517	72.7441
0.00125893	72.9538
0.00126619	73.1641
0.0012735	73.375
0.00128086	73.5864
0.00128825	73.7985
0.00129569	74.0113
0.00130317	74.2246
0.00131069	74.4385
0.00131826	74.6531
0.00132587	74.8683
0.00133352	75.0841
0.00134122	75.3005
0.00134896	75.5175
0.00135675	75.7352
0.00136458	75.9535
0.00137246	76.1724
0.00138038	76.392
0.00138835	76.6122
0.00139637	76.833
0.00140443	77.0545
0.00141254	77.2766
0.00142069	77.4993
0.00142889	77.7227
0.00143714	77.9467
0.00144544	78.1714
0.00145378	78.3967
0.00146218	78.6227
0.00147062	78.8493
0.00147911	79.0766
0.00148765	79.3045
0.00149624	79.5331
0.00150487	79.7623
0.00151356	79.9922
0.0015223	80.2228
0.00153109	80.454
0.00153993	80.6859
0.00154882	80.9185
0.00155776	81.1517
0.00156675	81.3856
0.0015758	81.6202
0.00158489	81.8555
0.00159404	82.0914
0.00160325	82.328
0.0016125	82.5654
0.00162181	82.8033
0.00163117	83.042
0.00164059	83.2814
0.00165006	83.5214
0.00165959	83.7622
0.00166917	84.0036
0.0016788	84.2457
0.0016885	84.4885
0.00169824	84.7321
0.00170805	84.9763
0.00171791	85.2212
0.00172783	85.4669
0.0017378	85.7132
0.00174783	85.9603
0.00175792	86.2081
0.00176807	86.4565
0.00177828	86.7057
0.00178855	86.9557
0.00179887	87.2063
0.00180926	87.4577
0.0018197	87.7097
0.00183021	87.9626
0.00184077	88.2161
0.0018514	88.4704
0.00186209	88.7254
0.00187284	88.9811
0.00188365	89.2376
0.00189452	89.4948
0.00190546	89.7528
0.00191646	90.0115
0.00192752	90.2709
0.00193865	90.5311
0.00194984	90.7921
0.0019611	91.0537
0.00197242	91.3162
0.00198381	91.5794
0.00199526	91.8434
0.00200678	92.1081
0.00201837	92.3736
0.00203002	92.6398
0.00204174	92.9069
0.00205353	93.1747
0.00206538	93.4432
0.0020773	93.7126
0.0020893	93.9827
0.00210136	94.2536
0.00211349	94.5252
0.00212569	94.7977
0.00213796	95.0709
0.0021503	95.345
0.00216272	95.6198
0.0021752	95.8954
0.00218776	96.1718
0.00220039	96.449
0.00221309	96.727
0.00222587	97.0058
0.00223872	97.2854
0.00225165	97.5658
0.00226464	97.8471
0.00227772	98.1291
0.00229087	98.4119
0.00230409	98.6956
0.00231739	98.9801
0.00233077	99.2654
0.00234423	99.5515
0.00235776	99.8384
0.00237137	100.126
0.00238506	100.415
0.00239883	100.704
0.00241268	100.995
0.00242661	101.286
0.00244062	101.578
0.00245471	101.87
0.00246888	102.164
0.00248313	102.458
0.00249747	102.754
0.00251189	103.05
0.00252639	103.347
0.00254097	103.645
0.00255564	103.944
0.0025704	104.243
0.00258523	104.544
0.00260016	104.845
0.00261517	105.147
0.00263027	105.45
0.00264545	105.754
0.00266073	106.059
0.00267609	106.365
0.00269153	106.671
0.00270707	106.979
0.0027227	107.287
0.00273842	107.596
0.00275423	107.907
0.00277013	108.218
0.00278612	108.53
0.00280221	108.842
0.00281838	109.156
0.00283465	109.471
0.00285102	109.786
0.00286748	110.103
0.00288403	110.42
0.00290068	110.738
0.00291743	111.057
0.00293427	111.378
0.00295121	111.699
0.00296825	112.021
0.00298538	112.343
0.00300262	112.667
0.00301995	112.992
0.00303739	113.318
0.00305492	113.644
0.00307256	113.972
0.0030903	114.3
0.00310814	114.63
0.00312608	114.96
0.00314413	115.292
0.00316228	115.624
0.00318053	115.957
0.0031989	116.291
0.00321736	116.627
0.00323594	116.963
0.00325462	117.3
0.00327341	117.638
0.0032923	117.977
0.00331131	118.317
0.00333043	118.658
0.00334965	119
0.00336899	119.343
0.00338844	119.687
0.003408	120.032
0.00342768	120.378
0.00344747	120.725
0.00346737	121.073
0.00348739	121.422
0.00350752	121.772
0.00352777	122.123
0.00354813	122.475
0.00356862	122.828
0.00358922	123.182
0.00360994	123.537
0.00363078	123.893
0.00365174	124.25
0.00367282	124.609
0.00369403	124.968
0.00371535	125.328
0.0037368	125.689
0.00375837	126.051
0.00378007	126.415
0.00380189	126.779
0.00382384	127.145
0.00384592	127.511
0.00386812	127.879
0.00389045	128.247
0.00391291	128.617
0.0039355	128.988
0.00395822	129.359
0.00398107	129.732
0.00400405	130.106
0.00402717	130.481
0.00405042	130.857
0.0040738	131.234
0.00409732	131.613
0.00412098	131.992
0.00414477	132.373
0.00416869	132.754
0.00419276	133.137
0.00421697	133.52
0.00424131	133.905
0.0042658	134.291
0.00429042	134.678
0.00431519	135.067
0.0043401	135.456
0.00436516	135.846
0.00439036	136.238
0.0044157	136.631
0.0044412	137.024
0.00446684	137.419
0.00449262	137.815
0.00451856	138.213
0.00454465	138.611
0.00457088	139.011
0.00459727	139.411
0.00462381	139.813
0.0046505	140.216
0.00467735	140.62
0.00470435	141.026
0.00473151	141.432
0.00475883	141.84
0.0047863	142.249
0.00481393	142.659
0.00484172	143.07
0.00486968	143.482
0.00489779	143.896
0.00492606	144.31
0.0049545	144.726
0.0049831	145.144
0.00501187	145.562
0.00504081	145.982
0.00506991	146.402
0.00509918	146.824
0.00512861	147.247
0.00515822	147.672
0.005188	148.098
0.00521795	148.524
0.00524807	148.953
0.00527837	149.382
0.00530884	149.812
0.00533949	150.244
0.00537032	150.677
0.00540132	151.112
0.0054325	151.547
0.00546387	151.984
0.00549541	152.422
0.00552713	152.861
0.00555904	153.302
0.00559114	153.744
0.00562341	154.187
0.00565588	154.631
0.00568853	155.077
0.00572137	155.524
0.0057544	155.972
0.00578762	156.422
0.00582103	156.873
0.00585464	157.325
0.00588844	157.779
0.00592243	158.233
0.00595662	158.689
0.00599101	159.147
0.0060256	159.605
0.00606038	160.066
0.00609537	160.527
0.00613056	160.99
0.00616595	161.454
0.00620155	161.919
0.00623735	162.386
0.00627336	162.854
0.00630957	163.323
0.006346	163.794
0.00638263	164.266
0.00641948	164.74
0.00645654	165.214
0.00649382	165.691
0.00653131	166.168
0.00656901	166.647
0.00660693	167.127
0.00664508	167.609
0.00668344	168.092
0.00672202	168.577
0.00676083	169.063
0.00679986	169.55
0.00683912	170.039
0.0068786	170.529
0.00691831	171.02
0.00695825	171.513
0.00699842	172.008
0.00703882	172.503
0.00707946	173.001
0.00712033	173.499
0.00716143	173.999
0.00720278	174.501
0.00724436	175.004
0.00728618	175.508
0.00732825	176.014
0.00737055	176.522
0.0074131	177.03
0.0074559	177.541
0.00749894	178.052
0.00754223	178.566
0.00758578	179.08
0.00762957	179.596
0.00767361	180.114
0.00771792	180.633
0.00776247	181.154
0.00780728	181.676
0.00785236	182.2
0.00789769	182.725
0.00794328	183.252
0.00798914	183.78
0.00803526	184.31
0.00808165	184.841
0.00812831	185.374
0.00817523	185.908
0.00822243	186.444
0.0082699	186.981
0.00831764	187.52
0.00836566	188.061
0.00841395	188.603
0.00846253	189.146
0.00851138	189.691
0.00856052	190.238
0.00860994	190.787
0.00865964	191.337
0.00870964	191.888
0.00875992	192.441
0.00881049	192.996
0.00886135	193.552
0.00891251	194.11
0.00896396	194.669
0.00901571	195.231
0.00906776	195.793
0.00912011	196.358
0.00917276	196.924
0.00922571	197.491
0.00927897	198.06
0.00933254	198.631
0.00938642	199.204
0.00944061	199.778
0.00949511	200.354
0.00954993	200.931
0.00960506	201.511
0.00966051	202.091
0.00971628	202.674
0.00977237	203.258
0.00982879	203.844
0.00988553	204.432
0.0099426	205.021
0.01	205.612
0.0100577	206.204
0.0101158	206.799
0.0101742	207.395
0.0102329	207.993
0.010292	208.592
0.0103514	209.193
0.0104112	209.796
0.0104713	210.401
0.0105317	211.007
0.0105925	211.616
0.0106537	212.226
0.0107152	212.837
0.0107771	213.451
0.0108393	214.066
0.0109018	214.683
0.0109648	215.302
0.0110281	215.922
0.0110917	216.545
0.0111558	217.169
0.0112202	217.795
0.011285	218.423
0.0113501	219.052
0.0114156	219.684
0.0114815	220.317
0.0115478	220.952
0.0116145	221.589
0.0116815	222.228
0.011749	222.868
0.0118168	223.51
0.011885	224.155
0.0119536	224.801
0.0120226	225.439
0.0120921	226.073
0.0121619	226.709
0.0122321	227.347
0.0123027	227.986
0.0123737	228.628
0.0124451	229.271
0.012517	229.916
0.0125893	230.563
0.0126619	231.212
0.012735	231.863
0.0128086	232.515
0.0128825	233.17
0.0129569	233.826
0.0130317	234.484
0.0131069	235.144
0.0131826	235.807
0.0132587	236.47
0.0133352	237.136
0.0134122	237.804
0.0134896	238.474
0.0135675	239.145
0.0136458	239.819
0.0137246	240.494
0.0138038	241.172
0.0138835	241.851
0.0139637	242.533
0.0140443	243.216
0.0141254	243.901
0.0142069	244.589
0.0142889	245.278
0.0143714	245.969
0.0144544	246.662
0.0145378	247.358
0.0146218	248.055
0.0147062	248.754
0.0147911	249.455
0.0148765	250.159
0.0149624	250.864
0.0150487	251.571
0.0151356	252.281
0.015223	252.992
0.0153109	253.706
0.0153993	254.421
0.0154882	255.139
0.0155776	255.859
0.0156675	256.58
0.015758	257.304
0.0158489	258.03
0.0159404	258.758
0.0160325	259.488
0.016125	260.221
0.0162181	260.955
0.0163117	261.691
0.0164059	262.43
0.0165006	263.171
0.0165959	263.914
0.0166917	264.659
0.016788	265.406
0.016885	266.155
0.0169824	266.907
0.0170805	267.66
0.0171791	268.416
0.0172783	269.174
0.017378	269.935
0.0174783	270.697
0.0175792	271.462
0.0176807	272.229
0.0177828	272.998
0.0178855	273.769
0.0179887	274.542
0.0180926	275.318
0.018197	276.096
0.0183021	276.876
0.0184077	277.659
0.018514	278.444
0.0186209	279.231
0.0187284	280.02
0.0188365	280.812
0.0189452	281.606
0.0190546	282.402
0.0191646	283.2
0.0192752	284.001
0.0193865	284.804
0.0194984	285.61
0.019611	286.417
0.0197242	287.228
0.0198381	288.04
0.0199526	288.855
0.0200678	289.672
0.0201837	290.492
0.0203002	291.314
0.0204174	292.138
0.0205353	292.965
0.0206538	293.794
0.020773	294.625
0.020893	295.459
0.0210136	296.295
0.0211349	297.134
0.0212569	297.975
0.0213796	298.819
0.021503	299.665
0.0216272	300.513
0.021752	301.364
0.0218776	302.218
0.0220039	303.074
0.0221309	303.932
0.0222587	304.793
0.0223872	305.656
0.0225165	306.522
0.0226464	307.391
0.0227772	308.262
0.0229087	309.135
0.0230409	310.011
0.0231739	310.889
0.0233077	311.771
0.0234423	312.654
0.0235776	313.54
0.0237137	314.429
0.0238506	315.32
0.0239883	316.214
0.0241268	317.111
0.0242661	318.01
0.0244062	318.912
0.0245471	319.816
0.0246888	320.723
0.0248313	321.633
0.0249747	322.545
0.0251189	323.46
0.0252639	324.377
0.0254097	325.298
0.0255564	326.22
0.025704	327.146
0.0258523	328.074
0.0260016	329.005
0.0261517	329.939
0.0263027	330.875
0.0264545	331.814
0.0266073	332.756
0.0267609	333.701
0.0269153	334.648
0.0270707	335.598
0.027227	336.551
0.0273842	337.507
0.0275423	338.465
0.0277013	339.426
0.0278612	340.39
0.0280221	341.357
0.0281838	342.326
0.0283465	343.299
0.0285102	344.274
0.0286748	345.252
0.0288403	346.233
0.0290068	347.217
0.0291743	348.203
0.0293427	349.193
0.0295121	350.185
0.0296825	351.181
0.0298538	352.179
0.0300262	353.18
0.0301995	354.184
0.0303739	355.191
0.0305492	356.201
0.0307256	357.213
0.030903	358.229
0.0310814	359.248
0.0312608	360.269
0.0314413	361.294
0.0316228	362.322
0.0318053	363.352
0.031989	364.386
0.0321736	365.423
0.0323594	366.462
0.0325462	367.505
0.0327341	368.551
0.032923	369.599
0.0331131	370.651
0.0333043	371.706
0.0334965	372.764
0.0336899	373.825
0.0338844	374.889
0.03408	375.957
0.0342768	377.027
0.0344747	378.1
0.0346737	379.177
0.0348739	380.257
0.0350752	381.34
0.0352777	382.426
0.0354813	383.515
0.0356862	384.607
0.0358922	385.703
0.0360994	386.802
0.0363078	387.904
0.0365174	389.009
0.0367282	390.117
0.0369403	391.229
0.0371535	392.344
0.037368	393.462
0.0375837	394.584
0.0378007	395.708
0.0380189	396.836
0.0382384	397.967
0.0384592	399.102
0.0386812	400.24
0.0389045	401.381
0.0391291	402.526
0.039355	403.674
0.0395822	404.825
0.0398107	405.98
0.0400405	407.138
0.0402717	408.299
0.0405042	409.464
0.040738	410.632
0.0409732	411.804
0.0412098	412.979
0.0414477	414.157
0.0416869	415.339
0.0419276	416.524
0.0421697	417.713
0.0424131	418.905
0.042658	420.101
0.0429042	421.3
0.0431519	422.503
0.043401	423.709
0.0436516	424.919
0.0439036	426.133
0.044157	427.35
0.044412	428.57
0.0446684	429.794
0.0449262	431.022
0.0451856	432.253
0.0454465	433.488
0.0457088	434.726
0.0459727	435.968
0.0462381	437.214
0.046505	438.463
0.0467735	439.716
0.0470435	440.973
0.0473151	442.233
0.0475883	443.498
0.047863	444.765
0.0481393	445.317
0.0484172	445.614
0.0486968	445.914
0.0489779	446.217
0.0492606	446.524
0.049545	446.833
0.049831	447.145
0.0501187	447.461
0.0504081	447.779
0.0506991	448.1
0.0509918	448.424
0.0512861	448.751
0.0515822	449.081
0.05188	449.413
0.0521795	449.748
0.0524807	450.086
0.0527837	450.426
0.0530884	450.769
0.0533949	451.115
0.0537032	451.463
0.0540132	451.813
0.054325	452.166
0.0546387	452.522
0.0549541	452.88
0.0552713	453.24
0.0555904	453.603
0.0559114	453.968
0.0562341	454.335
0.0565588	454.705
0.0568853	455.077
0.0572137	455.451
0.057544	455.827
0.0578762	456.206
0.0582103	456.586
0.0585464	456.969
0.0588844	457.354
0.0592243	457.741
0.0595662	458.13
0.0599101	458.521
0.060256	458.914
0.0606038	459.309
0.0609537	459.706
0.0613056	460.105
0.0616595	460.506
0.0620155	460.909
0.0623735	461.314
0.0627336	461.72
0.0630957	462.129
0.06346	462.539
0.0638263	462.951
0.0641948	463.366
0.0645654	463.781
0.0649382	464.199
0.0653131	464.618
0.0656901	465.04
0.0660693	465.463
0.0664508	465.887
0.0668344	466.314
0.0672202	466.742
0.0676083	467.172
0.0679986	467.603
0.0683912	468.037
0.068786	468.472
0.0691831	468.908
0.0695825	469.346
0.0699842	469.786
0.0703882	470.228
0.0707946	470.671
0.0712033	471.116
0.0716143	471.562
0.0720278	472.01
0.0724436	472.459
0.0728618	472.911
0.0732825	473.363
0.0737055	473.818
0.074131	474.273
0.074559	474.731
0.0749894	475.19
0.0754223	475.65
0.0758578	476.112
0.0762957	476.576
0.0767361	477.041
0.0771792	477.508
0.0776247	477.976
0.0780728	478.446
0.0785236	478.917
0.0789769	479.39
0.0794328	479.864
0.0798914	480.34
0.0803526	480.817
0.0808165	481.296
0.0812831	481.776
0.0817523	482.258
0.0822243	482.742
0.082699	483.226
0.0831764	483.713
0.0836566	484.201
0.0841395	484.69
0.0846253	485.181
0.0851138	485.673
0.0856052	486.167
0.0860994	486.663
0.0865964	487.16
0.0870964	487.658
0.0875992	488.158
0.0881049	488.66
0.0886135	489.163
0.0891251	489.667
0.0896396	490.173
0.0901571	490.681
0.0906776	491.19
0.0912011	491.701
0.0917276	492.213
0.0922571	492.727
0.0927897	493.242
0.0933254	493.759
0.0938642	494.277
0.0944061	494.797
0.0949511	495.319
0.0954993	495.842
0.0960506	496.367
0.0966051	496.893
0.0971628	497.421
0.0977237	497.95
0.0982879	498.481
0.0988553	499.014
0.099426	499.548
0.1	500.084
0.100577	500.622
0.101158	501.161
0.101742	501.701
0.102329	502.244
0.10292	502.788
0.103514	503.333
0.104112	503.881
0.104713	504.43
0.105317	504.981
0.105925	505.533
0.106537	506.087
0.107152	506.643
0.107771	507.2
0.108393	507.759
0.109018	508.32
0.109648	508.883
0.110281	509.447
0.110917	510.014
0.111558	510.581
0.112202	511.151
0.11285	511.723
0.113501	512.296
0.114156	512.871
0.114815	513.448
0.115478	514.026
0.116145	514.607
0.116815	515.189
0.11749	515.773
0.118168	516.359
0.11885	516.947
0.119536	517.537
0.120226	518.129
0.120921	518.722
0.121619	519.318
0.122321	519.915
0.123027	520.514
0.123737	521.116
0.124451	521.719
0.12517	522.324
0.125893	522.931
0.126619	523.54
0.12735	524.151
0.128086	524.764
0.128825	525.38
0.129569	525.997
0.130317	526.616
0.131069	527.237
0.131826	527.86
0.132587	528.486
0.133352	529.113
0.134122	529.743
0.134896	530.374
0.135675	531.008
0.136458	531.644
0.137246	532.282
0.138038	532.923
0.138835	533.565
0.139637	534.21
0.140443	534.856
0.141254	535.505
0.142069	536.156
0.142889	536.81
0.143714	537.466
0.144544	538.124
0.145378	538.784
0.146218	539.446
0.147062	540.111
0.147911	540.778
0.148765	541.448
0.149624	542.119
0.150487	542.793
0.151356	543.47
0.15223	544.149
0.153109	544.83
0.153993	545.514
0.154882	546.2
0.155776	546.888
0.156675	547.579
0.15758	548.272
0.158489	548.968
0.159404	549.667
0.160325	550.367
0.16125	551.071
0.162181	551.777
0.163117	552.485
0.164059	553.196
0.165006	553.909
0.165959	554.625
0.166917	555.344
0.16788	556.065
0.16885	556.789
0.169824	557.516
0.170805	558.245
0.171791	558.976
0.172783	559.711
0.17378	560.448
0.174783	561.188
0.175792	561.93
0.176807	562.676
0.177828	563.424
0.178855	564.174
0.179887	564.928
0.180926	565.684
0.18197	566.443
0.183021	567.205
0.184077	567.97
0.18514	568.737
0.186209	569.508
0.187284	570.281
0.188365	571.057
0.189452	571.836
0.190546	572.618
0.191646	573.403
0.192752	574.191
0.193865	574.982
0.194984	575.776
0.19611	576.572
0.197242	577.372
0.198381	578.175
0.199526	578.98
0.200678	579.789
0.201837	580.601
0.203002	581.416
0.204174	582.234
0.205353	583.055
0.206538	583.879
0.20773	584.706
0.20893	585.536
0.210136	586.37
0.211349	587.207
0.212569	588.047
0.213796	588.89
0.21503	589.736
0.216272	590.585
0.21752	591.438
0.218776	592.294
0.220039	593.153
0.221309	594.016
0.222587	594.881
0.223872	595.751
0.225165	596.623
0.226464	597.499
0.227772	598.378
0.229087	599.26
0.230409	600.146
0.231739	601.035
0.233077	601.928
0.234423	602.824
0.235776	603.723
0.237137	604.626
0.238506	605.532
0.239883	606.442
0.241268	607.356
0.242661	608.272
0.244062	609.193
0.245471	610.116
0.246888	611.044
0.248313	611.975
0.249747	612.909
0.251189	613.847
0.252639	614.789
0.254097	615.734
0.255564	616.683
0.25704	617.636
0.258523	618.592
0.260016	619.552
0.261517	620.515
0.263027	621.483
0.264545	622.454
0.266073	623.428
0.267609	624.407
0.269153	625.389
0.270707	626.375
0.27227	627.365
0.273842	628.358
0.275423	629.356
0.277013	630.357
0.278612	631.362
0.280221	632.37
0.281838	633.383
0.283465	634.4
0.285102	635.42
0.286748	636.445
0.288403	637.473
0.290068	638.505
0.291743	639.541
0.293427	640.581
0.295121	641.625
0.296825	642.673
0.298538	643.725
0.300262	644.781
0.301995	645.841
0.303739	646.906
0.305492	647.974
0.307256	649.046
0.30903	650.122
0.310814	651.203
0.312608	652.287
0.314413	653.376
0.316228	654.468
0.318053	655.565
0.31989	656.666
0.321736	657.771
0.323594	658.881
0.325462	659.994
0.327341	661.112
0.32923	662.234
0.331131	663.36
0.333043	664.491
0.334965	665.625
0.336899	666.764
0.338844	667.908
0.3408	669.055
0.342768	670.207
0.344747	671.363
0.346737	672.524
0.348739	673.689
0.350752	674.858
0.352777	676.032
0.354813	677.21
0.356862	678.392
0.358922	679.579
0.360994	680.77
0.363078	681.966
0.365174	683.166
0.367282	684.37
0.369403	685.579
0.371535	686.793
0.37368	688.011
0.375837	689.233
0.378007	690.46
0.380189	691.692
0.382384	692.928
0.384592	694.168
0.386812	695.413
0.389045	696.663
0.391291	697.918
0.39355	699.176
0.395822	700.44
0.398107	701.708
0.400405	702.981
0.402717	704.258
0.405042	705.54
0.40738	706.827
0.409732	708.119
0.412098	709.415
0.414477	710.715
0.416869	712.021
0.419276	713.331
0.421697	714.646
0.424131	715.966
0.42658	717.29
0.429042	718.619
0.431519	719.953
0.43401	721.292
0.436516	722.636
0.439036	723.984
0.44157	725.337
0.44412	726.695
0.446684	728.058
0.449262	729.425
0.451856	730.798
0.454465	732.175
0.457088	733.557
0.459727	734.944
0.462381	736.336
0.46505	737.733
0.467735	739.135
0.470435	740.541
0.473151	741.953
0.475883	743.369
0.47863	744.791
0.481393	746.217
0.484172	747.649
0.486968	749.085
0.489779	750.526
0.492606	751.972
0.49545	753.424
0.49831	754.88
0.501187	756.341
0.504081	757.807
0.506991	759.279
0.509918	760.755
0.512861	762.236
0.515822	763.722
0.5188	765.214
0.521795	766.71
0.524807	768.212
0.527837	769.718
0.530884	771.23
0.533949	772.747
0.537032	774.269
0.540132	775.795
0.54325	777.327
0.546387	778.865
0.549541	780.407
0.552713	781.954
0.555904	783.506
0.559114	785.064
0.562341	786.627
0.565588	788.194
0.568853	789.767
0.572137	791.346
0.57544	792.929
0.578762	794.517
0.582103	796.111
0.585464	797.709
0.588844	799.313
0.592243	800.922
0.595662	802.536
0.599101	804.156
0.60256	805.78
0.606038	807.41
0.609537	809.045
0.613056	810.685
0.616595	812.33
0.620155	813.981
0.623735	815.636
0.627336	817.297
0.630957	818.963
0.6346	820.635
0.638263	822.311
0.641948	823.993
0.645654	825.679
0.649382	827.371
0.653131	829.068
0.656901	830.771
0.660693	832.478
0.664508	834.191
0.668344	835.909
0.672202	837.632
0.676083	839.361
0.679986	841.094
0.683912	842.833
0.68786	844.577
0.691831	846.326
0.695825	848.08
0.699842	849.839
0.703882	851.604
0.707946	853.374
0.712033	855.149
0.716143	856.929
0.720278	858.714
0.724436	860.504
0.728618	862.3
0.732825	864.101
0.737055	865.906
0.74131	867.717
0.74559	869.534
0.749894	871.355
0.754223	873.181
0.758578	875.013
0.762957	876.849
0.767361	878.691
0.771792	880.537
0.776247	882.389
0.780728	884.246
0.785236	886.108
0.789769	887.975
0.794328	889.847
0.798914	891.724
0.803526	893.606
0.808165	895.493
0.812831	897.385
0.817523	899.282
0.822243	901.184
0.82699	903.091
0.831764	905.003
0.836566	906.92
0.841395	908.842
0.846253	910.769
0.851138	912.7
0.856052	914.637
0.860994	916.578
0.865964	918.524
0.870964	920.475
0.875992	922.431
0.881049	924.392
0.886135	926.358
0.891251	928.328
0.896396	930.303
0.901571	932.283
0.906776	934.267
0.912011	936.256
0.917276	938.25
0.922571	940.249
0.927897	942.252
0.933254	944.26
0.938642	946.272
0.944061	948.289
0.949511	950.311
0.954993	952.337
0.960506	954.368
0.966051	956.403
0.971628	958.442
0.977237	960.486
0.982879	962.535
0.988553	964.588
0.99426	966.645
1	968.706
1.00577	970.772
1.01158	972.842
1.01742	974.917
1.02329	976.995
1.0292	979.078
1.03514	981.165
1.04112	983.256
1.04713	985.352
1.05317	987.451
1.05925	989.554
1.06537	991.662
1.07152	993.773
1.07771	995.889
1.08393	998.008
1.09018	1000.13
1.09648	1002.26
1.10281	1004.39
1.10917	1006.52
1.11558	1008.66
1.12202	1010.8
1.1285	1012.95
1.13501	1015.1
1.14156	1017.25
1.14815	1019.41
1.15478	1021.57
1.16145	1023.73
1.16815	1025.9
1.1749	1028.07
1.18168	1030.24
1.1885	1032.42
1.19536	1034.6
1.20226	1036.78
1.20921	1038.97
1.21619	1041.16
1.22321	1043.35
1.23027	1045.55
1.23737	1047.74
1.24451	1049.95
1.2517	1052.15
1.25893	1054.36
1.26619	1056.57
1.2735	1058.78
1.28086	1060.99
1.28825	1063.21
1.29569	1065.43
1.30317	1067.66
1.31069	1069.88
1.31826	1072.11
1.32587	1074.34
1.33352	1076.57
1.34122	1078.8
1.34896	1081.04
1.35675	1083.28
1.36458	1085.52
1.37246	1087.76
1.38038	1090.01
1.38835	1092.25
1.39637	1094.5
1.40443	1096.75
1.41254	1099
1.42069	1101.26
1.42889	1103.51
1.43714	1105.77
1.44544	1108.02
1.45378	1110.28
1.46218	1112.54
1.47062	1114.8
1.47911	1117.07
1.48765	1119.33
1.49624	1121.59
1.50487	1123.86
1.51356	1126.12
1.5223	1128.39
1.53109	1130.66
1.53993	1132.92
1.54882	1135.19
1.55776	1137.46
1.56675	1139.73
1.5758	1143.79
1.58489	1149.35
1.59404	1154.95
1.60325	1160.57
1.6125	1166.23
1.62181	1171.92
1.63117	1177.63
1.64059	1183.38
1.65006	1189.16
1.65959	1194.97
1.66917	1200.81
1.6788	1206.68
1.6885	1212.58
1.69824	1218.52
1.70805	1224.48
1.71791	1230.48
1.72783	1236.5
1.7378	1242.56
1.74783	1248.65
1.75792	1254.77
1.76807	1260.92
1.77828	1267.11
1.78855	1273.32
1.79887	1279.57
1.80926	1285.85
1.8197	1292.16
1.83021	1298.5
1.84077	1304.88
1.8514	1311.28
1.86209	1317.72
1.87284	1324.19
1.88365	1330.7
1.89452	1337.23
1.90546	1343.8
1.91646	1350.4
1.92752	1357.03
1.93865	1363.69
1.94984	1370.39
1.9611	1377.12
1.97242	1383.88
1.98381	1390.68
1.99526	1397.5
2.00678	1404.36
2.01837	1411.25
2.03002	1418.18
2.04174	1425.14
2.05353	1432.13
2.06538	1439.15
2.0773	1446.2
2.0893	1453.29
2.10136	1460.41
2.11349	1467.56
2.12569	1474.75
2.13796	1481.97
2.1503	1489.22
2.16272	1496.5
2.1752	1503.82
2.18776	1511.17
2.20039	1518.55
2.21309	1525.97
2.22587	1533.41
2.23872	1540.9
2.25165	1548.41
2.26464	1555.95
2.27772	1563.53
2.29087	1571.14
2.30409	1578.78
2.31739	1586.46
2.33077	1594.17
2.34423	1601.91
2.35776	1609.68
2.37137	1617.49
2.38506	1625.32
2.39883	1633.19
2.41268	1641.09
2.42661	1649.03
2.44062	1656.99
2.45471	1664.99
2.46888	1673.02
2.48313	1681.08
2.49747	1689.18
2.51189	1697.3
2.52639	1705.46
2.54097	1713.64
2.55564	1721.86
2.5704	1730.11
2.58523	1738.4
2.60016	1746.71
2.61517	1755.05
2.63027	1763.43
2.64545	1771.83
2.66073	1780.27
2.67609	1788.74
2.69153	1797.23
2.70707	1805.76
2.7227	1814.32
2.73842	1822.91
2.75423	1831.52
2.77013	1840.17
2.78612	1848.85
2.80221	1857.56
2.81838	1866.29
2.83465	1875.06
2.85102	1883.85
2.86748	1892.67
2.88403	1901.52
2.90068	1910.4
2.91743	1919.31
2.93427	1928.25
2.95121	1937.21
2.96825	1946.21
2.98538	1955.23
3.00262	1964.27
3.01995	1973.35
3.03739	1982.45
3.05492	1991.58
3.07256	2000.73
3.0903	2009.91
3.10814	2019.12
3.12608	2028.35
3.14413	2037.61
3.16228	2046.89
3.18053	2056.2
3.1989	2065.54
3.21736	2074.9
3.23594	2084.28
3.25462	2093.69
3.27341	2103.12
3.2923	2112.57
3.31131	2122.05
3.33043	2131.55
3.34965	2141.07
3.36899	2150.62
3.38844	2160.19
3.408	2169.78
3.42768	2179.39
3.44747	2189.02
3.46737	2198.68
3.48739	2208.35
3.50752	2218.05
3.52777	2227.76
3.54813	2237.5
3.56862	2247.25
3.58922	2257.03
3.60994	2266.82
3.63078	2276.63
3.65174	2286.46
3.67282	2296.3
3.69403	2306.17
3.71535	2316.05
3.7368	2325.94
3.75837	2335.86
3.78007	2345.79
3.80189	2355.73
3.82384	2365.69
3.84592	2375.66
3.86812	2385.65
3.89045	2395.66
3.91291	2405.67
3.9355	2415.7
3.95822	2425.74
3.98107	2435.79
4.00405	2445.86
4.02717	2455.94
4.05042	2466.03
4.0738	2476.12
4.09732	2486.23
4.12098	2496.35
4.14477	2506.48
4.16869	2516.61
4.19276	2526.76
4.21697	2536.91
4.24131	2547.07
4.2658	2557.24
4.29042	2567.41
4.31519	2577.59
4.3401	2587.78
4.36516	2597.97
4.39036	2608.16
4.4157	2618.36
4.4412	2628.56
4.46684	2638.77
4.49262	2648.97
4.51856	2659.18
4.54465	2669.4
4.57088	2679.61
4.59727	2689.82
4.62381	2700.04
4.6505	2710.25
4.67735	2720.46
4.70435	2730.67
4.73151	2740.88
4.75883	2751.09
4.7863	2761.29
4.81393	2771.49
4.84172	2781.68
4.86968	2791.87
4.89779	2802.06
4.92606	2812.24
4.9545	2822.41
4.9831	2832.58
5.01187	2842.74
5.04081	2852.89
5.06991	2863.03
5.09918	2873.17
5.12861	2883.29
5.15822	2893.4
5.188	2903.51
5.21795	2913.6
5.24807	2923.68
5.27837	2933.75
5.30884	2943.8
5.33949	2953.84
5.37032	2963.87
5.40132	2973.88
5.4325	2983.88
5.46387	2993.86
5.49541	3003.82
5.52713	3013.77
5.55904	3023.7
5.59114	3033.61
5.62341	3043.51
5.65588	3053.38
5.68853	3063.24
5.72137	3073.07
5.7544	3082.88
5.78762	3092.67
5.82103	3102.44
5.85464	3112.19
5.88844	3121.91
5.92243	3131.61
5.95662	3141.29
5.99101	3150.94
6.0256	3160.56
6.06038	3170.16
6.09537	3179.73
6.13056	3189.28
6.16595	3198.79
6.20155	3208.28
6.23735	3217.74
6.27336	3227.17
6.30957	3236.57
6.346	3245.94
6.38263	3255.27
6.41948	3264.58
6.45654	3273.85
6.49382	3283.09
6.53131	3292.3
6.56901	3301.47
6.60693	3310.61
6.64508	3319.71
6.68344	3328.78
6.72202	3337.81
6.76083	3346.81
6.79986	3355.77
6.83912	3364.69
6.8786	3373.57
6.91831	3382.41
6.95825	3391.22
6.99842	3399.98
7.03882	3408.71
7.07946	3417.39
7.12033	3426.03
7.16143	3434.63
7.20278	3443.19
7.24436	3451.7
7.28618	3458.2
7.32825	3466.61
7.37055	3474.97
7.4131	3483.29
7.4559	3491.56
7.49894	3499.79
7.54223	3507.97
7.58578	3516.1
7.62957	3524.19
7.67361	3532.23
7.71792	3540.22
7.76247	3548.16
7.80728	3556.06
7.85236	3563.9
7.89769	3571.7
7.94328	3579.44
7.98914	3587.14
8.03526	3594.78
8.08165	3602.37
8.12831	3609.91
8.17523	3617.4
8.22243	3624.84
8.2699	3632.23
8.31764	3639.56
8.36566	3646.84
8.41395	3654.06
8.46253	3661.23
8.51138	3668.35
8.56052	3675.41
8.60994	3682.41
8.65964	3689.36
8.70964	3696.26
8.75992	3703.1
8.81049	3709.88
8.86135	3716.61
8.91251	3723.28
8.96396	3729.89
9.01571	3736.45
9.06776	3742.95
9.12011	3749.39
9.17276	3755.77
9.22571	3762.09
9.27897	3768.36
9.33254	3774.56
9.38642	3780.71
9.44061	3786.8
9.49511	3792.83
9.54993	3798.8
9.60506	3804.71
9.66051	3810.56
9.71628	3816.35
9.77237	3822.08
9.82879	3827.75
9.88553	3833.36
9.9426	3838.91
10	3844.4
10.0577	3849.83
10.1158	3855.2
10.1742	3860.5
10.2329	3865.75
10.292	3870.93
10.3514	3876.05
10.4112	3881.11
10.4713	3886.11
10.5317	3891.05
10.5925	3895.93
10.6537	3900.74
10.7152	3905.49
10.7771	3910.19
10.8393	3914.81
10.9018	3919.38
10.9648	3923.89
11.0281	3928.33
11.0917	3932.72
11.1558	3937.04
11.2202	3941.3
11.285	3945.5
11.3501	3949.63
11.4156	3953.71
11.4815	3957.72
11.5478	3961.68
11.6145	3965.57
11.6815	3969.4
11.749	3973.17
11.8168	3976.87
11.885	3980.52
11.9536	3984.11
12.0226	3987.63
12.0921	3991.1
12.1619	3994.5
12.2321	3997.84
12.3027	4001.13
12.3737	4004.35
12.4451	4007.51
12.517	4010.62
12.5893	4013.66
12.6619	4016.64
12.735	4019.57
12.8086	4022.44
12.8825	4025.24
12.9569	4027.99
13.0317	4030.68
13.1069	4033.31
13.1826	4035.89
13.2587	4038.4
13.3352	4040.86
13.4122	4043.26
13.4896	4045.6
13.5675	4047.89
13.6458	4050.12
13.7246	4052.29
13.8038	4054.41
13.8835	4056.47
13.9637	4058.47
14.0443	4060.42
14.1254	4062.32
14.2069	4064.16
14.2889	4065.94
14.3714	4067.67
14.4544	4069.35
14.5378	4070.97
14.6218	4072.54
14.7062	4056.34
14.7911	4057.96
14.8765	4059.53
14.9624	4061.04
15.0487	4062.5
15.1356	4063.91
15.223	4065.27
15.3109	4066.58
15.3993	4067.83
15.4882	4069.04
15.5776	4070.19
15.6675	4071.29
15.758	4072.35
15.8489	4073.35
15.9404	4074.3
16.0325	4075.21
16.125	4076.07
16.2181	4076.88
16.3117	4077.64
16.4059	4078.35
16.5006	4079.02
16.5959	4079.64
16.6917	4080.21
16.788	4080.74
16.885	4081.22
16.9824	4081.66
17.0805	4082.05
17.1791	4082.4
17.2783	4082.7
17.378	4082.96
17.4783	4083.18
17.5792	4083.35
17.6807	4083.49
17.7828	4083.58
17.8855	4083.63
17.9887	4083.63
18.0926	4083.6
18.197	4083.53
18.3021	4083.41
18.4077	4083.26
18.514	4083.07
18.6209	4082.84
18.7284	4082.57
18.8365	4082.26
18.9452	4081.92
19.0546	4081.54
19.1646	4081.12
19.2752	4080.67
19.3865	4080.18
19.4984	4079.65
19.611	4079.09
19.7242	4078.5
19.8381	4077.87
19.9526	4077.21
20.0678	4076.51
20.1837	4075.78
20.3002	4075.02
20.4174	4074.23
20.5353	4073.41
20.6538	4072.55
20.773	4071.66
20.893	4070.74
21.0136	4069.8
21.1349	4068.82
21.2569	4067.81
21.3796	4066.78
21.503	4065.71
21.6272	4064.62
21.752	4063.5
21.8776	4062.35
22.0039	4061.18
22.1309	4059.98
22.2587	4058.75
22.3872	4057.5
22.5165	4056.22
22.6464	4054.92
22.7772	4053.59
22.9087	4052.24
23.0409	4050.87
23.1739	4049.47
23.3077	4048.04
23.4423	4046.6
23.5776	4045.13
23.7137	4043.64
23.8506	4042.13
23.9883	4040.6
24.1268	4039.05
24.2661	4037.47
24.4062	4035.88
24.5471	4034.26
24.6888	4032.63
24.8313	4030.98
24.9747	4029.3
25.1189	4027.61
25.2639	4025.9
25.4097	4024.18
25.5564	4022.43
25.704	4020.67
25.8523	4018.89
26.0016	4017.09
26.1517	4015.28
26.3027	4013.45
26.4545	4011.61
26.6073	4009.75
26.7609	4007.88
26.9153	4005.99
27.0707	4004.08
27.227	4002.16
27.3842	4000.23
27.5423	3998.28
27.7013	3996.32
27.8612	3994.35
28.0221	3992.36
28.1838	3990.36
28.3465	3988.35
28.5102	3986.33
28.6748	3984.29
28.8403	3982.25
29.0068	3980.19
29.1743	3978.12
29.3427	3976.03
29.5121	3973.94
29.6825	3971.84
29.8538	3969.72
30.0262	3967.6
30.1995	3965.47
30.3739	3963.32
30.5492	3961.17
30.7256	3959.01
30.903	3956.84
31.0814	3954.66
31.2608	3952.47
31.4413	3950.27
31.6228	3948.06
31.8053	3945.85
31.989	3943.62
32.1736	3941.39
32.3594	3939.16
32.5462	3936.91
32.7341	3934.66
32.923	3932.4
33.1131	3930.13
33.3043	3927.85
33.4965	3925.57
33.6899	3923.28
33.8844	3920.99
34.08	3918.68
34.2768	3916.38
34.4747	3914.06
34.6737	3911.74
34.8739	3909.42
35.0752	3907.08
35.2777	3904.75
35.4813	3902.4
35.6862	3900.05
35.8922	3897.7
36.0994	3895.34
36.3078	3892.97
36.5174	3890.6
36.7282	3888.23
36.9403	3885.84
37.1535	3883.46
37.368	3881.07
37.5837	3878.67
37.8007	3876.27
38.0189	3873.87
38.2384	3871.46
38.4592	3869.04
38.6812	3866.63
38.9045	3864.2
39.1291	3861.77
39.355	3859.34
39.5822	3856.91
39.8107	3854.47
40.0405	3852.02
40.2717	3849.57
40.5042	3847.12
40.738	3844.66
40.9732	3842.2
41.2098	3839.73
41.4477	3837.26
41.6869	3834.79
41.9276	3832.31
42.1697	3829.83
42.4131	3827.34
42.658	3824.85
42.9042	3822.36
43.1519	3819.86
43.401	3817.36
43.6516	3814.85
43.9036	3812.34
44.157	3809.83
44.412	3807.31
44.6684	3804.79
44.9262	3802.26
45.1856	3799.73
45.4465	3797.2
45.7088	3794.66
45.9727	3792.12
46.2381	3789.57
46.505	3787.02
46.7735	3784.47
47.0435	3781.91
47.3151	3779.34
47.5883	3776.78
47.863	3774.2
48.1393	3771.63
48.4172	3769.05
48.6968	3766.46
48.9779	3763.87
49.2606	3761.28
49.545	3758.68
49.831	3756.08
50.1187	3753.47
50.4081	3750.86
50.6991	3748.24
50.9918	3745.62
51.2861	3743
51.5822	3740.36
51.88	3737.73
52.1795	3735.09
52.4807	3732.44
52.7837	3729.79
53.0884	3727.14
53.3949	3724.48
53.7032	3721.81
54.0132	3719.14
54.325	3716.46
54.6387	3713.78
54.9541	3711.09
55.2713	3708.4
55.5904	3705.7
55.9114	3703
56.2341	3700.29
56.5588	3697.57
56.8853	3694.85
57.2137	3692.13
57.544	3689.39
57.8762	3686.66
58.2103	3683.91
58.5464	3681.16
58.8844	3678.4
59.2243	3675.64
59.5662	3672.87
59.9101	3670.1
60.256	3667.32
60.6038	3664.53
60.9537	3661.74
61.3056	3658.93
61.6595	3656.13
62.0155	3653.31
62.3735	3650.49
62.7336	3647.66
63.0957	3644.82
63.46	3641.98
63.8263	3639.13
64.1948	3636.27
64.5654	3633.41
64.9382	3630.54
65.3131	3627.66
65.6901	3624.77
66.0693	3621.88
66.4508	3618.98
66.8344	3616.07
67.2202	3613.15
67.6083	3610.23
67.9986	3607.3
68.3912	3604.35
68.786	3601.41
69.1831	3598.45
69.5825	3595.48
69.9842	3592.51
70.3882	3589.53
70.7946	3586.54
71.2033	3583.54
71.6143	3580.54
72.0278	3577.52
72.4436	3574.5
72.8618	3571.46
73.2825	3568.42
73.7055	3565.37
74.131	3562.31
74.559	3559.25
74.9894	3556.17
75.4223	3553.08
75.8578	3549.99
76.2957	3546.88
76.7361	3543.77
77.1792	3540.64
77.6247	3537.51
78.0728	3534.37
78.5236	3531.21
78.9769	3528.05
79.4328	3524.88
79.8914	3521.7
80.3526	3518.5
80.8165	3515.3
81.2831	3512.09
81.7523	3508.87
82.2243	3505.64
82.699	3502.39
83.1764	3499.14
83.6566	3495.88
84.1395	3492.6
84.6253	3489.32
85.1138	3486.02
85.6052	3482.72
86.0994	3479.4
86.5964	3476.07
87.0964	3472.74
87.5992	3469.39
88.1049	3466.03
88.6135	3462.66
89.1251	3459.27
89.6396	3455.88
90.1571	3452.48
90.6776	3449.06
91.2011	3445.63
91.7276	3442.19
92.2571	3438.74
92.7897	3435.28
93.3254	3431.81
93.8642	3428.32
94.4061	3424.83
94.9511	3421.32
95.4993	3416.33
96.0506	3410.09
96.6051	3403.85
97.1628	3397.65
97.7237	3391.46
98.2879	3385.27
98.8553	3379.1
99.426	3373.12
100	3366.95
100.577	3360.79
101.158	3354.64
101.742	3348.49
102.329	3342.35
102.92	3336.21
103.514	3330.08
104.112	3323.95
104.713	3317.82
105.317	3311.71
105.925	3305.6
106.537	3299.93
107.152	3293.95
107.771	3287.85
108.393	3281.76
109.018	3275.67
109.648	3269.58
110.281	3263.5
110.917	3257.42
111.558	3251.34
112.202	3245.27
112.85	3239.2
113.501	3233.14
114.156	3227.07
114.815	3221.01
115.478	3214.95
116.145	3213.8
116.815	3209.63
117.49	3203.54
118.168	3197.45
118.85	3191.37
119.536	3178.81
120.226	3172.62
120.921	3167.01
121.619	3160.83
122.321	3154.64
123.027	3148.45
123.737	3142.29
124.451	3136.12
125.17	3129.96
125.893	3123.8
126.619	3117.64
127.35	3111.49
128.086	3105.33
128.825	3099.17
129.569	3093.01
130.317	3086.86
131.069	3080.7
131.826	3074.54
132.587	3068.38
133.352	3062.22
134.122	3056.06
134.896	3049.9
135.675	3043.73
136.458	3037.57
137.246	3031.4
138.038	3025.23
138.835	3019.06
139.637	3012.88
140.443	3006.71
141.254	3000.53
142.069	2996.29
142.889	2990.1
143.714	2983.92
144.544	2977.72
145.378	2971.53
146.218	2965.33
147.062	2959.13
147.911	2952.93
148.765	2946.73
149.624	2940.52
150.487	2934.31
151.356	2928.1
152.23	2921.89
153.109	2915.68
153.993	2909.47
154.882	2903.25
155.776	2897.03
156.675	2890.82
157.58	2884.6
158.489	2878.38
159.404	2872.16
160.325	2865.93
161.25	2859.84
162.181	2853.61
163.117	2847.38
164.059	2841.16
165.006	2834.93
165.959	2828.7
166.917	2822.47
167.88	2816.45
168.85	2810.53
169.824	2804.6
170.805	2798.66
171.791	2792.72
172.783	2786.78
173.78	2780.84
174.783	2774.89
175.792	2768.94
176.807	2762.99
177.828	2757.03
178.855	2751.07
179.887	2745.11
180.926	2739.15
181.97	2733.18
183.021	2727.21
184.077	2721.25
185.14	2715.28
186.209	2709.3
187.284	2703.33
188.365	2697.35
189.452	2691.38
190.546	2685.4
191.646	2679.42
192.752	2673.44
193.865	2667.45
194.984	2662.24
196.11	2656.24
197.242	2650.25
198.381	2644.25
199.526	2638.26
200.678	2632.26
201.837	2626.27
203.002	2620.27
204.174	2614.28
205.353	2608.28
206.538	2602.29
207.73	2596.3
208.93	2590.31
210.136	2584.32
211.349	2578.33
212.569	2572.35
213.796	2568.18
215.03	2562.19
216.272	2556.19
217.52	2550.2
218.776	2544.2
220.039	2538.22
221.309	2532.23
222.587	2526.24
223.872	2520.26
225.165	2514.29
226.464	2508.31
227.772	2502.34
229.087	2496.37
230.409	2490.4
231.739	2484.44
233.077	2478.48
234.423	2472.52
235.776	2466.57
237.137	2460.62
238.506	2454.67
239.883	2448.73
241.268	2442.79
242.661	2436.86
244.062	2430.92
245.471	2424.99
246.888	2419.07
248.313	2413.15
249.747	2407.23
251.189	2401.31
252.639	2395.4
254.097	2389.5
255.564	2383.59
257.04	2377.7
258.523	2371.8
260.016	2365.91
261.517	2360.02
263.027	2354.14
264.545	2348.26
266.073	2342.39
267.609	2336.52
269.153	2330.65
270.707	2324.83
272.27	2318.97
273.842	2313.63
275.423	2307.77
277.013	2301.92
278.612	2296.07
280.221	2290.22
281.838	2284.37
283.465	2278.53
285.102	2272.69
286.748	2266.86
288.403	2261.03
290.068	2255.21
291.743	2249.38
293.427	2243.57
295.121	2237.75
296.825	2231.94
298.538	2226.14
300.262	2220.34
301.995	2214.54
303.739	2208.74
305.492	2202.95
307.256	2197.17
309.03	2191.39
310.814	2185.61
312.608	2179.83
314.413	2174.07
316.228	2168.3
318.053	2162.54
319.89	2156.78
321.736	2151.03
323.594	2145.28
325.462	2139.53
327.341	2133.79
329.23	2128.05
331.131	2122.32
333.043	2116.59
334.965	2110.87
336.899	2105.15
338.844	2099.43
340.8	2093.72
342.768	2088.01
344.747	2082.31
346.737	2076.61
348.739	2070.92
350.752	2065.23
352.777	2059.54
354.813	2053.86
356.862	2048.88
358.922	2043.2
360.994	2037.52
363.078	2031.84
365.174	2026.17
367.282	2020.51
369.403	2014.85
371.535	2009.19
373.68	2003.54
375.837	1997.89
378.007	1992.24
380.189	1986.64
382.384	1981
384.592	1975.37
386.812	1969.74
389.045	1964.12
391.291	1958.5
393.55	1952.89
395.822	1947.29
398.107	1941.69
400.405	1936.09
402.717	1930.5
405.042	1924.92
407.38	1919.33
409.732	1913.76
412.098	1908.18
414.477	1902.62
416.869	1897.05
419.276	1891.5
421.697	1885.94
424.131	1880.39
426.58	1874.85
429.042	1869.31
431.519	1863.78
434.01	1858.25
436.516	1852.73
439.036	1847.21
441.57	1841.7
444.12	1836.19
446.684	1830.69
449.262	1825.19
451.856	1819.7
454.465	1814.22
457.088	1808.73
459.727	1803.26
462.381	1797.79
465.05	1792.33
467.735	1786.87
470.435	1781.42
473.151	1775.97
475.883	1770.53
478.63	1765.09
481.393	1759.67
484.172	1754.24
486.968	1748.83
489.779	1743.42
492.606	1738.01
495.45	1732.61
498.31	1727.22
501.187	1721.84
504.081	1716.9
506.991	1711.53
509.918	1706.15
512.861	1700.79
515.822	1695.43
518.8	1690.08
521.795	1684.73
524.807	1679.39
527.837	1674.06
530.884	1668.73
533.949	1663.42
537.032	1658.11
540.132	1652.8
543.25	1647.51
546.387	1642.22
549.541	1636.94
552.713	1631.66
555.904	1626.39
559.114	1621.13
562.341	1615.88
565.588	1610.64
568.853	1605.4
572.137	1600.17
575.44	1594.95
578.762	1589.74
582.103	1584.53
585.464	1579.33
588.844	1574.14
592.243	1568.96
595.662	1563.79
599.101	1558.63
602.56	1553.47
606.038	1548.32
609.537	1543.18
613.056	1538.05
616.595	1532.92
620.155	1527.81
623.735	1522.7
627.336	1517.6
630.957	1512.51
634.6	1507.43
638.263	1502.36
641.948	1497.3
645.654	1492.24
649.382	1487.19
653.131	1482.16
656.901	1477.13
660.693	1472.11
664.508	1467.1
668.344	1462.09
672.202	1457.1
676.083	1452.12
679.986	1447.14
683.912	1442.18
687.86	1437.22
691.831	1432.27
695.825	1427.34
699.842	1422.41
703.882	1417.49
707.946	1412.58
712.033	1407.68
716.143	1402.79
720.278	1397.91
724.436	1393.04
728.618	1388.18
732.825	1383.32
737.055	1378.48
741.31	1373.65
745.59	1368.83
749.894	1364.02
754.223	1359.22
758.578	1354.42
762.957	1349.64
767.361	1344.87
771.792	1340.11
776.247	1335.35
780.728	1330.61
785.236	1325.88
789.769	1321.15
794.328	1316.44
798.914	1311.74
803.526	1307.05
808.165	1302.37
812.831	1297.69
817.523	1293.03
822.243	1288.38
826.99	1283.74
831.764	1279.11
836.566	1274.49
841.395	1269.88
846.253	1265.28
851.138	1260.69
856.052	1256.69
860.994	1252.11
865.964	1247.55
870.964	1242.99
875.992	1238.45
881.049	1233.92
886.135	1229.39
891.251	1224.88
896.396	1220.38
901.571	1215.89
906.776	1211.41
912.011	1206.94
917.276	1202.48
922.571	1198.03
927.897	1193.59
933.254	1189.17
938.642	1184.75
944.061	1180.34
949.511	1175.95
954.993	1171.56
960.506	1167.19
966.051	1162.83
971.628	1158.48
977.237	1154.14
982.879	1149.8
988.553	1145.49
994.26	1141.18
1000	1136.88
1005.77	1132.59
1011.58	1128.32
1017.42	1124.05
1023.29	1119.8
1029.2	1115.56
1035.14	1111.32
1041.12	1107.1
1047.13	1102.89
1053.17	1098.69
1059.25	1094.51
1065.37	1090.33
1071.52	1086.16
1077.71	1082.01
1083.93	1077.87
1090.18	1073.73
1096.48	1069.61
1102.81	1065.5
1109.17	1061.4
1115.58	1057.32
1122.02	1053.24
1128.5	1049.18
1135.01	1045.12
1141.56	1041.08
1148.15	1037.05
1154.78	1033.03
1161.45	1029.02
1168.15	1025.02
1174.9	1021.03
1181.68	1017.06
1188.5	1013.09
1195.36	1009.14
1202.26	1005.2
1209.21	1001.27
1216.19	997.352
1223.21	993.443
1230.27	989.548
1237.37	985.663
1244.51	981.79
1251.7	977.929
1258.93	974.079
1266.19	970.24
1273.5	966.412
1280.86	962.596
1288.25	958.792
1295.69	954.999
1303.17	951.217
1310.69	947.447
1318.26	943.688
1325.87	939.94
1333.52	936.204
1341.22	932.48
1348.96	928.767
1356.75	925.065
1364.58	921.375
1372.46	917.695
1380.38	914.028
1388.35	910.372
1396.37	906.727
1404.43	903.094
1412.54	899.472
1420.69	895.862
1428.89	892.263
1437.14	888.676
1445.44	885.099
1453.78	881.534
1462.18	877.981
1470.62	874.439
1479.11	870.909
1487.65	867.39
1496.24	863.882
1504.87	860.386
1513.56	856.902
1522.3	853.428
1531.09	849.966
1539.93	846.516
1548.82	843.077
1557.76	839.649
1566.75	836.233
1575.8	832.828
1584.89	829.434
1594.04	826.052
1603.25	822.681
1612.5	819.321
1621.81	815.973
1631.17	812.636
1640.59	809.31
1650.06	805.995
1659.59	802.692
1669.17	799.4
1678.8	796.12
1688.5	792.85
1698.24	789.592
1708.05	786.346
1717.91	783.11
1727.83	779.886
1737.8	776.672
1747.83	773.47
1757.92	770.28
1768.07	767.1
1778.28	763.932
1788.55	760.774
1798.87	757.628
1809.26	754.493
1819.7	751.369
1830.21	748.256
1840.77	745.155
1851.4	742.064
1862.09	738.984
1872.84	735.916
1883.65	732.858
1894.52	729.812
1905.46	726.776
1916.46	723.752
1927.52	720.739
1938.65	717.736
1949.84	714.745
1961.1	711.764
1972.42	708.794
1983.81	705.835
1995.26	702.887
2006.78	699.95
2018.37	697.024
2030.02	694.109
2041.74	691.205
2053.53	688.311
2065.38	685.428
2077.3	682.556
2089.3	679.695
2101.36	676.845
2113.49	674.005
2125.69	671.176
2137.96	668.358
2150.3	665.55
2162.72	662.753
2175.2	659.967
2187.76	657.191
2200.39	654.426
2213.09	651.672
2225.87	648.928
2238.72	646.194
2251.65	643.472
2264.64	640.759
2277.72	638.058
2290.87	635.366
2304.09	632.686
2317.39	630.015
2330.77	627.355
2344.23	624.706
2357.76	622.067
2371.37	619.438
2385.06	616.819
2398.83	614.211
2412.68	611.614
2426.61	609.026
2440.62	606.449
2454.71	603.882
2468.88	601.325
2483.13	598.779
2497.47	596.242
2511.89	593.716
2526.39	591.2
2540.97	588.694
2555.64	586.198
2570.4	583.713
2585.23	581.237
2600.16	578.771
2615.17	576.315
2630.27	573.87
2645.45	571.434
2660.73	569.008
2676.09	566.592
2691.53	564.186
2707.07	561.79
2722.7	559.404
2738.42	557.028
2754.23	554.661
2770.13	552.304
2786.12	549.957
2802.21	547.62
2818.38	545.292
2834.65	542.974
2851.02	540.666
2867.48	538.367
2884.03	536.078
2900.68	533.799
2917.43	531.529
2934.27	529.269
2951.21	527.018
2968.25	524.777
2985.38	522.545
3002.62	520.323
3019.95	518.11
3037.39	515.906
3054.92	513.712
3072.56	511.527
3090.3	509.351
3108.14	507.185
3126.08	505.028
3144.13	502.881
3162.28	500.742
3180.53	498.613
3198.9	496.493
3217.36	494.382
3235.94	492.28
3254.62	490.187
3273.41	488.104
3292.3	486.029
3311.31	483.963
3330.43	481.907
3349.65	479.859
3368.99	477.82
3388.44	475.791
3408	473.77
3427.68	471.758
3447.47	469.754
3467.37	467.76
3487.39	465.775
3507.52	463.798
3527.77	461.83
3548.13	459.87
3568.62	457.919
3589.22	455.977
3609.94	454.044
3630.78	452.119
3651.74	450.203
3672.82	448.295
3694.03	446.396
3715.35	444.505
3736.8	442.623
3758.37	440.749
3780.07	438.884
3801.89	437.027
3823.84	435.178
3845.92	433.338
3868.12	431.506
3890.45	429.682
3912.91	427.867
3935.5	426.059
3958.22	424.26
3981.07	422.469
4004.05	420.687
4027.17	418.912
4050.42	417.145
4073.8	415.387
4097.32	413.637
4120.98	411.894
4144.77	410.16
4168.69	408.433
4192.76	406.715
4216.97	405.004
4241.31	403.301
4265.8	401.606
4290.42	399.919
4315.19	398.24
4340.1	396.568
4365.16	394.905
4390.36	393.249
4415.7	391.6
4441.2	389.959
4466.84	388.326
4492.62	386.701
4518.56	385.083
4544.65	383.473
4570.88	381.87
4597.27	380.274
4623.81	378.687
4650.5	377.106
4677.35	375.533
4704.35	373.968
4731.51	372.409
4758.83	370.859
4786.3	369.315
4813.93	367.779
4841.72	366.25
4869.68	364.728
4897.79	363.214
4926.06	361.706
4954.5	360.206
4983.1	358.713
5011.87	357.227
5040.81	355.748
5069.91	354.276
5099.18	352.811
5128.61	351.353
5158.22	349.903
5188	348.459
5217.95	347.022
5248.07	345.591
5278.37	344.168
5308.84	342.752
5339.49	341.342
5370.32	339.939
5401.32	338.543
5432.5	337.154
5463.87	335.772
5495.41	334.396
5527.13	333.026
5559.04	331.664
5591.14	330.308
5623.41	328.958
5655.88	327.615
5688.53	326.279
5721.37	324.949
5754.4	323.626
5787.62	322.309
5821.03	320.999
5854.64	319.694
5888.44	318.397
5922.43	317.105
5956.62	315.82
5991.01	314.542
6025.6	313.269
6060.38	312.003
6095.37	310.743
6130.56	309.489
6165.95	308.242
6201.55	307
6237.35	305.765
6273.36	304.536
6309.57	303.313
6346	302.096
6382.63	300.885
6419.48	299.68
6456.54	298.481
6493.82	297.287
6531.31	296.1
6569.01	294.919
6606.93	293.744
6645.08	292.574
6683.44	291.41
6722.02	290.252
6760.83	289.1
6799.86	287.954
6839.12	286.813
6878.6	285.679
6918.31	284.549
6958.25	283.426
6998.42	282.308
7038.82	281.196
7079.46	280.089
7120.33	278.988
7161.43	277.892
7202.78	276.802
7244.36	275.718
7286.18	274.639
7328.25	273.565
7370.55	272.497
7413.1	271.434
7455.9	270.377
7498.94	269.325
7542.23	268.278
7585.78	267.237
7629.57	266.201
7673.61	265.17
7717.92	264.145
7762.47	263.124
7807.28	262.109
7852.36	261.099
7897.69	260.095
7943.28	259.095
7989.14	258.101
8035.26	257.111
8081.65	256.127
8128.31	255.148
8175.23	254.173
8222.43	253.204
8269.9	252.24
8317.64	251.281
8365.66	250.326
8413.95	249.377
8462.53	248.433
8511.38	247.493
8560.52	246.558
8609.94	245.628
8659.64	244.703
8709.64	243.783
8759.92	242.867
8810.49	241.957
8861.35	241.051
8912.51	240.149
8963.96	239.253
9015.71	238.361
9067.76	237.474
9120.11	236.591
9172.76	235.713
9225.71	234.839
9278.97	233.97
9332.54	233.106
9386.42	232.246
9440.61	231.391
9495.11	230.54
9549.93	229.694
9605.06	228.852
9660.51	228.014
9716.28	227.181
9772.37	226.353
9828.79	225.529
9885.53	224.709
9942.6	223.893
10000	223.082
10057.7	222.275
10115.8	221.472
10174.2	220.674
10232.9	219.879
10292	219.089
10351.4	218.304
10411.2	217.522
10471.3	216.745
10531.7	215.971
10592.5	215.202
10653.7	214.437
10715.2	213.676
10777.1	212.919
10839.3	212.166
10901.8	211.418
10964.8	210.673
11028.1	209.932
11091.7	209.195
11155.8	208.462
11220.2	207.734
11285	207.009
11350.1	206.288
11415.6	205.57
11481.5	204.857
11547.8	204.148
11614.5	203.442
11681.5	202.74
11749	202.042
11816.8	201.348
11885	200.658
11953.6	199.971
12022.6	199.288
12092.1	198.609
12161.9	197.934
12232.1	197.262
12302.7	196.594
12373.7	195.93
12445.1	195.269
12517	194.612
12589.3	193.958
12661.9	193.308
12735	192.662
12808.6	192.019
12882.5	191.38
12956.9	190.744
13031.7	190.112
13106.9	189.483
13182.6	188.858
13258.7	188.236
13335.2	187.618
13412.2	187.003
13489.6	186.391
13567.5	185.783
13645.8	185.178
13724.6	184.577
13803.8	183.979
13883.5	183.384
13963.7	182.793
14044.3	182.205
14125.4	181.62
14206.9	181.039
14288.9	180.461
14371.4	179.886
14454.4	179.314
14537.8	178.746
14621.8	178.18
14706.2	177.618
14791.1	177.059
14876.5	176.504
14962.4	175.951
15048.7	175.402
15135.6	174.855
15223	174.312
15310.9	173.772
15399.3	173.235
15488.2	172.701
15577.6	172.17
15667.5	171.642
15758	171.118
15848.9	170.596
15940.4	170.077
16032.5	169.561
16125	169.048
16218.1	168.538
16311.7	168.031
16405.9	167.527
16500.6	167.026
16595.9	166.528
16691.7	166.033
16788	165.54
16885	165.05
16982.4	164.564
17080.5	164.08
17179.1	163.599
17278.3	163.12
17378	162.645
17478.3	162.172
17579.2	161.702
17680.7	161.235
17782.8	160.771
17885.5	160.309
17988.7	159.85
18092.6	159.394
18197	158.941
18302.1	158.49
18407.7	158.042
18514	157.596
18620.9	157.153
18728.4	156.713
18836.5	156.275
18945.2	155.84
19054.6	155.408
19164.6	154.978
19275.2	154.551
19386.5	154.127
19498.4	153.705
19611	153.285
19724.2	152.868
19838.1	152.454
19952.6	152.042
20067.8	151.632
20183.7	151.225
20300.2	150.821
20417.4	150.419
20535.3	150.019
20653.8	149.622
20773	149.228
20893	148.835
21013.6	148.446
21134.9	148.058
21256.9	147.673
21379.6	147.29
21503	146.91
21627.2	146.532
21752	146.157
21877.6	145.783
22003.9	145.412
22130.9	145.044
22258.7	144.678
22387.2	144.313
22516.5	143.952
22646.4	143.592
22777.2	143.235
22908.7	142.88
23040.9	142.527
23173.9	142.177
23307.7	141.829
23442.3	141.483
23577.6	141.139
23713.7	140.797
23850.6	140.458
23988.3	140.121
24126.8	139.786
24266.1	139.453
24406.2	139.122
24547.1	138.793
24688.8	138.467
24831.3	138.142
24974.7	137.82
25118.9	137.5
25263.9	137.181
25409.7	136.865
25556.4	136.551
25704	136.24
25852.3	135.93
26001.6	135.622
26151.7	135.316
26302.7	135.012
26454.5	134.71
26607.3	134.411
26760.9	134.113
26915.3	133.817
27070.7	133.523
27227	133.232
27384.2	132.942
27542.3	132.654
27701.3	132.368
27861.2	132.084
28022.1	131.802
28183.8	131.521
28346.5	131.243
28510.2	130.967
28674.8	130.692
28840.3	130.42
29006.8	130.149
29174.3	129.88
29342.7	129.613
29512.1	129.348
29682.5	129.085
29853.8	128.823
30026.2	128.563
30199.5	128.306
30373.9	128.05
30549.2	127.795
30725.6	127.543
30903	127.292
31081.4	127.043
31260.8	126.796
31441.3	126.551
31622.8	126.307
31805.3	126.065
31989	125.825
32173.6	125.587
32359.4	125.35
32546.2	125.115
32734.1	124.882
32923	124.651
33113.1	124.421
33304.3	124.193
33496.5	123.966
33689.9	123.741
33884.4	123.518
34080	123.297
34276.8	123.077
34474.7	122.858
34673.7	122.642
34873.9	122.427
35075.2	122.214
35277.7	122.002
35481.3	121.792
35686.2	121.583
35892.2	121.376
36099.4	121.171
36307.8	120.967
36517.4	120.765
36728.2	120.564
36940.3	120.365
37153.5	120.167
37368	119.971
37583.7	119.777
37800.7	119.584
38018.9	119.392
38238.4	119.203
38459.2	119.014
38681.2	118.827
38904.5	118.642
39129.1	118.458
39355	118.275
39582.2	118.094
39810.7	117.915
40040.5	117.737
40271.7	117.56
40504.2	117.385
40738	117.211
40973.2	117.039
41209.8	116.868
41447.7	116.698
41686.9	116.53
41927.6	116.364
42169.7	116.198
42413.1	116.035
42658	115.872
42904.2	115.711
43151.9	115.551
43401	115.393
43651.6	115.236
43903.6	115.08
44157	114.926
44412	114.773
44668.4	114.622
44926.2	114.471
45185.6	114.322
45446.5	114.175
45708.8	114.029
45972.7	113.884
46238.1	113.74
46505	113.587
46773.5	113.434
47043.5	113.282
47315.1	113.132
47588.3	112.983
47863	112.834
48139.3	112.688
48417.2	112.542
48696.8	112.398
48977.9	112.254
49260.6	112.113
49545	111.972
49831	111.832
50118.7	111.694
50408.1	111.557
50699.1	111.421
50991.8	111.286
51286.1	111.153
51582.2	111.02
51880	110.889
52179.5	110.759
52480.7	110.63
52783.7	110.503
53088.4	110.376
53394.9	110.25
53703.2	110.126
54013.2	110.003
54325	109.881
54638.7	109.76
54954.1	109.64
55271.3	109.521
55590.4	109.404
55911.4	109.287
56234.1	109.172
56558.8	109.058
56885.3	108.944
57213.7	108.832
57544	108.721
57876.2	108.611
58210.3	108.502
58546.4	108.394
58884.4	108.287
59224.3	108.181
59566.2	108.076
59910.1	107.973
60256	107.87
60603.8	107.768
60953.7	107.667
61305.6	107.568
61659.5	107.469
62015.5	107.371
62373.5	107.275
62733.6	107.179
63095.7	107.084
63460	106.991
63826.3	106.898
64194.8	106.806
64565.4	106.715
64938.2	106.625
65313.1	106.537
65690.1	106.449
66069.3	106.362
66450.8	106.276
66834.4	106.19
67220.2	106.106
67608.3	106.023
67998.6	105.941
68391.2	105.859
68786	105.779
69183.1	105.699
69582.5	105.621
69984.2	105.543
70388.2	105.466
70794.6	105.39
71203.3	105.315
71614.3	105.241
72027.8	105.167
72443.6	105.095
72861.8	105.023
73282.5	104.953
73705.5	104.883
74131	104.814
74559	104.746
74989.4	104.678
75422.3	104.612
75857.8	104.546
76295.7	104.481
76736.1	104.417
77179.2	104.354
77624.7	104.292
78072.8	104.23
78523.6	104.17
78976.9	104.11
79432.8	104.051
79891.4	103.992
80352.6	103.935
80816.5	103.878
81283.1	103.822
81752.3	103.767
82224.3	103.713
82699	103.659
83176.4	103.606
83656.6	103.554
84139.5	103.503
84625.3	103.452
85113.8	103.402
85605.2	103.353
86099.4	103.305
86596.4	103.257
87096.4	103.21
87599.2	103.164
88104.9	103.119
88613.5	103.074
89125.1	103.03
89639.6	102.987
90157.1	102.945
90677.6	102.903
91201.1	102.862
91727.6	102.821
92257.1	102.782
92789.7	102.743
93325.4	102.704
93864.2	102.667
94406.1	102.63
94951.1	102.593
95499.3	102.558
96050.6	102.523
96605.1	102.488
97162.8	102.455
97723.7	102.422
98287.9	102.389
98855.3	102.358
99426	102.327
100000	102.296
100577	102.266
101158	102.237
101742	102.209
102329	102.181
102920	102.154
103514	102.127
104112	102.101
104713	102.076
105317	102.051
105925	102.027
106537	102.003
107152	101.98
107771	101.958
108393	101.936
109018	101.915
109648	101.894
110281	101.874
110917	101.855
111558	101.836
112202	101.817
112850	101.8
113501	101.782
114156	101.766
114815	101.75
115478	101.734
116145	101.719
116815	101.705
117490	101.691
118168	101.677
118850	101.664
119536	101.652
120226	101.64
120921	101.629
121619	101.618
122321	101.608
123027	101.599
123737	101.589
124451	101.581
125170	101.573
125893	101.565
126619	101.558
127350	101.551
128086	101.545
128825	101.539
129569	101.534
130317	101.529
131069	101.525
131826	101.521
132587	101.518
133352	101.515
134122	101.513
134896	101.511
135675	101.51
136458	101.509
137246	101.508
138038	101.508
138835	101.509
139637	101.51
140443	101.511
141254	101.513
142069	101.515
142889	101.518
143714	101.521
144544	101.524
145378	101.528
146218	101.532
147062	101.537
147911	101.542
148765	101.548
149624	101.554
150487	101.561
151356	101.567
152230	101.575
153109	101.582
153993	101.59
154882	101.599
155776	101.608
156675	101.617
157580	101.626
158489	101.636
159404	101.647
160325	101.658
161250	101.669
162181	101.68
163117	101.692
164059	101.704
165006	101.717
165959	101.73
166917	101.743
167880	101.757
168850	101.771
169824	101.786
170805	101.8
171791	101.816
172783	101.831
173780	101.847
174783	101.863
175792	101.879
176807	101.896
177828	101.913
178855	101.931
179887	101.949
180926	101.967
181970	101.985
183021	102.004
184077	102.023
185140	102.043
186209	102.063
187284	102.083
188365	102.103
189452	102.124
190546	102.145
191646	102.166
192752	102.188
193865	102.21
194984	102.232
196110	102.254
197242	102.277
198381	102.3
199526	102.324
200678	102.347
201837	102.371
203002	102.395
204174	102.42
205353	102.445
206538	102.47
207730	102.495
208930	102.521
210136	102.547
211349	102.573
212569	102.599
213796	102.626
215030	102.653
216272	102.68
217520	102.707
218776	102.735
220039	102.763
221309	102.791
222587	102.82
223872	102.848
225165	102.877
226464	102.906
227772	102.936
229087	102.965
230409	102.995
231739	103.026
233077	103.056
234423	103.086
235776	103.117
237137	103.148
238506	103.18
239883	103.211
241268	103.243
242661	103.275
244062	103.307
245471	103.339
246888	103.372
248313	103.405
249747	103.438
251189	103.471
252639	103.504
254097	103.538
255564	103.572
257040	103.606
258523	103.64
260016	103.674
261517	103.709
263027	103.744
264545	103.779
266073	103.814
267609	103.85
269153	103.885
270707	103.921
272270	103.957
273842	103.993
275423	104.029
277013	104.066
278612	104.102
280221	104.139
281838	104.176
283465	104.214
285102	104.251
286748	104.289
288403	104.326
290068	104.364
291743	104.402
293427	104.44
295121	104.479
296825	104.517
298538	104.556
300262	104.595
301995	104.634
303739	104.673
305492	104.712
307256	104.752
309030	104.792
310814	104.831
312608	104.871
314413	104.911
316228	104.952
318053	104.992
319890	105.032
321736	105.073
323594	105.114
325462	105.155
327341	105.196
329230	105.237
331131	105.278
333043	105.32
334965	105.361
336899	105.403
338844	105.445
340800	105.487
342768	105.529
344747	105.571
346737	105.614
348739	105.656
350752	105.699
352777	105.742
354813	105.785
356862	105.828
358922	105.871
360994	105.914
363078	105.957
365174	106.001
367282	106.044
369403	106.088
371535	106.132
373680	106.176
375837	106.22
378007	106.264
380189	106.308
382384	106.352
384592	106.397
386812	106.441
389045	106.486
391291	106.53
393550	106.575
395822	106.62
398107	106.665
400405	106.71
402717	106.756
405042	106.801
407380	106.846
409732	106.892
412098	106.937
414477	106.983
416869	107.029
419276	107.075
421697	107.121
424131	107.167
426580	107.213
429042	107.259
431519	107.305
434010	107.352
436516	107.398
439036	107.445
441570	107.491
444120	107.538
446684	107.585
449262	107.631
451856	107.678
454465	107.725
457088	107.772
459727	107.819
462381	107.867
465050	107.914
467735	107.961
470435	108.009
473151	108.056
475883	108.104
478630	108.151
481393	108.199
484172	108.247
486968	108.295
489779	108.343
492606	108.39
495450	108.438
498310	108.487
501187	108.535
504081	108.583
506991	108.631
509918	108.679
512861	108.728
515822	108.776
518800	108.825
521795	108.873
524807	108.922
527837	108.97
530884	109.019
533949	109.068
537032	109.117
540132	109.166
543250	109.214
546387	109.263
549541	109.312
552713	109.362
555904	109.411
559114	109.46
562341	109.509
565588	109.558
568853	109.607
572137	109.657
575440	109.706
578762	109.756
582103	109.805
585464	109.855
588844	109.904
592243	109.954
595662	110.003
599101	110.053
602560	110.103
606038	110.152
609537	110.202
613056	110.252
616595	110.302
620155	110.352
623735	110.402
627336	110.452
630957	110.502
634600	110.552
638263	110.602
641948	110.652
645654	110.702
649382	110.752
653131	110.802
656901	110.853
660693	110.903
664508	110.953
668344	111.003
672202	111.054
676083	111.104
679986	111.154
683912	111.205
687860	111.255
691831	111.306
695825	111.356
699842	111.407
703882	111.457
707946	111.508
712033	111.559
716143	111.609
720278	111.66
724436	111.71
728618	111.761
732825	111.812
737055	111.863
741310	111.913
745590	111.964
749894	112.015
754223	112.066
758578	112.117
762957	112.167
767361	112.218
771792	112.269
776247	112.32
780728	112.371
785236	112.422
789769	112.473
794328	112.524
798914	112.575
803526	112.626
808165	112.677
812831	112.728
817523	112.779
822243	112.83
826990	112.881
831764	112.932
836566	112.983
841395	113.034
846253	113.085
851138	113.136
856052	113.187
860994	113.239
865964	113.29
870964	113.341
875992	113.392
881049	113.443
886135	113.494
891251	113.546
896396	113.597
901571	113.648
906776	113.699
912011	113.75
917276	113.802
922571	113.853
927897	113.904
933254	113.955
938642	114.007
944061	114.058
949511	114.109
954993	114.16
960506	114.212
966051	114.263
971628	114.314
977237	114.366
982879	114.417
988553	114.468
994260	114.519
1e+06	114.571
1.00577e+06	114.622
1.01158e+06	114.673
1.01742e+06	114.725
1.02329e+06	114.776
1.0292e+06	114.827
1.03514e+06	114.878
1.04112e+06	114.93
1.04713e+06	114.981
1.05317e+06	115.032
1.05925e+06	115.084
1.06537e+06	115.135
1.07152e+06	115.186
1.07771e+06	115.238
1.08393e+06	115.289
1.09018e+06	115.34
1.09648e+06	115.391
1.10281e+06	115.443
1.10917e+06	115.494
1.11558e+06	115.545
1.12202e+06	115.597
1.1285e+06	115.648
1.13501e+06	115.699
1.14156e+06	115.75
1.14815e+06	115.802
1.15478e+06	115.853
1.16145e+06	115.904
1.16815e+06	115.956
1.1749e+06	116.007
1.18168e+06	116.058
1.1885e+06	116.109
1.19536e+06	116.161
1.20226e+06	116.212
1.20921e+06	116.263
1.21619e+06	116.314
1.22321e+06	116.365
1.23027e+06	116.417
1.23737e+06	116.468
1.24451e+06	116.519
1.2517e+06	116.57
1.25893e+06	116.621
1.26619e+06	116.673
1.2735e+06	116.724
1.28086e+06	116.775
1.28825e+06	116.826
1.29569e+06	116.877
1.30317e+06	116.928
1.31069e+06	116.98
1.31826e+06	117.031
1.32587e+06	117.082
1.33352e+06	117.133
1.34122e+06	117.184
1.34896e+06	117.235
1.35675e+06	117.286
1.36458e+06	117.337
1.37246e+06	117.388
1.38038e+06	117.439
1.38835e+06	117.491
1.39637e+06	117.542
1.40443e+06	117.593
1.41254e+06	117.644
1.42069e+06	117.695
1.42889e+06	117.746
1.43714e+06	117.797
1.44544e+06	117.848
1.45378e+06	117.899
1.46218e+06	117.95
1.47062e+06	118.001
1.47911e+06	118.051
1.48765e+06	118.102
1.49624e+06	118.153
1.50487e+06	118.204
1.51356e+06	118.255
1.5223e+06	118.306
1.53109e+06	118.357
1.53993e+06	118.408
1.54882e+06	118.459
1.55776e+06	118.509
1.56675e+06	118.56
1.5758e+06	118.611
1.58489e+06	118.662
1.59404e+06	118.713
1.60325e+06	118.763
1.6125e+06	118.814
1.62181e+06	118.865
1.63117e+06	118.916
1.64059e+06	118.966
1.65006e+06	119.017
1.65959e+06	119.068
1.66917e+06	119.119
1.6788e+06	119.169
1.6885e+06	119.22
1.69824e+06	119.271
1.70805e+06	119.321
1.71791e+06	119.372
1.72783e+06	119.422
1.7378e+06	119.473
1.74783e+06	119.524
1.75792e+06	119.574
1.76807e+06	119.625
1.77828e+06	119.675
1.78855e+06	119.726
1.79887e+06	119.776
1.80926e+06	119.827
1.8197e+06	119.877
1.83021e+06	119.928
1.84077e+06	119.978
1.8514e+06	120.028
1.86209e+06	120.079
1.87284e+06	120.129
1.88365e+06	120.18
1.89452e+06	120.23
1.90546e+06	120.28
1.91646e+06	120.331
1.92752e+06	120.381
1.93865e+06	120.431
1.94984e+06	120.482
1.9611e+06	120.532
1.97242e+06	120.582
1.98381e+06	120.632
1.99526e+06	120.683
2.00678e+06	120.733
2.01837e+06	120.783
2.03002e+06	120.833
2.04174e+06	120.883
2.05353e+06	120.934
2.06538e+06	120.984
2.0773e+06	121.034
2.0893e+06	121.084
2.10136e+06	121.134
2.11349e+06	121.184
2.12569e+06	121.234
2.13796e+06	121.284
2.1503e+06	121.334
2.16272e+06	121.384
2.1752e+06	121.434
2.18776e+06	121.484
2.20039e+06	121.534
2.21309e+06	121.584
2.22587e+06	121.634
2.23872e+06	121.684
2.25165e+06	121.734
2.26464e+06	121.783
2.27772e+06	121.833
2.29087e+06	121.883
2.30409e+06	121.933
2.31739e+06	121.983
2.33077e+06	122.032
2.34423e+06	122.082
2.35776e+06	122.132
2.37137e+06	122.182
2.38506e+06	122.231
2.39883e+06	122.281
2.41268e+06	122.331
2.42661e+06	122.38
2.44062e+06	122.43
2.45471e+06	122.479
2.46888e+06	122.529
2.48313e+06	122.579
2.49747e+06	122.628
2.51189e+06	122.678
2.52639e+06	122.727
2.54097e+06	122.777
2.55564e+06	122.826
2.5704e+06	122.876
2.58523e+06	122.925
2.60016e+06	122.975
2.61517e+06	123.024
2.63027e+06	123.073
2.64545e+06	123.123
2.66073e+06	123.172
2.67609e+06	123.221
2.69153e+06	123.271
2.70707e+06	123.32
2.7227e+06	123.369
2.73842e+06	123.418
2.75423e+06	123.468
2.77013e+06	123.517
2.78612e+06	123.566
2.80221e+06	123.615
2.81838e+06	123.664
2.83465e+06	123.714
2.85102e+06	123.763
2.86748e+06	123.812
2.88403e+06	123.861
2.90068e+06	123.91
2.91743e+06	123.959
2.93427e+06	124.008
2.95121e+06	124.057
2.96825e+06	124.106
2.98538e+06	124.155
3.00262e+06	124.204
3.01995e+06	124.253
3.03739e+06	124.302
3.05492e+06	124.351
3.07256e+06	124.399
3.0903e+06	124.448
3.10814e+06	124.497
3.12608e+06	124.546
3.14413e+06	124.595
3.16228e+06	124.643
3.18053e+06	124.692
3.1989e+06	124.741
3.21736e+06	124.79
3.23594e+06	124.838
3.25462e+06	124.887
3.27341e+06	124.936
3.2923e+06	124.984
3.31131e+06	125.033
3.33043e+06	125.081
3.34965e+06	125.13
3.36899e+06	125.178
3.38844e+06	125.227
3.408e+06	125.276
3.42768e+06	125.324
3.44747e+06	125.372
3.46737e+06	125.421
3.48739e+06	125.469
3.50752e+06	125.518
3.52777e+06	125.566
3.54813e+06	125.614
3.56862e+06	125.663
3.58922e+06	125.711
3.60994e+06	125.759
3.63078e+06	125.808
3.65174e+06	125.856
3.67282e+06	125.904
3.69403e+06	125.952
3.71535e+06	126.001
3.7368e+06	126.049
3.75837e+06	126.097
3.78007e+06	126.145
3.80189e+06	126.193
3.82384e+06	126.241
3.84592e+06	126.289
3.86812e+06	126.337
3.89045e+06	126.385
3.91291e+06	126.433
3.9355e+06	126.481
3.95822e+06	126.529
3.98107e+06	126.577
4.00405e+06	126.625
4.02717e+06	126.673
4.05042e+06	126.721
4.0738e+06	126.769
4.09732e+06	126.817
4.12098e+06	126.865
4.14477e+06	126.912
4.16869e+06	126.96
4.19276e+06	127.008
4.21697e+06	127.056
4.24131e+06	127.103
4.2658e+06	127.151
4.29042e+06	127.199
4.31519e+06	127.246
4.3401e+06	127.294
4.36516e+06	127.342
4.39036e+06	127.389
4.4157e+06	127.437
4.4412e+06	127.484
4.46684e+06	127.532
4.49262e+06	127.579
4.51856e+06	127.627
4.54465e+06	127.674
4.57088e+06	127.722
4.59727e+06	127.769
4.62381e+06	127.817
4.6505e+06	127.864
4.67735e+06	127.911
4.70435e+06	127.959
4.73151e+06	128.006
4.75883e+06	128.053
4.7863e+06	128.101
4.81393e+06	128.148
4.84172e+06	128.195
4.86968e+06	128.242
4.89779e+06	128.289
4.92606e+06	128.337
4.9545e+06	128.384
4.9831e+06	128.431
5.01187e+06	128.478
5.04081e+06	128.525
5.06991e+06	128.572
5.09918e+06	128.619
5.12861e+06	128.666
5.15822e+06	128.713
5.188e+06	128.76
5.21795e+06	128.807
5.24807e+06	128.854
5.27837e+06	128.901
5.30884e+06	128.948
5.33949e+06	128.995
5.37032e+06	129.042
5.40132e+06	129.088
5.4325e+06	129.135
5.46387e+06	129.182
5.49541e+06	129.229
5.52713e+06	129.275
5.55904e+06	129.322
5.59114e+06	129.369
5.62341e+06	129.415
5.65588e+06	129.462
5.68853e+06	129.509
5.72137e+06	129.555
5.7544e+06	129.602
5.78762e+06	129.648
5.82103e+06	129.695
5.85464e+06	129.742
5.88844e+06	129.788
5.92243e+06	129.834
5.95662e+06	129.881
5.99101e+06	129.927
6.0256e+06	129.974
6.06038e+06	130.02
6.09537e+06	130.066
6.13056e+06	130.113
6.16595e+06	130.159
6.20155e+06	130.205
6.23735e+06	130.252
6.27336e+06	130.298
6.30957e+06	130.344
6.346e+06	130.39
6.38263e+06	130.437
6.41948e+06	130.483
6.45654e+06	130.529
6.49382e+06	130.575
6.53131e+06	130.621
6.56901e+06	130.667
6.60693e+06	130.713
6.64508e+06	130.759
6.68344e+06	130.805
6.72202e+06	130.851
6.76083e+06	130.897
6.79986e+06	130.943
6.83912e+06	130.989
6.8786e+06	131.035
6.91831e+06	131.081
6.95825e+06	131.127
6.99842e+06	131.172
7.03882e+06	131.218
7.07946e+06	131.264
7.12033e+06	131.31
7.16143e+06	131.356
7.20278e+06	131.401
7.24436e+06	131.447
7.28618e+06	131.493
7.32825e+06	131.538
7.37055e+06	131.584
7.4131e+06	131.629
7.4559e+06	131.675
7.49894e+06	131.721
7.54223e+06	131.766
7.58578e+06	131.812
7.62957e+06	131.857
7.67361e+06	131.903
7.71792e+06	131.948
7.76247e+06	131.993
7.80728e+06	132.039
7.85236e+06	132.084
7.89769e+06	132.13
7.94328e+06	132.175
7.98914e+06	132.22
8.03526e+06	132.266
8.08165e+06	132.311
8.12831e+06	132.356
8.17523e+06	132.401
8.22243e+06	132.446
8.2699e+06	132.492
8.31764e+06	132.537
8.36566e+06	132.582
8.41395e+06	132.627
8.46253e+06	132.672
8.51138e+06	132.717
8.56052e+06	132.762
8.60994e+06	132.807
8.65964e+06	132.852
8.70964e+06	132.897
8.75992e+06	132.942
8.81049e+06	132.987
8.86135e+06	133.032
8.91251e+06	133.077
8.96396e+06	133.122
9.01571e+06	133.166
9.06776e+06	133.211
9.12011e+06	133.256
9.17276e+06	133.301
9.22571e+06	133.345
9.27897e+06	133.39
9.33254e+06	133.435
9.38642e+06	133.479
9.44061e+06	133.524
9.49511e+06	133.569
9.54993e+06	133.613
9.60506e+06	133.658
9.66051e+06	133.702
9.71628e+06	133.747
9.77237e+06	133.791
9.82879e+06	133.836
9.88553e+06	133.88
9.9426e+06	133.925
1e+07	133.969
