Stopping power dEdx from Ionisation for V51[0.0] Z = 23 in Water, process name: ionIoni
E [MeV]	dEdx [MeV/mm]
0.001	23.0176
0.00100577	23.0844
0.00101158	23.1513
0.00101742	23.2184
0.00102329	23.2857
0.0010292	23.3532
0.00103514	23.4209
0.00104112	23.4888
0.00104713	23.5569
0.00105317	23.6252
0.00105925	23.6937
0.00106537	23.7623
0.00107152	23.8312
0.00107771	23.9003
0.00108393	23.9696
0.00109018	24.039
0.00109648	24.1087
0.00110281	24.1786
0.00110917	24.2487
0.00111558	24.319
0.00112202	24.3894
0.0011285	24.4601
0.00113501	24.531
0.00114156	24.6021
0.00114815	24.6734
0.00115478	24.7449
0.00116145	24.8166
0.00116815	24.8885
0.0011749	24.9607
0.00118168	25.033
0.0011885	25.1055
0.00119536	25.1783
0.00120226	25.2512
0.00120921	25.3244
0.00121619	25.3978
0.00122321	25.4714
0.00123027	25.5452
0.00123737	25.6192
0.00124451	25.6934
0.0012517	25.7679
0.00125893	25.8425
0.00126619	25.9174
0.0012735	25.9925
0.00128086	26.0678
0.00128825	26.1433
0.00129569	26.2191
0.00130317	26.295
0.00131069	26.3712
0.00131826	26.4476
0.00132587	26.5242
0.00133352	26.6011
0.00134122	26.6781
0.00134896	26.7554
0.00135675	26.8329
0.00136458	26.9107
0.00137246	26.9886
0.00138038	27.0668
0.00138835	27.1452
0.00139637	27.2238
0.00140443	27.3027
0.00141254	27.3818
0.00142069	27.4611
0.00142889	27.5406
0.00143714	27.6204
0.00144544	27.7004
0.00145378	27.7806
0.00146218	27.8611
0.00147062	27.9418
0.00147911	28.0227
0.00148765	28.1038
0.00149624	28.1852
0.00150487	28.2669
0.00151356	28.3487
0.0015223	28.4308
0.00153109	28.5132
0.00153993	28.5957
0.00154882	28.6785
0.00155776	28.7616
0.00156675	28.8449
0.0015758	28.9284
0.00158489	29.0122
0.00159404	29.0962
0.00160325	29.1804
0.0016125	29.2649
0.00162181	29.3497
0.00163117	29.4346
0.00164059	29.5199
0.00165006	29.6053
0.00165959	29.6911
0.00166917	29.777
0.0016788	29.8632
0.0016885	29.9497
0.00169824	30.0364
0.00170805	30.1234
0.00171791	30.2106
0.00172783	30.2981
0.0017378	30.3858
0.00174783	30.4738
0.00175792	30.562
0.00176807	30.6505
0.00177828	30.7392
0.00178855	30.8282
0.00179887	30.9174
0.00180926	31.0069
0.0018197	31.0967
0.00183021	31.1867
0.00184077	31.277
0.0018514	31.3675
0.00186209	31.4583
0.00187284	31.5494
0.00188365	31.6407
0.00189452	31.7323
0.00190546	31.8241
0.00191646	31.9163
0.00192752	32.0086
0.00193865	32.1013
0.00194984	32.1942
0.0019611	32.2874
0.00197242	32.3808
0.00198381	32.4745
0.00199526	32.5685
0.00200678	32.6628
0.00201837	32.7573
0.00203002	32.8521
0.00204174	32.9472
0.00205353	33.0426
0.00206538	33.1382
0.0020773	33.2341
0.0020893	33.3303
0.00210136	33.4267
0.00211349	33.5235
0.00212569	33.6205
0.00213796	33.7178
0.0021503	33.8153
0.00216272	33.9132
0.0021752	34.0113
0.00218776	34.1098
0.00220039	34.2085
0.00221309	34.3075
0.00222587	34.4067
0.00223872	34.5063
0.00225165	34.6061
0.00226464	34.7063
0.00227772	34.8067
0.00229087	34.9074
0.00230409	35.0084
0.00231739	35.1097
0.00233077	35.2113
0.00234423	35.3132
0.00235776	35.4153
0.00237137	35.5178
0.00238506	35.6206
0.00239883	35.7236
0.00241268	35.827
0.00242661	35.9306
0.00244062	36.0346
0.00245471	36.1388
0.00246888	36.2434
0.00248313	36.3482
0.00249747	36.4534
0.00251189	36.5588
0.00252639	36.6646
0.00254097	36.7707
0.00255564	36.8771
0.0025704	36.9837
0.00258523	37.0907
0.00260016	37.198
0.00261517	37.3056
0.00263027	37.4135
0.00264545	37.5218
0.00266073	37.6303
0.00267609	37.7392
0.00269153	37.8483
0.00270707	37.9578
0.0027227	38.0676
0.00273842	38.1777
0.00275423	38.2881
0.00277013	38.3989
0.00278612	38.5099
0.00280221	38.6213
0.00281838	38.733
0.00283465	38.8451
0.00285102	38.9574
0.00286748	39.0701
0.00288403	39.1831
0.00290068	39.2964
0.00291743	39.4101
0.00293427	39.5241
0.00295121	39.6384
0.00296825	39.753
0.00298538	39.868
0.00300262	39.9833
0.00301995	40.0989
0.00303739	40.2149
0.00305492	40.3312
0.00307256	40.4478
0.0030903	40.5648
0.00310814	40.6821
0.00312608	40.7997
0.00314413	40.9177
0.00316228	41.0361
0.00318053	41.1547
0.0031989	41.2737
0.00321736	41.3931
0.00323594	41.5128
0.00325462	41.6328
0.00327341	41.7532
0.0032923	41.8739
0.00331131	41.995
0.00333043	42.1165
0.00334965	42.2382
0.00336899	42.3604
0.00338844	42.4829
0.003408	42.6057
0.00342768	42.7289
0.00344747	42.8524
0.00346737	42.9763
0.00348739	43.1006
0.00350752	43.2252
0.00352777	43.3502
0.00354813	43.4755
0.00356862	43.6012
0.00358922	43.7273
0.00360994	43.8537
0.00363078	43.9805
0.00365174	44.1077
0.00367282	44.2352
0.00369403	44.3631
0.00371535	44.4913
0.0037368	44.62
0.00375837	44.749
0.00378007	44.8783
0.00380189	45.0081
0.00382384	45.1382
0.00384592	45.2687
0.00386812	45.3995
0.00389045	45.5308
0.00391291	45.6624
0.0039355	45.7944
0.00395822	45.9268
0.00398107	46.0596
0.00400405	46.1927
0.00402717	46.3262
0.00405042	46.4602
0.0040738	46.5945
0.00409732	46.7291
0.00412098	46.8642
0.00414477	46.9997
0.00416869	47.1355
0.00419276	47.2718
0.00421697	47.4084
0.00424131	47.5455
0.0042658	47.6829
0.00429042	47.8207
0.00431519	47.959
0.0043401	48.0976
0.00436516	48.2366
0.00439036	48.376
0.0044157	48.5158
0.0044412	48.6561
0.00446684	48.7967
0.00449262	48.9377
0.00451856	49.0792
0.00454465	49.221
0.00457088	49.3633
0.00459727	49.506
0.00462381	49.649
0.0046505	49.7925
0.00467735	49.9364
0.00470435	50.0808
0.00473151	50.2255
0.00475883	50.3707
0.0047863	50.5162
0.00481393	50.6622
0.00484172	50.8086
0.00486968	50.9555
0.00489779	51.1027
0.00492606	51.2504
0.0049545	51.3985
0.0049831	51.5471
0.00501187	51.696
0.00504081	51.8454
0.00506991	51.9952
0.00509918	52.1455
0.00512861	52.2962
0.00515822	51.5368
0.005188	51.6856
0.00521795	51.8348
0.00524807	51.9844
0.00527837	52.1344
0.00530884	52.2849
0.00533949	52.4358
0.00537032	52.5872
0.00540132	52.739
0.0054325	52.8912
0.00546387	53.0439
0.00549541	53.197
0.00552713	53.3506
0.00555904	53.5046
0.00559114	53.659
0.00562341	53.8139
0.00565588	53.9692
0.00568853	54.125
0.00572137	54.2813
0.0057544	54.4379
0.00578762	54.5951
0.00582103	54.7527
0.00585464	54.9107
0.00588844	55.0692
0.00592243	55.2282
0.00595662	55.3876
0.00599101	55.5475
0.0060256	55.7079
0.00606038	55.8687
0.00609537	56.03
0.00613056	56.1917
0.00616595	56.3539
0.00620155	56.5166
0.00623735	56.6798
0.00627336	56.8434
0.00630957	57.0075
0.006346	57.1721
0.00638263	57.3371
0.00641948	57.5026
0.00645654	57.6686
0.00649382	57.8351
0.00653131	58.0021
0.00656901	58.1695
0.00660693	58.3375
0.00664508	58.5059
0.00668344	58.6748
0.00672202	58.8442
0.00676083	59.0141
0.00679986	59.1844
0.00683912	59.3553
0.0068786	59.5267
0.00691831	59.6985
0.00695825	59.8709
0.00699842	60.0437
0.00703882	60.2171
0.00707946	60.3909
0.00712033	60.5653
0.00716143	60.7401
0.00720278	60.9155
0.00724436	61.0914
0.00728618	61.2678
0.00732825	61.4447
0.00737055	61.6221
0.0074131	61.8
0.0074559	61.9784
0.00749894	62.1574
0.00754223	62.3368
0.00758578	62.5168
0.00762957	62.6973
0.00767361	62.8783
0.00771792	63.0599
0.00776247	63.2419
0.00780728	63.4245
0.00785236	63.6077
0.00789769	63.7913
0.00794328	63.9755
0.00798914	64.1602
0.00803526	64.3455
0.00808165	64.5313
0.00812831	64.7176
0.00817523	64.9045
0.00822243	65.0919
0.0082699	65.2799
0.00831764	65.4684
0.00836566	65.6574
0.00841395	65.847
0.00846253	66.0371
0.00851138	66.2278
0.00856052	66.419
0.00860994	66.6108
0.00865964	66.8032
0.00870964	66.9961
0.00875992	67.1895
0.00881049	67.3836
0.00886135	67.5781
0.00891251	67.7733
0.00896396	67.969
0.00901571	68.1653
0.00906776	68.3621
0.00912011	68.5595
0.00917276	68.7575
0.00922571	68.9561
0.00927897	69.1552
0.00933254	69.3549
0.00938642	69.5552
0.00944061	69.756
0.00949511	69.9575
0.00954993	70.1595
0.00960506	70.3621
0.00966051	70.5653
0.00971628	70.7691
0.00977237	70.9735
0.00982879	71.1784
0.00988553	71.384
0.0099426	71.5902
0.01	71.7969
0.0100577	72.0043
0.0101158	72.2122
0.0101742	72.4208
0.0102329	72.6299
0.010292	72.8397
0.0103514	73.05
0.0104112	73.261
0.0104713	73.4726
0.0105317	73.6848
0.0105925	73.8976
0.0106537	74.111
0.0107152	74.3251
0.0107771	74.5398
0.0108393	74.755
0.0109018	74.971
0.0109648	75.1875
0.0110281	75.4046
0.0110917	75.6224
0.0111558	75.8409
0.0112202	76.0599
0.011285	76.2796
0.0113501	76.4999
0.0114156	76.7209
0.0114815	76.9425
0.0115478	77.1647
0.0116145	77.3876
0.0116815	77.6111
0.011749	77.8353
0.0118168	78.0601
0.011885	78.2856
0.0119536	78.5117
0.0120226	78.7385
0.0120921	78.966
0.0121619	79.1941
0.0122321	79.4228
0.0123027	79.6522
0.0123737	79.8823
0.0124451	80.1131
0.012517	80.3445
0.0125893	80.5766
0.0126619	80.8093
0.012735	81.0428
0.0128086	81.2769
0.0128825	81.5117
0.0129569	81.7471
0.0130317	81.9833
0.0131069	82.2201
0.0131826	82.4576
0.0132587	82.6958
0.0133352	82.9347
0.0134122	83.1743
0.0134896	83.4146
0.0135675	83.6556
0.0136458	83.8973
0.0137246	84.1396
0.0138038	84.3827
0.0138835	84.6265
0.0139637	84.871
0.0140443	85.1162
0.0141254	85.3621
0.0142069	85.6087
0.0142889	85.856
0.0143714	86.1041
0.0144544	86.3528
0.0145378	86.6023
0.0146218	86.8525
0.0147062	87.1035
0.0147911	87.3551
0.0148765	87.6075
0.0149624	87.8606
0.0150487	88.1145
0.0151356	88.3691
0.015223	88.6244
0.0153109	88.8804
0.0153993	89.1372
0.0154882	89.3948
0.0155776	89.6531
0.0156675	89.9121
0.015758	90.1719
0.0158489	90.4325
0.0159404	90.6938
0.0160325	90.9558
0.016125	91.2186
0.0162181	91.4822
0.0163117	91.7466
0.0164059	92.0117
0.0165006	92.2775
0.0165959	92.5442
0.0166917	92.8116
0.016788	93.0798
0.016885	93.3488
0.0169824	93.6185
0.0170805	93.889
0.0171791	94.1604
0.0172783	94.4324
0.017378	94.7053
0.0174783	94.979
0.0175792	95.2535
0.0176807	95.5287
0.0177828	95.8048
0.0178855	96.0817
0.0179887	96.3593
0.0180926	96.6378
0.018197	96.9171
0.0183021	97.1972
0.0184077	97.4781
0.018514	97.7598
0.0186209	98.0423
0.0187284	98.3257
0.0188365	98.6098
0.0189452	98.8948
0.0190546	99.1806
0.0191646	99.4673
0.0192752	99.7547
0.0193865	100.043
0.0194984	100.332
0.019611	100.622
0.0197242	100.913
0.0198381	101.205
0.0199526	101.497
0.0200678	101.791
0.0201837	102.085
0.0203002	102.38
0.0204174	102.676
0.0205353	102.972
0.0206538	103.27
0.020773	103.569
0.020893	103.868
0.0210136	104.168
0.0211349	104.469
0.0212569	104.771
0.0213796	105.074
0.021503	105.378
0.0216272	105.682
0.021752	105.988
0.0218776	106.294
0.0220039	106.602
0.0221309	106.91
0.0222587	107.219
0.0223872	107.529
0.0225165	107.84
0.0226464	108.151
0.0227772	108.464
0.0229087	108.778
0.0230409	109.092
0.0231739	109.407
0.0233077	109.724
0.0234423	110.041
0.0235776	110.359
0.0237137	110.678
0.0238506	110.998
0.0239883	111.319
0.0241268	111.641
0.0242661	111.963
0.0244062	112.287
0.0245471	112.612
0.0246888	112.937
0.0248313	113.264
0.0249747	113.591
0.0251189	113.92
0.0252639	114.249
0.0254097	114.58
0.0255564	114.911
0.025704	115.243
0.0258523	115.576
0.0260016	115.91
0.0261517	116.246
0.0263027	116.582
0.0264545	116.919
0.0266073	117.257
0.0267609	117.596
0.0269153	117.936
0.0270707	118.277
0.027227	118.619
0.0273842	118.962
0.0275423	119.306
0.0277013	119.651
0.0278612	119.997
0.0280221	120.344
0.0281838	120.692
0.0283465	121.041
0.0285102	121.391
0.0286748	121.742
0.0288403	122.094
0.0290068	122.447
0.0291743	122.801
0.0293427	123.156
0.0295121	123.513
0.0296825	123.87
0.0298538	124.228
0.0300262	124.587
0.0301995	124.948
0.0303739	125.309
0.0305492	125.671
0.0307256	126.035
0.030903	126.399
0.0310814	126.765
0.0312608	127.132
0.0314413	127.499
0.0316228	127.868
0.0318053	128.238
0.031989	128.609
0.0321736	128.981
0.0323594	129.354
0.0325462	129.728
0.0327341	130.103
0.032923	130.48
0.0331131	130.857
0.0333043	131.236
0.0334965	131.615
0.0336899	131.996
0.0338844	132.378
0.03408	132.761
0.0342768	133.145
0.0344747	133.53
0.0346737	133.916
0.0348739	134.303
0.0350752	134.692
0.0352777	135.082
0.0354813	135.472
0.0356862	135.864
0.0358922	136.257
0.0360994	136.652
0.0363078	137.047
0.0365174	137.443
0.0367282	137.841
0.0369403	138.24
0.0371535	138.64
0.037368	139.041
0.0375837	139.443
0.0378007	139.847
0.0380189	140.251
0.0382384	140.657
0.0384592	141.064
0.0386812	141.472
0.0389045	141.881
0.0391291	142.292
0.039355	142.704
0.0395822	143.117
0.0398107	143.531
0.0400405	143.946
0.0402717	144.363
0.0405042	144.78
0.040738	145.199
0.0409732	145.619
0.0412098	146.041
0.0414477	146.463
0.0416869	146.887
0.0419276	147.312
0.0421697	147.739
0.0424131	148.166
0.042658	148.595
0.0429042	149.025
0.0431519	149.456
0.043401	149.889
0.0436516	150.322
0.0439036	150.758
0.044157	151.194
0.044412	151.631
0.0446684	152.07
0.0449262	152.51
0.0451856	152.952
0.0454465	153.394
0.0457088	153.838
0.0459727	154.284
0.0462381	154.73
0.046505	155.178
0.0467735	155.627
0.0470435	156.078
0.0473151	156.53
0.0475883	156.983
0.047863	157.437
0.0481393	157.893
0.0484172	158.35
0.0486968	158.808
0.0489779	159.268
0.0492606	159.729
0.049545	160.191
0.049831	160.655
0.0501187	161.12
0.0504081	161.586
0.0506991	162.054
0.0509918	162.523
0.0512861	162.994
0.0515822	163.466
0.05188	163.939
0.0521795	164.414
0.0524807	164.89
0.0527837	165.367
0.0530884	165.846
0.0533949	166.326
0.0537032	166.808
0.0540132	167.291
0.054325	167.775
0.0546387	168.261
0.0549541	168.748
0.0552713	169.236
0.0555904	169.727
0.0559114	170.218
0.0562341	170.711
0.0565588	171.205
0.0568853	171.701
0.0572137	172.198
0.057544	172.697
0.0578762	173.197
0.0582103	173.698
0.0585464	174.201
0.0588844	174.706
0.0592243	175.212
0.0595662	175.719
0.0599101	176.228
0.060256	176.738
0.0606038	177.25
0.0609537	177.764
0.0613056	178.279
0.0616595	178.795
0.0620155	179.313
0.0623735	179.832
0.0627336	180.353
0.0630957	180.875
0.06346	181.399
0.0638263	181.925
0.0641948	182.451
0.0645654	182.98
0.0649382	183.51
0.0653131	184.042
0.0656901	184.575
0.0660693	185.109
0.0664508	185.646
0.0668344	186.183
0.0672202	186.723
0.0676083	187.264
0.0679986	187.806
0.0683912	188.35
0.068786	188.896
0.0691831	189.443
0.0695825	189.992
0.0699842	190.542
0.0703882	191.094
0.0707946	191.648
0.0712033	192.203
0.0716143	192.76
0.0720278	193.319
0.0724436	193.879
0.0728618	194.44
0.0732825	195.004
0.0737055	195.569
0.074131	196.135
0.074559	196.704
0.0749894	197.274
0.0754223	197.845
0.0758578	198.419
0.0762957	198.994
0.0767361	199.57
0.0771792	200.149
0.0776247	200.729
0.0780728	201.31
0.0785236	201.894
0.0789769	202.479
0.0794328	203.066
0.0798914	203.654
0.0803526	204.244
0.0808165	204.836
0.0812831	205.43
0.0817523	206.025
0.0822243	206.622
0.082699	207.221
0.0831764	207.822
0.0836566	208.424
0.0841395	209.028
0.0846253	209.634
0.0851138	210.242
0.0856052	210.851
0.0860994	211.463
0.0865964	212.076
0.0870964	212.69
0.0875992	213.307
0.0881049	213.925
0.0886135	214.545
0.0891251	215.167
0.0896396	215.791
0.0901571	216.417
0.0906776	217.044
0.0912011	217.673
0.0917276	218.304
0.0922571	218.937
0.0927897	219.572
0.0933254	220.209
0.0938642	220.847
0.0944061	221.488
0.0949511	222.13
0.0954993	222.774
0.0960506	223.42
0.0966051	224.068
0.0971628	224.717
0.0977237	225.369
0.0982879	226.023
0.0988553	226.678
0.099426	227.335
0.1	227.995
0.100577	228.656
0.101158	229.319
0.101742	229.984
0.102329	230.651
0.10292	231.32
0.103514	231.991
0.104112	232.664
0.104713	233.338
0.105317	234.015
0.105925	234.694
0.106537	235.375
0.107152	236.057
0.107771	236.742
0.108393	237.429
0.109018	238.118
0.109648	238.808
0.110281	239.501
0.110917	240.196
0.111558	240.893
0.112202	241.591
0.11285	242.292
0.113501	242.995
0.114156	243.7
0.114815	244.407
0.115478	245.116
0.116145	245.827
0.116815	246.541
0.11749	247.256
0.118168	247.973
0.11885	248.693
0.119536	249.414
0.120226	250.138
0.120921	250.864
0.121619	251.592
0.122321	252.322
0.123027	253.054
0.123737	253.788
0.124451	254.525
0.12517	255.264
0.125893	256.004
0.126619	256.747
0.12735	257.492
0.128086	258.24
0.128825	258.989
0.129569	259.741
0.130317	260.495
0.131069	261.251
0.131826	262.009
0.132587	262.77
0.133352	263.532
0.134122	264.297
0.134896	265.065
0.135675	265.834
0.136458	266.606
0.137246	267.38
0.138038	268.156
0.138835	268.934
0.139637	269.715
0.140443	270.498
0.141254	271.283
0.142069	272.071
0.142889	272.861
0.143714	273.653
0.144544	274.448
0.145378	275.245
0.146218	276.044
0.147062	276.845
0.147911	277.649
0.148765	278.455
0.149624	279.264
0.150487	280.075
0.151356	280.888
0.15223	281.704
0.153109	282.522
0.153993	283.342
0.154882	284.165
0.155776	284.991
0.156675	285.818
0.15758	286.648
0.158489	287.481
0.159404	288.316
0.160325	289.153
0.16125	289.993
0.162181	290.836
0.163117	291.68
0.164059	292.528
0.165006	293.377
0.165959	294.23
0.166917	295.084
0.16788	295.942
0.16885	296.801
0.169824	297.664
0.170805	298.528
0.171791	299.396
0.172783	300.266
0.17378	301.138
0.174783	302.013
0.175792	302.891
0.176807	303.771
0.177828	304.653
0.178855	305.539
0.179887	306.426
0.180926	307.317
0.18197	308.21
0.183021	309.106
0.184077	310.004
0.18514	310.905
0.186209	311.808
0.187284	312.715
0.188365	313.623
0.189452	314.535
0.190546	315.449
0.191646	316.366
0.192752	317.286
0.193865	318.208
0.194984	319.133
0.19611	320.061
0.197242	320.991
0.198381	321.924
0.199526	322.86
0.200678	323.799
0.201837	324.74
0.203002	325.684
0.204174	326.631
0.205353	327.581
0.206538	328.533
0.20773	329.488
0.20893	330.446
0.210136	331.407
0.211349	332.371
0.212569	333.337
0.213796	334.307
0.21503	335.279
0.216272	336.254
0.21752	337.232
0.218776	338.212
0.220039	339.196
0.221309	340.182
0.222587	341.172
0.223872	342.164
0.225165	343.159
0.226464	344.158
0.227772	345.159
0.229087	346.163
0.230409	347.17
0.231739	348.179
0.233077	349.192
0.234423	350.208
0.235776	351.227
0.237137	352.249
0.238506	353.274
0.239883	354.301
0.241268	355.332
0.242661	356.366
0.244062	357.403
0.245471	358.443
0.246888	359.486
0.248313	360.532
0.249747	361.581
0.251189	362.633
0.252639	363.689
0.254097	364.747
0.255564	365.809
0.25704	366.873
0.258523	367.941
0.260016	369.012
0.261517	370.086
0.263027	371.163
0.264545	372.243
0.266073	373.327
0.267609	374.414
0.269153	375.504
0.270707	376.597
0.27227	377.693
0.273842	378.793
0.275423	379.895
0.277013	381.001
0.278612	382.111
0.280221	383.223
0.281838	384.339
0.283465	385.458
0.285102	386.58
0.286748	387.706
0.288403	388.835
0.290068	389.967
0.291743	391.103
0.293427	392.242
0.295121	393.384
0.296825	394.53
0.298538	395.679
0.300262	396.832
0.301995	397.987
0.303739	399.147
0.305492	400.309
0.307256	401.475
0.30903	402.645
0.310814	403.818
0.312608	404.994
0.314413	406.174
0.316228	407.357
0.318053	408.544
0.31989	409.734
0.321736	410.928
0.323594	412.125
0.325462	413.326
0.327341	414.531
0.32923	415.739
0.331131	416.95
0.333043	418.165
0.334965	419.384
0.336899	420.606
0.338844	421.832
0.3408	423.061
0.342768	424.294
0.344747	425.531
0.346737	426.771
0.348739	428.015
0.350752	429.263
0.352777	430.514
0.354813	431.769
0.356862	433.028
0.358922	434.29
0.360994	435.556
0.363078	436.826
0.365174	438.1
0.367282	439.377
0.369403	440.658
0.371535	441.943
0.37368	443.232
0.375837	444.524
0.378007	445.821
0.380189	447.121
0.382384	448.425
0.384592	449.732
0.386812	451.044
0.389045	452.36
0.391291	453.679
0.39355	455.002
0.395822	456.329
0.398107	457.661
0.400405	458.996
0.402717	460.335
0.405042	461.678
0.40738	463.024
0.409732	464.375
0.412098	465.73
0.414477	467.089
0.416869	468.452
0.419276	469.819
0.421697	471.19
0.424131	472.565
0.42658	473.944
0.429042	475.327
0.431519	476.714
0.43401	478.105
0.436516	479.501
0.439036	480.9
0.44157	482.304
0.44412	483.712
0.446684	485.124
0.449262	486.54
0.451856	487.96
0.454465	489.385
0.457088	490.813
0.459727	492.246
0.462381	493.683
0.46505	495.125
0.467735	496.57
0.470435	498.02
0.473151	499.475
0.475883	500.933
0.47863	502.396
0.481393	503.863
0.484172	505.335
0.486968	506.811
0.489779	508.291
0.492606	509.775
0.49545	511.264
0.49831	512.758
0.501187	514.256
0.504081	515.758
0.506991	517.265
0.509918	518.776
0.512861	520.291
0.515822	521.811
0.5188	523.336
0.521795	524.865
0.524807	526.399
0.527837	527.937
0.530884	529.48
0.533949	531.027
0.537032	532.579
0.540132	534.135
0.54325	535.697
0.546387	537.262
0.549541	538.833
0.552713	540.408
0.555904	541.987
0.559114	543.572
0.562341	545.161
0.565588	546.754
0.568853	548.353
0.572137	549.956
0.57544	551.564
0.578762	553.177
0.582103	554.794
0.585464	556.417
0.588844	558.044
0.592243	559.676
0.595662	561.312
0.599101	562.954
0.60256	564.6
0.606038	566.252
0.609537	567.908
0.613056	569.569
0.616595	571.235
0.620155	572.906
0.623735	574.582
0.627336	576.263
0.630957	577.949
0.6346	579.64
0.638263	581.336
0.641948	583.037
0.645654	584.743
0.649382	586.454
0.653131	588.171
0.656901	589.892
0.660693	591.618
0.664508	593.35
0.668344	595.087
0.672202	596.828
0.676083	598.575
0.679986	600.328
0.683912	602.085
0.68786	603.848
0.691831	605.616
0.695825	607.389
0.699842	609.167
0.703882	610.951
0.707946	612.74
0.712033	614.534
0.716143	616.333
0.720278	618.138
0.724436	619.949
0.728618	621.764
0.732825	623.586
0.737055	625.412
0.74131	627.244
0.74559	629.081
0.749894	630.924
0.754223	632.773
0.758578	634.626
0.762957	636.486
0.767361	638.351
0.771792	640.221
0.776247	642.097
0.780728	643.979
0.785236	645.866
0.789769	647.759
0.794328	649.657
0.798914	651.561
0.803526	653.471
0.808165	655.386
0.812831	657.308
0.817523	659.234
0.822243	661.167
0.82699	663.105
0.831764	665.049
0.836566	666.999
0.841395	668.955
0.846253	670.917
0.851138	672.884
0.856052	674.857
0.860994	676.836
0.865964	678.821
0.870964	680.812
0.875992	682.809
0.881049	684.812
0.886135	686.821
0.891251	688.836
0.896396	690.857
0.901571	692.883
0.906776	694.916
0.912011	696.955
0.917276	699
0.922571	701.051
0.927897	703.109
0.933254	705.172
0.938642	707.242
0.944061	709.317
0.949511	711.399
0.954993	713.487
0.960506	715.582
0.966051	717.682
0.971628	719.789
0.977237	721.902
0.982879	724.022
0.988553	726.148
0.99426	728.28
1	730.418
1.00577	732.563
1.01158	734.715
1.01742	736.872
1.02329	739.037
1.0292	741.207
1.03514	743.385
1.04112	745.568
1.04713	747.758
1.05317	749.955
1.05925	752.159
1.06537	754.368
1.07152	756.585
1.07771	758.808
1.08393	761.038
1.09018	763.274
1.09648	765.518
1.10281	767.767
1.10917	770.024
1.11558	772.287
1.12202	774.557
1.1285	776.834
1.13501	779.118
1.14156	781.409
1.14815	783.706
1.15478	786.01
1.16145	788.322
1.16815	790.64
1.1749	792.965
1.18168	795.297
1.1885	797.636
1.19536	799.982
1.20226	802.335
1.20921	804.695
1.21619	807.062
1.22321	809.437
1.23027	811.818
1.23737	814.207
1.24451	816.602
1.2517	819.005
1.25893	821.415
1.26619	823.833
1.2735	826.257
1.28086	828.783
1.28825	831.343
1.29569	833.916
1.30317	836.502
1.31069	839.102
1.31826	841.716
1.32587	844.344
1.33352	846.985
1.34122	849.641
1.34896	852.31
1.35675	854.994
1.36458	857.691
1.37246	860.403
1.38038	863.129
1.38835	865.869
1.39637	868.623
1.40443	871.392
1.41254	874.175
1.42069	876.972
1.42889	879.785
1.43714	882.611
1.44544	885.453
1.45378	888.309
1.46218	891.179
1.47062	894.065
1.47911	896.966
1.48765	899.881
1.49624	902.811
1.50487	905.757
1.51356	908.717
1.5223	911.693
1.53109	914.669
1.53993	917.574
1.54882	920.494
1.55776	923.429
1.56675	926.379
1.5758	929.343
1.58489	932.323
1.59404	935.317
1.60325	938.326
1.6125	941.351
1.62181	944.39
1.63117	947.445
1.64059	950.515
1.65006	953.6
1.65959	956.701
1.66917	959.816
1.6788	962.948
1.6885	966.094
1.69824	969.256
1.70805	972.434
1.71791	975.627
1.72783	978.835
1.7378	982.06
1.74783	985.3
1.75792	988.555
1.76807	991.827
1.77828	995.114
1.78855	998.417
1.79887	1001.74
1.80926	1005.07
1.8197	1008.42
1.83021	1011.79
1.84077	1015.17
1.8514	1018.57
1.86209	1021.99
1.87284	1025.42
1.88365	1028.86
1.89452	1032.33
1.90546	1035.81
1.91646	1039.3
1.92752	1042.82
1.93865	1046.34
1.94984	1049.89
1.9611	1053.45
1.97242	1057.03
1.98381	1060.62
1.99526	1064.23
2.00678	1067.86
2.01837	1071.5
2.03002	1075.16
2.04174	1078.83
2.05353	1082.5
2.06538	1086.18
2.0773	1089.88
2.0893	1093.59
2.10136	1097.33
2.11349	1101.08
2.12569	1104.84
2.13796	1108.62
2.1503	1112.42
2.16272	1116.24
2.1752	1120.07
2.18776	1123.92
2.20039	1127.79
2.21309	1131.68
2.22587	1135.58
2.23872	1139.5
2.25165	1143.44
2.26464	1147.4
2.27772	1151.37
2.29087	1155.37
2.30409	1159.38
2.31739	1163.41
2.33077	1167.45
2.34423	1171.52
2.35776	1175.6
2.37137	1179.71
2.38506	1183.83
2.39883	1187.97
2.41268	1192.13
2.42661	1196.31
2.44062	1200.5
2.45471	1204.72
2.46888	1208.96
2.48313	1213.22
2.49747	1217.49
2.51189	1221.79
2.52639	1226.1
2.54097	1230.44
2.55564	1234.79
2.5704	1239.17
2.58523	1243.57
2.60016	1247.98
2.61517	1252.42
2.63027	1256.88
2.64545	1261.36
2.66073	1265.85
2.67609	1270.37
2.69153	1274.91
2.70707	1279.47
2.7227	1284.06
2.73842	1288.66
2.75423	1293.28
2.77013	1297.93
2.78612	1302.59
2.80221	1307.28
2.81838	1311.99
2.83465	1316.72
2.85102	1321.47
2.86748	1326.24
2.88403	1331.03
2.90068	1335.85
2.91743	1340.68
2.93427	1345.54
2.95121	1350.42
2.96825	1355.32
2.98538	1360.24
3.00262	1365.18
3.01995	1370.15
3.03739	1375.13
3.05492	1380.14
3.07256	1385.17
3.0903	1390.22
3.10814	1395.29
3.12608	1400.39
3.14413	1405.5
3.16228	1410.64
3.18053	1415.8
3.1989	1420.98
3.21736	1426.19
3.23594	1431.41
3.25462	1436.66
3.27341	1441.93
3.2923	1447.22
3.31131	1452.54
3.33043	1457.87
3.34965	1463.23
3.36899	1468.61
3.38844	1474.02
3.408	1479.44
3.42768	1484.89
3.44747	1490.36
3.46737	1495.85
3.48739	1501.36
3.50752	1506.9
3.52777	1512.46
3.54813	1518.04
3.56862	1523.64
3.58922	1529.27
3.60994	1534.92
3.63078	1540.59
3.65174	1546.28
3.67282	1551.99
3.69403	1557.73
3.71535	1563.49
3.7368	1569.27
3.75837	1575.08
3.78007	1580.9
3.80189	1586.75
3.82384	1592.62
3.84592	1598.51
3.86812	1604.43
3.89045	1610.37
3.91291	1616.33
3.9355	1622.31
3.95822	1628.31
3.98107	1634.34
4.00405	1640.38
4.02717	1646.45
4.05042	1652.54
4.0738	1658.65
4.09732	1664.79
4.12098	1670.94
4.14477	1677.12
4.16869	1683.32
4.19276	1689.54
4.21697	1695.79
4.24131	1702.05
4.2658	1708.33
4.29042	1714.64
4.31519	1720.97
4.3401	1727.32
4.36516	1733.69
4.39036	1740.08
4.4157	1746.49
4.4412	1752.93
4.46684	1759.38
4.49262	1765.86
4.51856	1772.35
4.54465	1778.87
4.57088	1785.41
4.59727	1791.97
4.62381	1798.54
4.6505	1805.14
4.67735	1811.76
4.70435	1818.4
4.73151	1825.06
4.75883	1831.74
4.7863	1838.44
4.81393	1845.16
4.84172	1851.9
4.86968	1858.65
4.89779	1865.43
4.92606	1872.23
4.9545	1879.05
4.9831	1885.88
5.01187	1892.74
5.04081	1899.61
5.06991	1906.5
5.09918	1913.42
5.12861	1920.35
5.15822	1927.3
5.188	1934.27
5.21795	1941.26
5.24807	1948.27
5.27837	1955.3
5.30884	1962.34
5.33949	1969.4
5.37032	1976.48
5.40132	1983.58
5.4325	1990.7
5.46387	1997.83
5.49541	2004.98
5.52713	2012.15
5.55904	2019.34
5.59114	2026.54
5.62341	2033.76
5.65588	2040.99
5.68853	2048.25
5.72137	2055.52
5.7544	2062.8
5.78762	2070.11
5.82103	2077.43
5.85464	2084.76
5.88844	2092.11
5.92243	2099.48
5.95662	2106.86
5.99101	2114.26
6.0256	2121.68
6.06038	2129.11
6.09537	2136.55
6.13056	2144.01
6.16595	2151.49
6.20155	2158.98
6.23735	2166.48
6.27336	2174
6.30957	2181.53
6.346	2189.08
6.38263	2196.64
6.41948	2204.22
6.45654	2211.8
6.49382	2219.41
6.53131	2227.02
6.56901	2234.65
6.60693	2242.29
6.64508	2249.95
6.68344	2257.61
6.72202	2265.29
6.76083	2272.98
6.79986	2280.69
6.83912	2288.4
6.8786	2296.13
6.91831	2303.87
6.95825	2311.62
6.99842	2319.38
7.03882	2327.16
7.07946	2334.94
7.12033	2342.73
7.16143	2350.54
7.20278	2358.35
7.24436	2366.18
7.28618	2374.01
7.32825	2381.86
7.37055	2389.71
7.4131	2397.58
7.4559	2405.45
7.49894	2413.33
7.54223	2421.22
7.58578	2429.12
7.62957	2437.02
7.67361	2444.9
7.71792	2452.77
7.76247	2460.63
7.80728	2468.51
7.85236	2476.39
7.89769	2484.28
7.94328	2492.17
7.98914	2500.07
8.03526	2507.98
8.08165	2515.88
8.12831	2523.8
8.17523	2531.71
8.22243	2539.63
8.2699	2547.56
8.31764	2555.48
8.36566	2563.41
8.41395	2571.34
8.46253	2579.27
8.51138	2587.2
8.56052	2595.14
8.60994	2603.07
8.65964	2611
8.70964	2618.94
8.75992	2626.87
8.81049	2634.8
8.86135	2642.73
8.91251	2650.65
8.96396	2658.57
9.01571	2666.49
9.06776	2674.41
9.12011	2682.32
9.17276	2690.22
9.22571	2698.12
9.27897	2706.02
9.33254	2713.91
9.38642	2721.79
9.44061	2729.66
9.49511	2737.53
9.54993	2745.39
9.60506	2753.23
9.66051	2761.07
9.71628	2768.9
9.77237	2776.72
9.82879	2784.52
9.88553	2792.32
9.9426	2800.1
10	2807.87
10.0577	2815.63
10.1158	2823.37
10.1742	2831.09
10.2329	2838.82
10.292	2846.54
10.3514	2854.24
10.4112	2861.93
10.4713	2869.6
10.5317	2877.25
10.5925	2884.88
10.6537	2892.5
10.7152	2900.1
10.7771	2907.68
10.8393	2915.23
10.9018	2922.77
10.9648	2930.29
11.0281	2937.79
11.0917	2945.27
11.1558	2952.72
11.2202	2960.15
11.285	2967.56
11.3501	2974.95
11.4156	2982.32
11.4815	2989.66
11.5478	2996.98
11.6145	3004.27
11.6815	3011.54
11.749	3018.78
11.8168	3026
11.885	3033.19
11.9536	3040.36
12.0226	3047.5
12.0921	3054.62
12.1619	3061.71
12.2321	3068.77
12.3027	3075.8
12.3737	3082.8
12.4451	3089.78
12.517	3096.73
12.5893	3103.65
12.6619	3110.54
12.735	3117.4
12.8086	3124.24
12.8825	3131.04
12.9569	3137.82
13.0317	3144.56
13.1069	3151.27
13.1826	3157.96
13.2587	3164.61
13.3352	3171.23
13.4122	3177.81
13.4896	3184.37
13.5675	3190.89
13.6458	3197.37
13.7246	3203.83
13.8038	3210.25
13.8835	3216.63
13.9637	3222.99
14.0443	3229.3
14.1254	3235.58
14.2069	3241.83
14.2889	3248.04
14.3714	3254.22
14.4544	3260.36
14.5378	3266.46
14.6218	3272.53
14.7062	3278.56
14.7911	3284.55
14.8765	3290.51
14.9624	3296.43
15.0487	3302.31
15.1356	3308.16
15.223	3313.97
15.3109	3319.74
15.3993	3325.49
15.4882	3331.2
15.5776	3336.87
15.6675	3342.51
15.758	3348.1
15.8489	3353.66
15.9404	3359.18
16.0325	3364.66
16.125	3370.1
16.2181	3375.5
16.3117	3380.86
16.4059	3386.18
16.5006	3391.46
16.5959	3396.69
16.6917	3401.89
16.788	3407.04
16.885	3412.16
16.9824	3417.23
17.0805	3422.26
17.1791	3427.25
17.2783	3432.2
17.378	3437.1
17.4783	3441.97
17.5792	3446.79
17.6807	3451.57
17.7828	3456.3
17.8855	3461
17.9887	3465.65
18.0926	3470.26
18.197	3474.83
18.3021	3479.36
18.4077	3483.85
18.514	3488.29
18.6209	3492.69
18.7284	3497.06
18.8365	3501.38
18.9452	3505.66
19.0546	3509.9
19.1646	3514.11
19.2752	3518.27
19.3865	3522.39
19.4984	3526.48
19.611	3530.53
19.7242	3534.54
19.8381	3538.51
19.9526	3542.45
20.0678	3546.35
20.1837	3550.22
20.3002	3554.05
20.4174	3557.84
20.5353	3561.56
20.6538	3565.24
20.773	3568.9
20.893	3572.51
21.0136	3576.1
21.1349	3579.65
21.2569	3583.16
21.3796	3586.64
21.503	3590.09
21.6272	3593.5
21.752	3596.87
21.8776	3600.21
22.0039	3603.51
22.1309	3606.78
22.2587	3610.01
22.3872	3613.21
22.5165	3616.37
22.6464	3619.49
22.7772	3622.58
22.9087	3625.63
23.0409	3628.64
23.1739	3631.62
23.3077	3634.56
23.4423	3637.46
23.5776	3640.33
23.7137	3643.16
23.8506	3645.95
23.9883	3648.7
24.1268	3651.42
24.2661	3654.11
24.4062	3656.75
24.5471	3659.36
24.6888	3661.94
24.8313	3664.47
24.9747	3666.98
25.1189	3669.44
25.2639	3671.87
25.4097	3674.27
25.5564	3676.64
25.704	3678.97
25.8523	3681.28
26.0016	3683.55
26.1517	3685.78
26.3027	3687.98
26.4545	3690.14
26.6073	3692.27
26.7609	3694.36
26.9153	3696.42
27.0707	3698.44
27.227	3700.43
27.3842	3702.38
27.5423	3704.3
27.7013	3706.18
27.8612	3708.02
28.0221	3709.83
28.1838	3711.61
28.3465	3713.35
28.5102	3715.05
28.6748	3716.72
28.8403	3718.36
29.0068	3719.96
29.1743	3721.52
29.3427	3723.06
29.5121	3724.55
29.6825	3726.02
29.8538	3727.45
30.0262	3728.85
30.1995	3730.22
30.3739	3731.55
30.5492	3732.85
30.7256	3734.12
30.903	3735.36
31.0814	3736.57
31.2608	3737.74
31.4413	3738.89
31.6228	3740
31.8053	3741.08
31.989	3742.13
32.1736	3743.15
32.3594	3744.13
32.5462	3745.09
32.7341	3746.01
32.923	3746.9
33.1131	3747.76
33.3043	3748.58
33.4965	3749.38
33.6899	3750.14
33.8844	3750.87
34.08	3751.57
34.2768	3752.24
34.4747	3752.88
34.6737	3753.48
34.8739	3754.06
35.0752	3754.61
35.2777	3755.12
35.4813	3755.61
35.6862	3756.06
35.8922	3756.49
36.0994	3756.88
36.3078	3757.25
36.5174	3757.59
36.7282	3757.89
36.9403	3758.17
37.1535	3758.42
37.368	3758.63
37.5837	3758.82
37.8007	3758.98
38.0189	3759.11
38.2384	3759.21
38.4592	3759.27
38.6812	3759.31
38.9045	3759.32
39.1291	3759.3
39.355	3759.25
39.5822	3759.17
39.8107	3759.06
40.0405	3758.93
40.2717	3758.76
40.5042	3758.56
40.738	3758.34
40.9732	3758.09
41.2098	3757.81
41.4477	3757.5
41.6869	3757.16
41.9276	3756.8
42.1697	3756.4
42.4131	3755.98
42.658	3755.53
42.9042	3755.05
43.1519	3754.54
43.401	3754
43.6516	3753.44
43.9036	3752.85
44.157	3752.23
44.412	3751.58
44.6684	3750.9
44.9262	3750.2
45.1856	3749.47
45.4465	3748.71
45.7088	3747.92
45.9727	3747.11
46.2381	3746.27
46.505	3745.4
46.7735	3744.5
47.0435	3743.58
47.3151	3742.64
47.5883	3741.66
47.863	3740.66
48.1393	3739.64
48.4172	3738.58
48.6968	3737.51
48.9779	3736.4
49.2606	3735.27
49.545	3734.12
49.831	3732.94
50.1187	3731.74
50.4081	3730.51
50.6991	3729.26
50.9918	3727.99
51.2861	3726.69
51.5822	3725.37
51.88	3724.03
52.1795	3722.67
52.4807	3721.28
52.7837	3719.86
53.0884	3718.43
53.3949	3716.97
53.7032	3715.48
54.0132	3713.97
54.325	3712.44
54.6387	3710.88
54.9541	3709.3
55.2713	3707.69
55.5904	3706.06
55.9114	3704.4
56.2341	3702.72
56.5588	3701.02
56.8853	3699.28
57.2137	3697.53
57.544	3695.75
57.8762	3693.94
58.2103	3692.11
58.5464	3690.25
58.8844	3688.37
59.2243	3686.46
59.5662	3684.52
59.9101	3682.56
60.256	3680.58
60.6038	3678.57
60.9537	3676.53
61.3056	3674.47
61.6595	3672.38
62.0155	3670.27
62.3735	3668.13
62.7336	3665.97
63.0957	3663.78
63.46	3661.56
63.8263	3659.32
64.1948	3657.06
64.5654	3654.76
64.9382	3652.45
65.3131	3650.11
65.6901	3647.74
66.0693	3645.35
66.4508	3642.94
66.8344	3640.5
67.2202	3638.03
67.6083	3635.54
67.9986	3633.03
68.3912	3630.49
68.786	3627.93
69.1831	3625.34
69.5825	3622.73
69.9842	3620.1
70.3882	3617.45
70.7946	3614.77
71.2033	3612.07
71.6143	3609.35
72.0278	3606.6
72.4436	3603.84
72.8618	3601.05
73.2825	3598.24
73.7055	3595.41
74.131	3592.56
74.559	3589.69
74.9894	3586.8
75.4223	3583.89
75.8578	3580.97
76.2957	3578.02
76.7361	3575.05
77.1792	3572.05
77.6247	3569.03
78.0728	3565.99
78.5236	3562.94
78.9769	3559.87
79.4328	3556.78
79.8914	3553.67
80.3526	3550.54
80.8165	3547.4
81.2831	3544.24
81.7523	3541.06
82.2243	3537.86
82.699	3534.64
83.1764	3531.41
83.6566	3528.15
84.1395	3524.88
84.6253	3521.59
85.1138	3518.28
85.6052	3514.96
86.0994	3511.61
86.5964	3508.25
87.0964	3504.87
87.5992	3501.47
88.1049	3498.05
88.6135	3494.61
89.1251	3491.16
89.6396	3487.68
90.1571	3484.19
90.6776	3480.68
91.2011	3477.15
91.7276	3473.6
92.2571	3470.04
92.7897	3466.45
93.3254	3462.85
93.8642	3459.23
94.4061	3455.58
94.9511	3451.93
95.4993	3448.25
96.0506	3444.55
96.6051	3440.84
97.1628	3437.1
97.7237	3433.35
98.2879	3429.58
98.8553	3425.79
99.426	3421.99
100	3418.16
100.577	3414.32
101.158	3410.45
101.742	3406.57
102.329	3402.67
102.92	3398.75
103.514	3394.81
104.112	3390.85
104.713	3386.88
105.317	3382.88
105.925	3378.87
106.537	3374.84
107.152	3370.79
107.771	3366.72
108.393	3362.64
109.018	3358.54
109.648	3354.42
110.281	3350.28
110.917	3346.12
111.558	3341.95
112.202	3337.76
112.85	3333.55
113.501	3329.32
114.156	3325.08
114.815	3320.82
115.478	3316.54
116.145	3312.25
116.815	3307.94
117.49	3303.61
118.168	3299.26
118.85	3294.9
119.536	3290.52
120.226	3286.13
120.921	3281.72
121.619	3277.29
122.321	3272.85
123.027	3268.39
123.737	3263.91
124.451	3259.42
125.17	3254.91
125.893	3250.39
126.619	3245.85
127.35	3241.3
128.086	3236.73
128.825	3232.15
129.569	3227.55
130.317	3222.94
131.069	3218.31
131.826	3213.67
132.587	3209.01
133.352	3204.34
134.122	3199.65
134.896	3194.95
135.675	3190.24
136.458	3185.51
137.246	3180.76
138.038	3176.01
138.835	3171.24
139.637	3166.45
140.443	3161.65
141.254	3156.84
142.069	3152.01
142.889	3147.17
143.714	3142.32
144.544	3137.45
145.378	3132.57
146.218	3127.68
147.062	3122.77
147.911	3117.85
148.765	3112.92
149.624	3107.97
150.487	3103.01
151.356	3098.04
152.23	3093.06
153.109	3088.06
153.993	3083.05
154.882	3078.02
155.776	3072.99
156.675	3067.93
157.58	3062.87
158.489	3057.8
159.404	3052.71
160.325	3047.61
161.25	3042.5
162.181	3037.38
163.117	3032.25
164.059	3027.1
165.006	3021.94
165.959	3016.77
166.917	3011.59
167.88	3006.4
168.85	3001.2
169.824	2995.98
170.805	2990.76
171.791	2985.52
172.783	2980.28
173.78	2975.02
174.783	2969.75
175.792	2964.47
176.807	2959.18
177.828	2953.87
178.855	2948.56
179.887	2943.24
180.926	2937.9
181.97	2932.56
183.021	2927.2
184.077	2921.84
185.14	2916.46
186.209	2911.08
187.284	2905.68
188.365	2900.27
189.452	2894.86
190.546	2889.43
191.646	2883.99
192.752	2878.54
193.865	2873.08
194.984	2867.61
196.11	2862.13
197.242	2856.65
198.381	2851.15
199.526	2845.64
200.678	2840.12
201.837	2834.58
203.002	2829.04
204.174	2823.5
205.353	2817.95
206.538	2812.4
207.73	2806.84
208.93	2801.27
210.136	2795.69
211.349	2790.1
212.569	2784.5
213.796	2778.89
215.03	2773.27
216.272	2767.64
217.52	2762
218.776	2756.36
220.039	2750.7
221.309	2745.04
222.587	2739.37
223.872	2733.69
225.165	2728.01
226.464	2722.32
227.772	2716.61
229.087	2710.91
230.409	2705.19
231.739	2699.47
233.077	2693.74
234.423	2688
235.776	2682.25
237.137	2676.5
238.506	2670.75
239.883	2664.98
241.268	2659.22
242.661	2653.44
244.062	2647.66
245.471	2641.87
246.888	2636.08
248.313	2630.28
249.747	2624.48
251.189	2618.67
252.639	2612.86
254.097	2607.04
255.564	2601.21
257.04	2595.37
258.523	2589.53
260.016	2583.69
261.517	2577.84
263.027	2571.99
264.545	2566.13
266.073	2560.27
267.609	2554.4
269.153	2548.53
270.707	2542.66
272.27	2536.78
273.842	2530.9
275.423	2525.01
277.013	2519.13
278.612	2513.24
280.221	2507.34
281.838	2501.45
283.465	2495.55
285.102	2489.64
286.748	2483.74
288.403	2477.83
290.068	2471.92
291.743	2466
293.427	2460.09
295.121	2454.17
296.825	2448.24
298.538	2442.32
300.262	2436.39
301.995	2430.46
303.739	2424.53
305.492	2418.59
307.256	2412.65
309.03	2406.71
310.814	2400.77
312.608	2394.82
314.413	2388.87
316.228	2382.92
318.053	2376.97
319.89	2371.01
321.736	2365.06
323.594	2359.1
325.462	2353.14
327.341	2347.18
329.23	2341.22
331.131	2335.25
333.043	2329.29
334.965	2323.32
336.899	2317.36
338.844	2311.39
340.8	2305.42
342.768	2299.45
344.747	2293.48
346.737	2287.51
348.739	2281.54
350.752	2275.57
352.777	2269.6
354.813	2263.63
356.862	2257.65
358.922	2251.68
360.994	2245.71
363.078	2239.73
365.174	2233.76
367.282	2227.78
369.403	2221.81
371.535	2215.83
373.68	2209.86
375.837	2203.89
378.007	2197.91
380.189	2191.94
382.384	2185.97
384.592	2180
386.812	2174.03
389.045	2168.06
391.291	2162.09
393.55	2156.12
395.822	2150.16
398.107	2144.19
400.405	2138.23
402.717	2132.26
405.042	2126.3
407.38	2120.34
409.732	2114.38
412.098	2108.42
414.477	2102.46
416.869	2096.5
419.276	2090.55
421.697	2084.59
424.131	2078.64
426.58	2072.69
429.042	2066.75
431.519	2060.8
434.01	2054.86
436.516	2048.92
439.036	2042.99
441.57	2037.06
444.12	2031.13
446.684	2025.2
449.262	2019.28
451.856	2013.37
454.465	2007.45
457.088	2001.54
459.727	1995.64
462.381	1989.74
465.05	1983.84
467.735	1977.95
470.435	1972.06
473.151	1966.17
475.883	1960.3
478.63	1954.42
481.393	1948.55
484.172	1942.68
486.968	1936.82
489.779	1930.96
492.606	1925.11
495.45	1919.25
498.31	1913.41
501.187	1907.56
504.081	1901.72
506.991	1895.89
509.918	1890.05
512.861	1884.21
515.822	1878.38
518.8	1872.54
521.795	1866.71
524.807	1860.89
527.837	1855.06
530.884	1849.25
533.949	1843.43
537.032	1837.63
540.132	1831.82
543.25	1826.02
546.387	1820.23
549.541	1814.44
552.713	1808.66
555.904	1802.89
559.114	1797.12
562.341	1791.36
565.588	1785.61
568.853	1779.86
572.137	1774.12
575.44	1768.39
578.762	1762.66
582.103	1756.94
585.464	1751.23
588.844	1745.53
592.243	1739.84
595.662	1734.16
599.101	1728.48
602.56	1722.81
606.038	1717.16
609.537	1711.51
613.056	1705.87
616.595	1700.24
620.155	1694.62
623.735	1689.01
627.336	1683.4
630.957	1677.81
634.6	1672.23
638.263	1666.66
641.948	1661.09
645.654	1655.54
649.382	1650
653.131	1644.46
656.901	1638.94
660.693	1633.42
664.508	1627.92
668.344	1622.42
672.202	1616.94
676.083	1611.46
679.986	1606
683.912	1600.54
687.86	1595.09
691.831	1589.65
695.825	1584.22
699.842	1578.8
703.882	1573.39
707.946	1567.98
712.033	1562.59
716.143	1557.2
720.278	1551.81
724.436	1546.44
728.618	1541.07
732.825	1535.71
737.055	1530.35
741.31	1525
745.59	1519.66
749.894	1514.32
754.223	1508.98
758.578	1503.65
762.957	1498.32
767.361	1493.06
771.792	1487.84
776.247	1482.64
780.728	1477.43
785.236	1472.23
789.769	1467.03
794.328	1461.84
798.914	1456.65
803.526	1451.47
808.165	1446.29
812.831	1441.12
817.523	1435.95
822.243	1430.79
826.99	1425.63
831.764	1420.49
836.566	1415.35
841.395	1410.21
846.253	1405.09
851.138	1399.97
856.052	1394.86
860.994	1389.75
865.964	1384.66
870.964	1379.57
875.992	1374.5
881.049	1369.43
886.135	1364.37
891.251	1359.32
896.396	1354.28
901.571	1349.25
906.776	1344.23
912.011	1339.22
917.276	1334.22
922.571	1329.24
927.897	1324.26
933.254	1319.29
938.642	1314.34
944.061	1309.4
949.511	1304.47
954.993	1299.55
960.506	1294.64
966.051	1289.74
971.628	1284.86
977.237	1279.99
982.879	1275.14
988.553	1270.29
994.26	1265.46
1000	1260.64
1005.77	1255.83
1011.58	1251.04
1017.42	1246.26
1023.29	1241.48
1029.2	1236.71
1035.14	1231.94
1041.12	1227.19
1047.13	1222.46
1053.17	1217.73
1059.25	1213.02
1065.37	1208.33
1071.52	1203.65
1077.71	1198.98
1083.93	1194.33
1090.18	1189.69
1096.48	1185.07
1102.81	1180.46
1109.17	1175.87
1115.58	1171.29
1122.02	1166.73
1128.5	1162.18
1135.01	1157.64
1141.56	1153.12
1148.15	1148.61
1154.78	1144.12
1161.45	1139.64
1168.15	1135.18
1174.9	1130.73
1181.68	1126.3
1188.5	1121.88
1195.36	1117.47
1202.26	1113.08
1209.21	1108.7
1216.19	1104.33
1223.21	1099.98
1230.27	1095.64
1237.37	1091.31
1244.51	1086.99
1251.7	1082.69
1258.93	1078.4
1266.19	1074.12
1273.5	1069.85
1280.86	1065.59
1288.25	1061.34
1295.69	1057.1
1303.17	1052.87
1310.69	1048.65
1318.26	1044.45
1325.87	1040.25
1333.52	1036.07
1341.22	1031.9
1348.96	1027.74
1356.75	1023.59
1364.58	1019.46
1372.46	1015.33
1380.38	1011.22
1388.35	1007.12
1396.37	1003.04
1404.43	998.962
1412.54	994.9
1420.69	990.852
1428.89	986.815
1437.14	982.792
1445.44	978.781
1453.78	974.783
1462.18	970.798
1470.62	966.825
1479.11	962.865
1487.65	958.918
1496.24	954.984
1504.87	951.062
1513.56	947.153
1522.3	943.256
1531.09	939.371
1539.93	935.491
1548.82	931.624
1557.76	927.77
1566.75	923.928
1575.8	920.099
1584.89	916.284
1594.04	912.481
1603.25	908.692
1612.5	904.916
1621.81	901.154
1631.17	897.406
1640.59	893.671
1650.06	889.951
1659.59	886.244
1669.17	882.551
1678.8	878.873
1688.5	875.208
1698.24	871.558
1708.05	867.923
1717.91	864.301
1727.83	860.694
1737.8	857.102
1747.83	853.524
1757.92	849.96
1768.07	846.41
1778.28	842.875
1788.55	839.355
1798.87	835.848
1809.26	832.356
1819.7	828.878
1830.21	825.414
1840.77	821.963
1851.4	818.527
1862.09	815.104
1872.84	811.695
1883.65	808.299
1894.52	804.917
1905.46	801.547
1916.46	798.19
1927.52	794.846
1938.65	791.513
1949.84	788.193
1961.1	784.885
1972.42	781.588
1983.81	778.302
1995.26	775.027
2006.78	771.762
2018.37	768.507
2030.02	765.262
2041.74	762.03
2053.53	758.829
2065.38	755.637
2077.3	752.454
2089.3	749.281
2101.36	746.117
2113.49	742.962
2125.69	739.818
2137.96	736.684
2150.3	733.559
2162.72	730.445
2175.2	727.342
2187.76	724.248
2200.39	721.166
2213.09	718.094
2225.87	715.033
2238.72	711.984
2251.65	708.945
2264.64	705.918
2277.72	702.901
2290.87	699.897
2304.09	696.903
2317.39	693.922
2330.77	690.952
2344.23	687.994
2357.76	685.047
2371.37	682.112
2385.06	679.19
2398.83	676.279
2412.68	673.38
2426.61	670.493
2440.62	667.619
2454.71	664.756
2468.88	661.905
2483.13	659.067
2497.47	656.24
2511.89	653.426
2526.39	650.623
2540.97	647.832
2555.64	645.051
2570.4	642.278
2585.23	639.517
2600.16	636.767
2615.17	634.03
2630.27	631.305
2645.45	628.592
2660.73	625.891
2676.09	623.202
2691.53	620.525
2707.07	617.86
2722.7	615.208
2738.42	612.567
2754.23	609.939
2770.13	607.323
2786.12	604.719
2802.21	602.127
2818.38	599.547
2834.65	596.978
2851.02	594.422
2867.48	591.877
2884.03	589.343
2900.68	586.822
2917.43	584.311
2934.27	581.812
2951.21	579.324
2968.25	576.846
2985.38	574.38
3002.62	571.924
3019.95	569.478
3037.39	567.042
3054.92	564.617
3072.56	562.2
3090.3	559.793
3108.14	557.396
3126.08	555.008
3144.13	552.631
3162.28	550.263
3180.53	547.905
3198.9	545.557
3217.36	543.219
3235.94	540.891
3254.62	538.573
3273.41	536.265
3292.3	533.967
3311.31	531.68
3330.43	529.402
3349.65	527.135
3368.99	524.878
3388.44	522.631
3408	520.394
3427.68	518.167
3447.47	515.95
3467.37	513.743
3487.39	511.546
3507.52	509.358
3527.77	507.181
3548.13	505.013
3568.62	502.855
3589.22	500.707
3609.94	498.568
3630.78	496.438
3651.74	494.318
3672.82	492.208
3694.03	490.107
3715.35	488.016
3736.8	485.935
3758.37	483.863
3780.07	481.801
3801.89	479.749
3823.84	477.706
3845.92	475.672
3868.12	473.649
3890.45	471.634
3912.91	469.629
3935.5	467.634
3958.22	465.647
3981.07	463.67
4004.05	461.702
4027.17	459.744
4050.42	457.793
4073.8	455.852
4097.32	453.92
4120.98	451.996
4144.77	450.081
4168.69	448.174
4192.76	446.276
4216.97	444.387
4241.31	442.507
4265.8	440.636
4290.42	438.774
4315.19	436.92
4340.1	435.075
4365.16	433.239
4390.36	431.412
4415.7	429.594
4441.2	427.784
4466.84	425.983
4492.62	424.191
4518.56	422.407
4544.65	420.633
4570.88	418.866
4597.27	417.108
4623.81	415.358
4650.5	413.617
4677.35	411.884
4704.35	410.159
4731.51	408.443
4758.83	406.735
4786.3	405.034
4813.93	403.342
4841.72	401.657
4869.68	399.98
4897.79	398.311
4926.06	396.609
4954.5	394.831
4983.1	393.062
5011.87	391.301
5040.81	389.548
5069.91	387.804
5099.18	386.067
5128.61	384.334
5158.22	382.609
5188	380.891
5217.95	379.182
5248.07	377.48
5278.37	375.787
5308.84	374.101
5339.49	372.423
5370.32	370.754
5401.32	369.093
5432.5	367.44
5463.87	365.796
5495.41	364.16
5527.13	362.532
5559.04	360.913
5591.14	359.303
5623.41	357.701
5655.88	356.108
5688.53	354.523
5721.37	352.948
5754.4	351.381
5787.62	349.823
5821.03	348.273
5854.64	346.733
5888.44	345.202
5922.43	343.679
5956.62	342.166
5991.01	340.661
6025.6	339.165
6060.38	337.679
6095.37	336.201
6130.56	334.732
6165.95	333.273
6201.55	331.822
6237.35	330.38
6273.36	328.947
6309.57	327.523
6346	326.108
6382.63	324.701
6419.48	323.304
6456.54	321.915
6493.82	320.534
6531.31	319.163
6569.01	317.799
6606.93	316.445
6645.08	315.098
6683.44	313.76
6722.02	312.43
6760.83	311.109
6799.86	309.795
6839.12	308.489
6878.6	307.191
6918.31	305.9
6958.25	304.617
6998.42	303.341
7038.82	302.073
7079.46	300.811
7120.33	299.556
7161.43	298.308
7202.78	297.066
7244.36	295.83
7286.18	294.6
7328.25	293.377
7370.55	292.158
7413.1	290.945
7455.9	289.737
7498.94	288.533
7542.23	287.334
7585.78	286.14
7629.57	284.948
7673.61	283.781
7717.92	282.634
7762.47	281.489
7807.28	280.349
7852.36	279.212
7897.69	278.079
7943.28	276.95
7989.14	275.825
8035.26	274.704
8081.65	273.587
8128.31	272.474
8175.23	271.365
8222.43	270.261
8269.9	269.16
8317.64	268.064
8365.66	266.973
8413.95	265.886
8462.53	264.803
8511.38	263.725
8560.52	262.651
8609.94	261.582
8659.64	260.518
8709.64	259.458
8759.92	258.404
8810.49	257.354
8861.35	256.309
8912.51	255.268
8963.96	254.233
9015.71	253.203
9067.76	252.178
9120.11	251.158
9172.76	250.143
9225.71	249.133
9278.97	248.129
9332.54	247.129
9386.42	246.135
9440.61	245.147
9495.11	244.163
9549.93	243.186
9605.06	242.213
9660.51	241.246
9716.28	240.284
9772.37	239.328
9828.79	238.377
9885.53	237.432
9942.6	236.492
10000	235.558
10057.7	234.63
10115.8	233.707
10174.2	232.789
10232.9	231.874
10292	230.962
10351.4	230.056
10411.2	229.156
10471.3	228.26
10531.7	227.371
10592.5	226.487
10653.7	225.609
10715.2	224.736
10777.1	223.869
10839.3	223.007
10901.8	222.151
10964.8	221.301
11028.1	220.456
11091.7	219.616
11155.8	218.782
11220.2	217.954
11285	217.131
11350.1	216.313
11415.6	215.5
11481.5	214.693
11547.8	213.891
11614.5	213.095
11681.5	212.303
11749	211.516
11816.8	210.735
11885	209.958
11953.6	209.186
12022.6	208.419
12092.1	207.657
12161.9	206.899
12232.1	206.146
12302.7	205.397
12373.7	204.652
12445.1	203.911
12517	203.175
12589.3	202.442
12661.9	201.713
12735	200.988
12808.6	200.266
12882.5	199.547
12956.9	198.832
13031.7	198.12
13106.9	197.412
13182.6	196.707
13258.7	196.006
13335.2	195.308
13412.2	194.614
13489.6	193.923
13567.5	193.236
13645.8	192.553
13724.6	191.873
13803.8	191.197
13883.5	190.525
13963.7	189.856
14044.3	189.191
14125.4	188.529
14206.9	187.871
14288.9	187.217
14371.4	186.567
14454.4	185.919
14537.8	185.276
14621.8	184.636
14706.2	184
14791.1	183.367
14876.5	182.738
14962.4	182.112
15048.7	181.49
15135.6	180.871
15223	180.255
15310.9	179.643
15399.3	179.033
15488.2	178.426
15577.6	177.823
15667.5	177.223
15758	176.627
15848.9	176.034
15940.4	175.444
16032.5	174.858
16125	174.275
16218.1	173.696
16311.7	173.12
16405.9	172.548
16500.6	171.98
16595.9	171.415
16691.7	170.853
16788	170.295
16885	169.741
16982.4	169.19
17080.5	168.643
17179.1	168.099
17278.3	167.558
17378	167.022
17478.3	166.488
17579.2	165.959
17680.7	165.432
17782.8	164.909
17885.5	164.39
17988.7	163.874
18092.6	163.361
18197	162.852
18302.1	162.346
18407.7	161.843
18514	161.344
18620.9	160.848
18728.4	160.355
18836.5	159.865
18945.2	159.378
19054.6	158.894
19164.6	158.414
19275.2	157.936
19386.5	157.461
19498.4	156.989
19611	156.519
19724.2	156.052
19838.1	155.588
19952.6	155.126
20067.8	154.667
20183.7	154.21
20300.2	153.755
20417.4	153.303
20535.3	152.857
20653.8	152.413
20773	151.971
20893	151.531
21013.6	151.094
21134.9	150.658
21256.9	150.225
21379.6	149.794
21503	149.365
21627.2	148.938
21752	148.514
21877.6	148.092
22003.9	147.672
22130.9	147.254
22258.7	146.839
22387.2	146.426
22516.5	146.016
22646.4	145.607
22777.2	145.201
22908.7	144.798
23040.9	144.397
23173.9	143.998
23307.7	143.602
23442.3	143.208
23577.6	142.816
23713.7	142.427
23850.6	142.04
23988.3	141.656
24126.8	141.274
24266.1	140.895
24406.2	140.517
24547.1	140.143
24688.8	139.77
24831.3	139.4
24974.7	139.033
25118.9	138.667
25263.9	138.305
25409.7	137.944
25556.4	137.585
25704	137.228
25852.3	136.874
26001.6	136.522
26151.7	136.172
26302.7	135.824
26454.5	135.479
26607.3	135.136
26760.9	134.795
26915.3	134.457
27070.7	134.121
27227	133.787
27384.2	133.455
27542.3	133.126
27701.3	132.799
27861.2	132.475
28022.1	132.152
28183.8	131.832
28346.5	131.514
28510.2	131.199
28674.8	130.885
28840.3	130.574
29006.8	130.265
29174.3	129.958
29342.7	129.653
29512.1	129.35
29682.5	129.049
29853.8	128.75
30026.2	128.453
30199.5	128.159
30373.9	127.865
30549.2	127.574
30725.6	127.285
30903	126.997
31081.4	126.711
31260.8	126.427
31441.3	126.145
31622.8	125.864
31805.3	125.586
31989	125.309
32173.6	125.034
32359.4	124.76
32546.2	124.489
32734.1	124.219
32923	123.951
33113.1	123.685
33304.3	123.421
33496.5	123.158
33689.9	122.898
33884.4	122.639
34080	122.382
34276.8	122.126
34474.7	121.872
34673.7	121.62
34873.9	121.37
35075.2	121.121
35277.7	120.874
35481.3	120.629
35686.2	120.385
35892.2	120.143
36099.4	119.903
36307.8	119.664
36517.4	119.426
36728.2	119.19
36940.3	118.956
37153.5	118.724
37368	118.493
37583.7	118.264
37800.7	118.036
38018.9	117.81
38238.4	117.586
38459.2	117.363
38681.2	117.142
38904.5	116.922
39129.1	116.704
39355	116.488
39582.2	116.273
39810.7	116.06
40040.5	115.848
40271.7	115.638
40504.2	115.43
40738	115.223
40973.2	115.017
41209.8	114.813
41447.7	114.611
41686.9	114.41
41927.6	114.211
42169.7	114.013
42413.1	113.817
42658	113.622
42904.2	113.428
43151.9	113.236
43401	113.046
43651.6	112.857
43903.6	112.669
44157	112.483
44412	112.298
44668.4	112.114
44926.2	111.932
45185.6	111.751
45446.5	111.572
45708.8	111.394
45972.7	111.217
46238.1	111.041
46505	110.866
46773.5	110.693
47043.5	110.521
47315.1	110.35
47588.3	110.18
47863	110.011
48139.3	109.842
48417.2	109.675
48696.8	109.509
48977.9	109.344
49260.6	109.179
49545	109.016
49831	108.853
50118.7	108.69
50408.1	108.529
50699.1	108.367
50991.8	108.207
51286.1	108.042
51582.2	107.879
51880	107.717
52179.5	107.557
52480.7	107.397
52783.7	107.239
53088.4	107.082
53394.9	106.926
53703.2	106.771
54013.2	106.618
54325	106.465
54638.7	106.314
54954.1	106.164
55271.3	106.015
55590.4	105.867
55911.4	105.72
56234.1	105.574
56558.8	105.43
56885.3	105.286
57213.7	105.144
57544	105.002
57876.2	104.862
58210.3	104.723
58546.4	104.585
58884.4	104.448
59224.3	104.312
59566.2	104.177
59910.1	104.043
60256	103.91
60603.8	103.778
60953.7	103.648
61305.6	103.518
61659.5	103.389
62015.5	103.261
62373.5	103.135
62733.6	103.009
63095.7	102.884
63460	102.761
63826.3	102.638
64194.8	102.516
64565.4	102.395
64938.2	102.275
65313.1	102.156
65690.1	102.038
66069.3	101.922
66450.8	101.805
66834.4	101.69
67220.2	101.576
67608.3	101.463
67998.6	101.351
68391.2	101.239
68786	101.129
69183.1	101.019
69582.5	100.91
69984.2	100.803
70388.2	100.696
70794.6	100.59
71203.3	100.485
71614.3	100.38
72027.8	100.277
72443.6	100.174
72861.8	100.073
73282.5	99.9718
73705.5	99.8719
74131	99.7727
74559	99.6744
74989.4	99.577
75422.3	99.4803
75857.8	99.3845
76295.7	99.2895
76736.1	99.1953
77179.2	99.102
77624.7	99.0094
78072.8	98.9176
78523.6	98.8267
78976.9	98.7365
79432.8	98.6471
79891.4	98.5585
80352.6	98.4706
80816.5	98.3835
81283.1	98.2972
81752.3	98.2117
82224.3	98.1269
82699	98.0428
83176.4	97.9595
83656.6	97.877
84139.5	97.7952
84625.3	97.7141
85113.8	97.6337
85605.2	97.5541
86099.4	97.4752
86596.4	97.397
87096.4	97.3195
87599.2	97.2427
88104.9	97.1666
88613.5	97.0913
89125.1	97.0166
89639.6	96.9426
90157.1	96.8693
90677.6	96.7966
91201.1	96.7247
91727.6	96.6534
92257.1	96.5827
92789.7	96.5128
93325.4	96.4435
93864.2	96.3748
94406.1	96.3068
94951.1	96.2395
95499.3	96.1728
96050.6	96.1067
96605.1	96.0412
97162.8	95.9764
97723.7	95.9122
98287.9	95.8487
98855.3	95.7857
99426	95.7234
100000	95.6617
100577	95.6005
101158	95.54
101742	95.4801
102329	95.4207
102920	95.362
103514	95.3038
104112	95.2463
104713	95.1893
105317	95.1328
105925	95.077
106537	95.0217
107152	94.9669
107771	94.9128
108393	94.8591
109018	94.8061
109648	94.7535
110281	94.7016
110917	94.6501
111558	94.5992
112202	94.5488
112850	94.499
113501	94.4497
114156	94.4008
114815	94.3526
115478	94.3048
116145	94.2575
116815	94.2108
117490	94.1645
118168	94.1188
118850	94.0735
119536	94.0287
120226	93.9844
120921	93.9407
121619	93.8973
122321	93.8545
123027	93.8121
123737	93.7703
124451	93.7288
125170	93.6879
125893	93.6474
126619	93.6073
127350	93.5678
128086	93.5286
128825	93.4899
129569	93.4517
130317	93.4139
131069	93.3765
131826	93.3396
132587	93.3031
133352	93.2671
134122	93.2314
134896	93.1962
135675	93.1614
136458	93.127
137246	93.0931
138038	93.0595
138835	93.0263
139637	92.9936
140443	92.9612
141254	92.9293
142069	92.8977
142889	92.8665
143714	92.8358
144544	92.8054
145378	92.7754
146218	92.7457
147062	92.7165
147911	92.6876
148765	92.6591
149624	92.6309
150487	92.6031
151356	92.5757
152230	92.5486
153109	92.5219
153993	92.4956
154882	92.4696
155776	92.4439
156675	92.4186
157580	92.3936
158489	92.369
159404	92.3447
160325	92.3207
161250	92.2971
162181	92.2738
163117	92.2508
164059	92.2281
165006	92.2058
165959	92.1838
166917	92.1621
167880	92.1407
168850	92.1196
169824	92.0988
170805	92.0784
171791	92.0582
172783	92.0383
173780	92.0187
174783	91.9995
175792	91.9805
176807	91.9618
177828	91.9434
178855	91.9252
179887	91.9074
180926	91.8898
181970	91.8725
183021	91.8555
184077	91.8387
185140	91.8223
186209	91.8061
187284	91.7901
188365	91.7744
189452	91.759
190546	91.7438
191646	91.7289
192752	91.7143
193865	91.6999
194984	91.6857
196110	91.6718
197242	91.6581
198381	91.6447
199526	91.6315
200678	91.6186
201837	91.6059
203002	91.5934
204174	91.5811
205353	91.5691
206538	91.5573
207730	91.5457
208930	91.5344
210136	91.5233
211349	91.5124
212569	91.5017
213796	91.4912
215030	91.4809
216272	91.4709
217520	91.461
218776	91.4514
220039	91.4419
221309	91.4327
222587	91.4236
223872	91.4148
225165	91.4062
226464	91.3977
227772	91.3894
229087	91.3814
230409	91.3735
231739	91.3658
233077	91.3583
234423	91.351
235776	91.3438
237137	91.3368
238506	91.33
239883	91.3234
241268	91.317
242661	91.3107
244062	91.3046
245471	91.2987
246888	91.2929
248313	91.2873
249747	91.2818
251189	91.2766
252639	91.2714
254097	91.2665
255564	91.2617
257040	91.257
258523	91.2525
260016	91.2481
261517	91.2439
263027	91.2399
264545	91.236
266073	91.2322
267609	91.2286
269153	91.2251
270707	91.2218
272270	91.2185
273842	91.2155
275423	91.2125
277013	91.2097
278612	91.2071
280221	91.2045
281838	91.2021
283465	91.1998
285102	91.1977
286748	91.1956
288403	91.1937
290068	91.1919
291743	91.1902
293427	91.1887
295121	91.1873
296825	91.1859
298538	91.1847
300262	91.1836
301995	91.1826
303739	91.1818
305492	91.181
307256	91.1803
309030	91.1798
310814	91.1793
312608	91.179
314413	91.1787
316228	91.1786
318053	91.1785
319890	91.1786
321736	91.1787
323594	91.179
325462	91.1793
327341	91.1798
329230	91.1803
331131	91.1809
333043	91.1816
334965	91.1824
336899	91.1832
338844	91.1842
340800	91.1853
342768	91.1864
344747	91.1876
346737	91.1889
348739	91.1903
350752	91.1917
352777	91.1932
354813	91.1948
356862	91.1965
358922	91.1983
360994	91.2001
363078	91.202
365174	91.2039
367282	91.206
369403	91.2081
371535	91.2103
373680	91.2125
375837	91.2148
378007	91.2172
380189	91.2196
382384	91.2221
384592	91.2246
386812	91.2273
389045	91.2299
391291	91.2327
393550	91.2355
395822	91.2383
398107	91.2412
400405	91.2442
402717	91.2472
405042	91.2502
407380	91.2534
409732	91.2565
412098	91.2597
414477	91.263
416869	91.2663
419276	91.2697
421697	91.2731
424131	91.2766
426580	91.2801
429042	91.2836
431519	91.2872
434010	91.2908
436516	91.2945
439036	91.2982
441570	91.3019
444120	91.3057
446684	91.3096
449262	91.3134
451856	91.3173
454465	91.3213
457088	91.3252
459727	91.3292
462381	91.3333
465050	91.3374
467735	91.3415
470435	91.3456
473151	91.3498
475883	91.354
478630	91.3582
481393	91.3624
484172	91.3667
486968	91.371
489779	91.3754
492606	91.3797
495450	91.3841
498310	91.3885
501187	91.393
504081	91.3974
506991	91.4019
509918	91.4064
512861	91.4109
515822	91.4155
518800	91.42
521795	91.4246
524807	91.4292
527837	91.4338
530884	91.4385
533949	91.4431
537032	91.4478
540132	91.4525
543250	91.4572
546387	91.4619
549541	91.4666
552713	91.4714
555904	91.4761
559114	91.4809
562341	91.4857
565588	91.4905
568853	91.4953
572137	91.5001
575440	91.5049
578762	91.5097
582103	91.5146
585464	91.5194
588844	91.5243
592243	91.5291
595662	91.534
599101	91.5389
602560	91.5438
606038	91.5487
609537	91.5536
613056	91.5585
616595	91.5634
620155	91.5683
623735	91.5732
627336	91.5781
630957	91.583
634600	91.5879
638263	91.5928
641948	91.5977
645654	91.6027
649382	91.6076
653131	91.6125
656901	91.6174
660693	91.6223
664508	91.6272
668344	91.6321
672202	91.6371
676083	91.642
679986	91.6469
683912	91.6518
687860	91.6567
691831	91.6616
695825	91.6664
699842	91.6713
703882	91.6762
707946	91.6811
712033	91.686
716143	91.6908
720278	91.6957
724436	91.7005
728618	91.7054
732825	91.7102
737055	91.715
741310	91.7198
745590	91.7247
749894	91.7295
754223	91.7342
758578	91.739
762957	91.7438
767361	91.7486
771792	91.7533
776247	91.7581
780728	91.7628
785236	91.7675
789769	91.7722
794328	91.7769
798914	91.7816
803526	91.7863
808165	91.791
812831	91.7956
817523	91.8003
822243	91.8049
826990	91.8095
831764	91.8141
836566	91.8187
841395	91.8233
846253	91.8278
851138	91.8324
856052	91.8369
860994	91.8414
865964	91.8459
870964	91.8504
875992	91.8549
881049	91.8594
886135	91.8638
891251	91.8682
896396	91.8726
901571	91.877
906776	91.8814
912011	91.8858
917276	91.8901
922571	91.8944
927897	91.8988
933254	91.903
938642	91.9073
944061	91.9116
949511	91.9158
954993	91.9201
960506	91.9243
966051	91.9284
971628	91.9326
977237	91.9368
982879	91.9409
988553	91.945
994260	91.9491
1e+06	91.9532
1.00577e+06	91.9573
1.01158e+06	91.9613
1.01742e+06	91.9653
1.02329e+06	91.9693
1.0292e+06	91.9733
1.03514e+06	91.9773
1.04112e+06	91.9812
1.04713e+06	91.9851
1.05317e+06	91.989
1.05925e+06	91.9929
1.06537e+06	91.9968
1.07152e+06	92.0006
1.07771e+06	92.0044
1.08393e+06	92.0082
1.09018e+06	92.012
1.09648e+06	92.0158
1.10281e+06	92.0195
1.10917e+06	92.0232
1.11558e+06	92.0269
1.12202e+06	92.0306
1.1285e+06	92.0343
1.13501e+06	92.0379
1.14156e+06	92.0415
1.14815e+06	92.0451
1.15478e+06	92.0487
1.16145e+06	92.0523
1.16815e+06	92.0558
1.1749e+06	92.0593
1.18168e+06	92.0628
1.1885e+06	92.0663
1.19536e+06	92.0697
1.20226e+06	92.0731
1.20921e+06	92.0765
1.21619e+06	92.0799
1.22321e+06	92.0833
1.23027e+06	92.0866
1.23737e+06	92.0899
1.24451e+06	92.0932
1.2517e+06	92.0965
1.25893e+06	92.0997
1.26619e+06	92.103
1.2735e+06	92.1062
1.28086e+06	92.1093
1.28825e+06	92.1125
1.29569e+06	92.1156
1.30317e+06	92.1188
1.31069e+06	92.1219
1.31826e+06	92.1249
1.32587e+06	92.128
1.33352e+06	92.131
1.34122e+06	92.134
1.34896e+06	92.137
1.35675e+06	92.14
1.36458e+06	92.1429
1.37246e+06	92.1458
1.38038e+06	92.1487
1.38835e+06	92.1516
1.39637e+06	92.1544
1.40443e+06	92.1573
1.41254e+06	92.1601
1.42069e+06	92.1628
1.42889e+06	92.1656
1.43714e+06	92.1683
1.44544e+06	92.1711
1.45378e+06	92.1738
1.46218e+06	92.1764
1.47062e+06	92.1791
1.47911e+06	92.1817
1.48765e+06	92.1843
1.49624e+06	92.1869
1.50487e+06	92.1895
1.51356e+06	92.192
1.5223e+06	92.1945
1.53109e+06	92.197
1.53993e+06	92.1995
1.54882e+06	92.2019
1.55776e+06	92.2044
1.56675e+06	92.2068
1.5758e+06	92.2092
1.58489e+06	92.2115
1.59404e+06	92.2139
1.60325e+06	92.2162
1.6125e+06	92.2185
1.62181e+06	92.2208
1.63117e+06	92.223
1.64059e+06	92.2253
1.65006e+06	92.2275
1.65959e+06	92.2297
1.66917e+06	92.2318
1.6788e+06	92.234
1.6885e+06	92.2361
1.69824e+06	92.2382
1.70805e+06	92.2403
1.71791e+06	92.2423
1.72783e+06	92.2444
1.7378e+06	92.2464
1.74783e+06	92.2484
1.75792e+06	92.2504
1.76807e+06	92.2523
1.77828e+06	92.2543
1.78855e+06	92.2562
1.79887e+06	92.2581
1.80926e+06	92.2599
1.8197e+06	92.2618
1.83021e+06	92.2636
1.84077e+06	92.2654
1.8514e+06	92.2672
1.86209e+06	92.269
1.87284e+06	92.2707
1.88365e+06	92.2725
1.89452e+06	92.2742
1.90546e+06	92.2759
1.91646e+06	92.2775
1.92752e+06	92.2792
1.93865e+06	92.2808
1.94984e+06	92.2824
1.9611e+06	92.284
1.97242e+06	92.2856
1.98381e+06	92.2871
1.99526e+06	92.2886
2.00678e+06	92.2901
2.01837e+06	92.2916
2.03002e+06	92.2931
2.04174e+06	92.2945
2.05353e+06	92.296
2.06538e+06	92.2974
2.0773e+06	92.2988
2.0893e+06	92.3002
2.10136e+06	92.3015
2.11349e+06	92.3028
2.12569e+06	92.3042
2.13796e+06	92.3055
2.1503e+06	92.3067
2.16272e+06	92.308
2.1752e+06	92.3092
2.18776e+06	92.3105
2.20039e+06	92.3117
2.21309e+06	92.3129
2.22587e+06	92.314
2.23872e+06	92.3152
2.25165e+06	92.3163
2.26464e+06	92.3174
2.27772e+06	92.3185
2.29087e+06	92.3196
2.30409e+06	92.3207
2.31739e+06	92.3217
2.33077e+06	92.3228
2.34423e+06	92.3238
2.35776e+06	92.3248
2.37137e+06	92.3257
2.38506e+06	92.3267
2.39883e+06	92.3277
2.41268e+06	92.3286
2.42661e+06	92.3295
2.44062e+06	92.3304
2.45471e+06	92.3313
2.46888e+06	92.3321
2.48313e+06	92.333
2.49747e+06	92.3338
2.51189e+06	92.3346
2.52639e+06	92.3354
2.54097e+06	92.3362
2.55564e+06	92.337
2.5704e+06	92.3377
2.58523e+06	92.3385
2.60016e+06	92.3392
2.61517e+06	92.3399
2.63027e+06	92.3406
2.64545e+06	92.3413
2.66073e+06	92.3419
2.67609e+06	92.3426
2.69153e+06	92.3432
2.70707e+06	92.3438
2.7227e+06	92.3444
2.73842e+06	92.345
2.75423e+06	92.3456
2.77013e+06	92.3462
2.78612e+06	92.3467
2.80221e+06	92.3473
2.81838e+06	92.3478
2.83465e+06	92.3483
2.85102e+06	92.3488
2.86748e+06	92.3493
2.88403e+06	92.3497
2.90068e+06	92.3502
2.91743e+06	92.3506
2.93427e+06	92.3511
2.95121e+06	92.3515
2.96825e+06	92.3519
2.98538e+06	92.3523
3.00262e+06	92.3527
3.01995e+06	92.353
3.03739e+06	92.3534
3.05492e+06	92.3537
3.07256e+06	92.3541
3.0903e+06	92.3544
3.10814e+06	92.3547
3.12608e+06	92.355
3.14413e+06	92.3553
3.16228e+06	92.3556
3.18053e+06	92.3558
3.1989e+06	92.3561
3.21736e+06	92.3563
3.23594e+06	92.3566
3.25462e+06	92.3568
3.27341e+06	92.357
3.2923e+06	92.3572
3.31131e+06	92.3574
3.33043e+06	92.3576
3.34965e+06	92.3578
3.36899e+06	92.3579
3.38844e+06	92.3581
3.408e+06	92.3582
3.42768e+06	92.3584
3.44747e+06	92.3585
3.46737e+06	92.3586
3.48739e+06	92.3587
3.50752e+06	92.3588
3.52777e+06	92.3589
3.54813e+06	92.359
3.56862e+06	92.3591
3.58922e+06	92.3592
3.60994e+06	92.3592
3.63078e+06	92.3593
3.65174e+06	92.3593
3.67282e+06	92.3594
3.69403e+06	92.3594
3.71535e+06	92.3594
3.7368e+06	92.3595
3.75837e+06	92.3595
3.78007e+06	92.3595
3.80189e+06	92.3595
3.82384e+06	92.3595
3.84592e+06	92.3594
3.86812e+06	92.3594
3.89045e+06	92.3594
3.91291e+06	92.3594
3.9355e+06	92.3593
3.95822e+06	92.3593
3.98107e+06	92.3592
4.00405e+06	92.3592
4.02717e+06	92.3591
4.05042e+06	92.359
4.0738e+06	92.359
4.09732e+06	92.3589
4.12098e+06	92.3588
4.14477e+06	92.3587
4.16869e+06	92.3586
4.19276e+06	92.3586
4.21697e+06	92.3585
4.24131e+06	92.3584
4.2658e+06	92.3583
4.29042e+06	92.3582
4.31519e+06	92.358
4.3401e+06	92.3579
4.36516e+06	92.3578
4.39036e+06	92.3577
4.4157e+06	92.3576
4.4412e+06	92.3574
4.46684e+06	92.3573
4.49262e+06	92.3572
4.51856e+06	92.3571
4.54465e+06	92.3569
4.57088e+06	92.3568
4.59727e+06	92.3567
4.62381e+06	92.3565
4.6505e+06	92.3564
4.67735e+06	92.3562
4.70435e+06	92.3561
4.73151e+06	92.3559
4.75883e+06	92.3558
4.7863e+06	92.3557
4.81393e+06	92.3555
4.84172e+06	92.3554
4.86968e+06	92.3552
4.89779e+06	92.3551
4.92606e+06	92.3549
4.9545e+06	92.3548
4.9831e+06	92.3546
5.01187e+06	92.3545
5.04081e+06	92.3544
5.06991e+06	92.3542
5.09918e+06	92.3541
5.12861e+06	92.3539
5.15822e+06	92.3538
5.188e+06	92.3537
5.21795e+06	92.3535
5.24807e+06	92.3534
5.27837e+06	92.3533
5.30884e+06	92.3531
5.33949e+06	92.353
5.37032e+06	92.3529
5.40132e+06	92.3527
5.4325e+06	92.3526
5.46387e+06	92.3525
5.49541e+06	92.3524
5.52713e+06	92.3522
5.55904e+06	92.3521
5.59114e+06	92.352
5.62341e+06	92.3519
5.65588e+06	92.3517
5.68853e+06	92.3516
5.72137e+06	92.3515
5.7544e+06	92.3514
5.78762e+06	92.3513
5.82103e+06	92.3512
5.85464e+06	92.3511
5.88844e+06	92.3509
5.92243e+06	92.3508
5.95662e+06	92.3507
5.99101e+06	92.3506
6.0256e+06	92.3505
6.06038e+06	92.3504
6.09537e+06	92.3503
6.13056e+06	92.3502
6.16595e+06	92.3501
6.20155e+06	92.35
6.23735e+06	92.3499
6.27336e+06	92.3498
6.30957e+06	92.3497
6.346e+06	92.3496
6.38263e+06	92.3495
6.41948e+06	92.3494
6.45654e+06	92.3493
6.49382e+06	92.3492
6.53131e+06	92.3491
6.56901e+06	92.349
6.60693e+06	92.3489
6.64508e+06	92.3488
6.68344e+06	92.3487
6.72202e+06	92.3486
6.76083e+06	92.3485
6.79986e+06	92.3485
6.83912e+06	92.3484
6.8786e+06	92.3483
6.91831e+06	92.3482
6.95825e+06	92.3481
6.99842e+06	92.348
7.03882e+06	92.3479
7.07946e+06	92.3479
7.12033e+06	92.3478
7.16143e+06	92.3477
7.20278e+06	92.3476
7.24436e+06	92.3475
7.28618e+06	92.3474
7.32825e+06	92.3474
7.37055e+06	92.3473
7.4131e+06	92.3472
7.4559e+06	92.3471
7.49894e+06	92.3471
7.54223e+06	92.347
7.58578e+06	92.3469
7.62957e+06	92.3468
7.67361e+06	92.3468
7.71792e+06	92.3467
7.76247e+06	92.3466
7.80728e+06	92.3465
7.85236e+06	92.3465
7.89769e+06	92.3464
7.94328e+06	92.3463
7.98914e+06	92.3463
8.03526e+06	92.3462
8.08165e+06	92.3461
8.12831e+06	92.3461
8.17523e+06	92.346
8.22243e+06	92.3459
8.2699e+06	92.3459
8.31764e+06	92.3458
8.36566e+06	92.3457
8.41395e+06	92.3457
8.46253e+06	92.3456
8.51138e+06	92.3455
8.56052e+06	92.3455
8.60994e+06	92.3454
8.65964e+06	92.3454
8.70964e+06	92.3453
8.75992e+06	92.3452
8.81049e+06	92.3452
8.86135e+06	92.3451
8.91251e+06	92.3451
8.96396e+06	92.345
9.01571e+06	92.3449
9.06776e+06	92.3449
9.12011e+06	92.3448
9.17276e+06	92.3448
9.22571e+06	92.3447
9.27897e+06	92.3447
9.33254e+06	92.3446
9.38642e+06	92.3446
9.44061e+06	92.3445
9.49511e+06	92.3444
9.54993e+06	92.3444
9.60506e+06	92.3443
9.66051e+06	92.3443
9.71628e+06	92.3442
9.77237e+06	92.3442
9.82879e+06	92.3441
9.88553e+06	92.3441
9.9426e+06	92.344
1e+07	92.344
