Stopping power dEdx from Ionisation for V51[0.0] Z = 23 in G4_Si, process name: ionIoni
E [MeV]	dEdx [MeV/mm]
0.001	29.6305
0.00100577	29.7165
0.00101158	29.8028
0.00101742	29.8894
0.00102329	29.9762
0.0010292	30.0632
0.00103514	30.1505
0.00104112	30.238
0.00104713	30.3258
0.00105317	30.4139
0.00105925	30.5022
0.00106537	30.5908
0.00107152	30.6796
0.00107771	30.7687
0.00108393	30.858
0.00109018	30.9476
0.00109648	31.0374
0.00110281	31.1275
0.00110917	31.2179
0.00111558	31.3085
0.00112202	31.3994
0.0011285	31.4905
0.00113501	31.5819
0.00114156	31.6736
0.00114815	31.7656
0.00115478	31.8578
0.00116145	31.9502
0.00116815	32.043
0.0011749	32.136
0.00118168	32.2292
0.0011885	32.3228
0.00119536	32.4166
0.00120226	32.5107
0.00120921	32.605
0.00121619	32.6996
0.00122321	32.7945
0.00123027	32.8897
0.00123737	32.9851
0.00124451	33.0809
0.0012517	33.1768
0.00125893	33.2731
0.00126619	33.3697
0.0012735	33.4665
0.00128086	33.5636
0.00128825	33.661
0.00129569	33.7587
0.00130317	33.8566
0.00131069	33.9548
0.00131826	34.0533
0.00132587	34.1521
0.00133352	34.2512
0.00134122	34.3506
0.00134896	34.4502
0.00135675	34.5502
0.00136458	34.6504
0.00137246	34.7509
0.00138038	34.8517
0.00138835	34.9528
0.00139637	35.0542
0.00140443	35.1559
0.00141254	35.2579
0.00142069	35.3601
0.00142889	35.4627
0.00143714	35.5656
0.00144544	35.6687
0.00145378	35.7722
0.00146218	35.8759
0.00147062	35.98
0.00147911	36.0843
0.00148765	36.189
0.00149624	36.2939
0.00150487	36.3992
0.00151356	36.5047
0.0015223	36.6106
0.00153109	36.7168
0.00153993	36.8233
0.00154882	36.93
0.00155776	37.0371
0.00156675	37.1445
0.0015758	37.2522
0.00158489	37.3602
0.00159404	37.4686
0.00160325	37.5772
0.0016125	37.6862
0.00162181	37.7954
0.00163117	37.905
0.00164059	38.0149
0.00165006	38.1251
0.00165959	38.2357
0.00166917	38.3465
0.0016788	38.4577
0.0016885	38.5692
0.00169824	38.681
0.00170805	38.7931
0.00171791	38.9056
0.00172783	39.0184
0.0017378	39.1315
0.00174783	39.2449
0.00175792	39.3587
0.00176807	39.4728
0.00177828	39.5872
0.00178855	39.7019
0.00179887	39.817
0.00180926	39.9324
0.0018197	40.0482
0.00183021	40.1642
0.00184077	40.2806
0.0018514	40.3974
0.00186209	40.5145
0.00187284	40.6319
0.00188365	40.7496
0.00189452	40.8677
0.00190546	40.9862
0.00191646	41.105
0.00192752	41.2241
0.00193865	41.3436
0.00194984	41.4634
0.0019611	41.5835
0.00197242	41.704
0.00198381	41.8249
0.00199526	41.9461
0.00200678	42.0676
0.00201837	42.1895
0.00203002	42.3118
0.00204174	42.4344
0.00205353	42.5573
0.00206538	42.6806
0.0020773	42.8043
0.0020893	42.9283
0.00210136	43.0527
0.00211349	43.1774
0.00212569	43.3025
0.00213796	43.428
0.0021503	43.5538
0.00216272	43.68
0.0021752	43.8065
0.00218776	43.9334
0.00220039	44.0607
0.00221309	44.1883
0.00222587	44.3163
0.00223872	44.4447
0.00225165	44.5735
0.00226464	44.7026
0.00227772	44.8321
0.00229087	44.962
0.00230409	45.0922
0.00231739	45.2228
0.00233077	45.3538
0.00234423	45.4852
0.00235776	45.6169
0.00237137	45.749
0.00238506	45.8816
0.00239883	46.0144
0.00241268	46.1477
0.00242661	46.2814
0.00244062	46.4154
0.00245471	46.5498
0.00246888	46.6847
0.00248313	46.8199
0.00249747	46.9555
0.00251189	47.0914
0.00252639	47.2278
0.00254097	47.3646
0.00255564	47.5018
0.0025704	47.6393
0.00258523	47.7773
0.00260016	47.9156
0.00261517	48.0544
0.00263027	48.1935
0.00264545	48.3331
0.00266073	48.473
0.00267609	48.6134
0.00269153	48.7542
0.00270707	48.8953
0.0027227	49.0369
0.00273842	49.1789
0.00275423	49.3213
0.00277013	49.4641
0.00278612	49.6073
0.00280221	49.7509
0.00281838	49.895
0.00283465	50.0395
0.00285102	50.1843
0.00286748	50.3296
0.00288403	50.4753
0.00290068	50.6215
0.00291743	50.768
0.00293427	50.915
0.00295121	51.0624
0.00296825	51.2102
0.00298538	51.3585
0.00300262	51.5071
0.00301995	51.6562
0.00303739	51.8058
0.00305492	51.9557
0.00307256	52.1061
0.0030903	52.257
0.00310814	52.4082
0.00312608	52.5599
0.00314413	52.7121
0.00316228	52.8647
0.00318053	53.0177
0.0031989	53.1711
0.00321736	53.325
0.00323594	53.4794
0.00325462	53.6342
0.00327341	53.7894
0.0032923	53.9451
0.00331131	54.1012
0.00333043	54.2578
0.00334965	54.4148
0.00336899	54.5723
0.00338844	54.7303
0.003408	54.8887
0.00342768	55.0475
0.00344747	55.2068
0.00346737	55.3666
0.00348739	55.5268
0.00350752	55.6875
0.00352777	55.8487
0.00354813	56.0103
0.00356862	56.1724
0.00358922	56.3349
0.00360994	56.4979
0.00363078	56.6614
0.00365174	56.8254
0.00367282	56.9898
0.00369403	57.1547
0.00371535	57.3201
0.0037368	57.486
0.00375837	57.6523
0.00378007	57.8191
0.00380189	57.9864
0.00382384	58.1542
0.00384592	58.3225
0.00386812	58.4912
0.00389045	58.6605
0.00391291	58.8302
0.0039355	59.0004
0.00395822	59.1711
0.00398107	59.3423
0.00400405	59.514
0.00402717	59.6862
0.00405042	59.8589
0.0040738	60.032
0.00409732	60.2057
0.00412098	60.3799
0.00414477	60.5546
0.00416869	60.7298
0.00419276	60.9054
0.00421697	61.0816
0.00424131	61.2583
0.0042658	61.4356
0.00429042	61.6133
0.00431519	61.7915
0.0043401	61.9703
0.00436516	62.1495
0.00439036	62.3293
0.0044157	62.5096
0.0044412	62.6904
0.00446684	62.8718
0.00449262	63.0536
0.00451856	63.236
0.00454465	63.4189
0.00457088	63.6024
0.00459727	63.7863
0.00462381	63.9708
0.0046505	64.1559
0.00467735	64.3414
0.00470435	64.5275
0.00473151	64.7142
0.00475883	64.9013
0.0047863	65.089
0.00481393	65.2773
0.00484172	65.4661
0.00486968	65.6554
0.00489779	65.8453
0.00492606	66.0358
0.0049545	66.2267
0.0049831	66.4183
0.00501187	66.6104
0.00504081	66.803
0.00506991	66.9962
0.00509918	67.1899
0.00512861	67.3842
0.00515822	67.5791
0.005188	67.7745
0.00521795	67.9705
0.00524807	68.1671
0.00527837	68.3642
0.00530884	68.5619
0.00533949	68.7602
0.00537032	68.959
0.00540132	69.1584
0.0054325	69.3584
0.00546387	69.559
0.00549541	69.7601
0.00552713	69.9618
0.00555904	70.1641
0.00559114	70.367
0.00562341	70.5705
0.00565588	70.7745
0.00568853	70.9792
0.00572137	71.1844
0.0057544	71.3902
0.00578762	71.5966
0.00582103	71.8036
0.00585464	72.0112
0.00588844	72.2195
0.00592243	72.4283
0.00595662	72.6377
0.00599101	72.8477
0.0060256	73.0583
0.00606038	73.2695
0.00609537	73.4813
0.00613056	73.6938
0.00616595	73.9068
0.00620155	74.1205
0.00623735	74.3348
0.00627336	74.5497
0.00630957	74.7652
0.006346	74.9814
0.00638263	75.1981
0.00641948	75.4155
0.00645654	75.6335
0.00649382	75.8522
0.00653131	76.0715
0.00656901	76.2914
0.00660693	76.5119
0.00664508	76.7331
0.00668344	76.9549
0.00672202	77.1774
0.00676083	77.4005
0.00679986	77.6242
0.00683912	77.8486
0.0068786	78.0736
0.00691831	78.2993
0.00695825	78.5256
0.00699842	78.7526
0.00703882	78.9803
0.00707946	79.2085
0.00712033	79.4375
0.00716143	79.6671
0.00720278	79.8974
0.00724436	80.1283
0.00728618	80.3599
0.00732825	80.5922
0.00737055	80.8251
0.0074131	81.0587
0.0074559	81.293
0.00749894	81.528
0.00754223	81.7636
0.00758578	81.9999
0.00762957	82.2369
0.00767361	82.4746
0.00771792	82.713
0.00776247	82.952
0.00780728	83.1918
0.00785236	83.4322
0.00789769	83.6733
0.00794328	83.9152
0.00798914	84.1577
0.00803526	84.4009
0.00808165	84.6448
0.00812831	84.8894
0.00817523	85.1348
0.00822243	85.3808
0.0082699	85.6275
0.00831764	85.875
0.00836566	86.1231
0.00841395	86.372
0.00846253	86.6216
0.00851138	86.8719
0.00856052	87.123
0.00860994	87.3747
0.00865964	87.6272
0.00870964	87.8805
0.00875992	88.1344
0.00881049	88.3891
0.00886135	88.6445
0.00891251	88.9006
0.00896396	89.1575
0.00901571	89.4152
0.00906776	89.6735
0.00912011	90.9425
0.00917276	91.2044
0.00922571	91.4671
0.00927897	91.7305
0.00933254	91.9947
0.00938642	92.2596
0.00944061	92.5253
0.00949511	92.7918
0.00954993	93.059
0.00960506	93.327
0.00966051	93.5958
0.00971628	93.8654
0.00977237	94.1357
0.00982879	94.4068
0.00988553	94.6787
0.0099426	94.9514
0.01	95.2248
0.0100577	95.499
0.0101158	95.7741
0.0101742	96.0499
0.0102329	96.3265
0.010292	96.6039
0.0103514	96.8821
0.0104112	97.1611
0.0104713	97.4409
0.0105317	97.7215
0.0105925	98.003
0.0106537	98.2852
0.0107152	98.5682
0.0107771	98.8521
0.0108393	99.1368
0.0109018	99.4223
0.0109648	99.7086
0.0110281	99.9957
0.0110917	100.284
0.0111558	100.572
0.0112202	100.862
0.011285	101.153
0.0113501	101.444
0.0114156	101.736
0.0114815	102.029
0.0115478	102.323
0.0116145	102.617
0.0116815	102.913
0.011749	103.209
0.0118168	103.506
0.011885	103.805
0.0119536	104.103
0.0120226	104.403
0.0120921	104.704
0.0121619	105.005
0.0122321	105.308
0.0123027	105.611
0.0123737	105.915
0.0124451	106.22
0.012517	106.526
0.0125893	106.833
0.0126619	107.14
0.012735	107.449
0.0128086	107.758
0.0128825	108.069
0.0129569	108.38
0.0130317	108.692
0.0131069	109.005
0.0131826	109.319
0.0132587	109.634
0.0133352	109.949
0.0134122	110.266
0.0134896	110.583
0.0135675	110.902
0.0136458	111.221
0.0137246	111.541
0.0138038	111.863
0.0138835	112.185
0.0139637	112.508
0.0140443	112.832
0.0141254	113.157
0.0142069	113.482
0.0142889	113.809
0.0143714	114.137
0.0144544	114.465
0.0145378	114.795
0.0146218	115.126
0.0147062	115.457
0.0147911	115.79
0.0148765	116.123
0.0149624	116.457
0.0150487	116.793
0.0151356	117.129
0.015223	117.466
0.0153109	117.804
0.0153993	118.144
0.0154882	118.484
0.0155776	118.825
0.0156675	119.167
0.015758	119.51
0.0158489	119.854
0.0159404	120.199
0.0160325	120.545
0.016125	120.892
0.0162181	121.241
0.0163117	121.59
0.0164059	121.94
0.0165006	122.291
0.0165959	122.643
0.0166917	122.996
0.016788	123.35
0.016885	123.705
0.0169824	124.061
0.0170805	124.419
0.0171791	124.777
0.0172783	125.136
0.017378	125.496
0.0174783	125.858
0.0175792	126.22
0.0176807	126.583
0.0177828	126.948
0.0178855	127.313
0.0179887	127.68
0.0180926	128.048
0.018197	128.416
0.0183021	128.786
0.0184077	129.157
0.018514	129.529
0.0186209	129.901
0.0187284	130.275
0.0188365	130.65
0.0189452	131.027
0.0190546	131.404
0.0191646	131.782
0.0192752	132.162
0.0193865	132.542
0.0194984	132.924
0.019611	133.306
0.0197242	133.69
0.0198381	134.075
0.0199526	134.461
0.0200678	134.848
0.0201837	135.236
0.0203002	135.626
0.0204174	136.016
0.0205353	136.408
0.0206538	136.8
0.020773	137.194
0.020893	137.589
0.0210136	137.985
0.0211349	138.382
0.0212569	138.781
0.0213796	139.18
0.021503	139.581
0.0216272	139.983
0.021752	140.386
0.0218776	140.79
0.0220039	141.195
0.0221309	141.602
0.0222587	142.009
0.0223872	142.418
0.0225165	142.828
0.0226464	143.239
0.0227772	143.651
0.0229087	144.065
0.0230409	144.48
0.0231739	144.896
0.0233077	145.313
0.0234423	145.731
0.0235776	146.15
0.0237137	146.571
0.0238506	146.993
0.0239883	147.416
0.0241268	147.841
0.0242661	148.266
0.0244062	148.693
0.0245471	149.121
0.0246888	149.55
0.0248313	149.981
0.0249747	150.412
0.0251189	150.845
0.0252639	151.279
0.0254097	151.715
0.0255564	152.152
0.025704	152.59
0.0258523	153.029
0.0260016	153.469
0.0261517	153.911
0.0263027	154.354
0.0264545	154.798
0.0266073	155.244
0.0267609	155.691
0.0269153	156.139
0.0270707	156.588
0.027227	157.039
0.0273842	157.491
0.0275423	157.944
0.0277013	158.399
0.0278612	158.855
0.0280221	159.312
0.0281838	159.771
0.0283465	160.23
0.0285102	160.692
0.0286748	161.154
0.0288403	161.618
0.0290068	162.083
0.0291743	162.55
0.0293427	163.017
0.0295121	163.487
0.0296825	163.957
0.0298538	164.429
0.0300262	164.902
0.0301995	165.377
0.0303739	165.853
0.0305492	166.33
0.0307256	166.809
0.030903	167.289
0.0310814	167.77
0.0312608	168.253
0.0314413	168.737
0.0316228	169.223
0.0318053	169.71
0.031989	170.199
0.0321736	170.688
0.0323594	171.18
0.0325462	171.672
0.0327341	172.166
0.032923	172.662
0.0331131	173.159
0.0333043	173.657
0.0334965	174.157
0.0336899	174.658
0.0338844	175.161
0.03408	175.665
0.0342768	176.17
0.0344747	176.677
0.0346737	177.186
0.0348739	177.696
0.0350752	178.207
0.0352777	178.72
0.0354813	179.234
0.0356862	179.75
0.0358922	180.267
0.0360994	180.786
0.0363078	181.306
0.0365174	181.828
0.0367282	182.351
0.0369403	182.876
0.0371535	183.402
0.037368	183.93
0.0375837	184.459
0.0378007	184.99
0.0380189	185.522
0.0382384	186.056
0.0384592	186.591
0.0386812	187.128
0.0389045	187.667
0.0391291	188.207
0.039355	188.748
0.0395822	189.291
0.0398107	189.836
0.0400405	190.382
0.0402717	190.93
0.0405042	191.48
0.040738	192.031
0.0409732	192.583
0.0412098	193.137
0.0414477	193.693
0.0416869	194.25
0.0419276	194.809
0.0421697	195.37
0.0424131	195.932
0.042658	196.496
0.0429042	197.061
0.0431519	197.628
0.043401	198.197
0.0436516	198.767
0.0439036	199.339
0.044157	199.912
0.044412	200.487
0.0446684	201.064
0.0449262	201.643
0.0451856	202.223
0.0454465	202.805
0.0457088	203.388
0.0459727	203.973
0.0462381	204.56
0.046505	205.149
0.0467735	205.739
0.0470435	206.331
0.0473151	206.924
0.0475883	207.52
0.047863	208.117
0.0481393	208.716
0.0484172	209.316
0.0486968	209.918
0.0489779	210.522
0.0492606	211.128
0.049545	211.735
0.049831	212.344
0.0501187	212.955
0.0504081	213.568
0.0506991	214.182
0.0509918	214.798
0.0512861	215.416
0.0515822	216.036
0.05188	216.657
0.0521795	217.281
0.0524807	217.906
0.0527837	218.533
0.0530884	219.161
0.0533949	219.792
0.0537032	220.424
0.0540132	221.058
0.054325	221.694
0.0546387	222.332
0.0549541	222.971
0.0552713	223.613
0.0555904	224.256
0.0559114	224.901
0.0562341	225.548
0.0565588	226.197
0.0568853	226.847
0.0572137	227.5
0.057544	228.154
0.0578762	228.811
0.0582103	229.469
0.0585464	230.129
0.0588844	230.791
0.0592243	231.455
0.0595662	232.12
0.0599101	232.788
0.060256	233.458
0.0606038	234.129
0.0609537	234.802
0.0613056	235.478
0.0616595	236.155
0.0620155	236.834
0.0623735	237.516
0.0627336	238.199
0.0630957	238.884
0.06346	239.571
0.0638263	240.26
0.0641948	240.951
0.0645654	241.644
0.0649382	242.339
0.0653131	243.036
0.0656901	243.735
0.0660693	244.436
0.0664508	245.139
0.0668344	245.844
0.0672202	246.551
0.0676083	247.26
0.0679986	247.971
0.0683912	248.684
0.068786	249.399
0.0691831	250.117
0.0695825	250.836
0.0699842	251.557
0.0703882	252.281
0.0707946	253.006
0.0712033	253.734
0.0716143	254.464
0.0720278	255.195
0.0724436	255.929
0.0728618	256.665
0.0732825	257.403
0.0737055	258.144
0.074131	258.886
0.074559	259.63
0.0749894	260.377
0.0754223	261.126
0.0758578	261.877
0.0762957	262.63
0.0767361	263.385
0.0771792	264.142
0.0776247	264.902
0.0780728	265.663
0.0785236	266.427
0.0789769	267.193
0.0794328	267.962
0.0798914	268.732
0.0803526	269.505
0.0808165	270.28
0.0812831	271.057
0.0817523	271.836
0.0822243	272.618
0.082699	273.402
0.0831764	274.188
0.0836566	274.976
0.0841395	275.767
0.0846253	276.56
0.0851138	277.355
0.0856052	278.152
0.0860994	278.952
0.0865964	279.754
0.0870964	280.559
0.0875992	281.365
0.0881049	282.174
0.0886135	282.985
0.0891251	283.799
0.0896396	284.615
0.0901571	285.433
0.0906776	286.254
0.0912011	287.077
0.0917276	287.902
0.0922571	288.73
0.0927897	289.56
0.0933254	290.392
0.0938642	291.227
0.0944061	292.064
0.0949511	292.904
0.0954993	293.746
0.0960506	294.59
0.0966051	295.437
0.0971628	296.287
0.0977237	297.138
0.0982879	297.992
0.0988553	298.849
0.099426	299.708
0.1	300.57
0.100577	301.434
0.101158	302.3
0.101742	303.169
0.102329	304.041
0.10292	304.915
0.103514	305.791
0.104112	306.67
0.104713	307.552
0.105317	308.436
0.105925	309.322
0.106537	310.211
0.107152	311.103
0.107771	311.997
0.108393	312.894
0.109018	313.793
0.109648	314.695
0.110281	315.6
0.110917	316.507
0.111558	317.416
0.112202	318.329
0.11285	319.244
0.113501	320.161
0.114156	321.081
0.114815	322.004
0.115478	322.93
0.116145	323.858
0.116815	324.788
0.11749	325.722
0.118168	326.658
0.11885	327.597
0.119536	328.538
0.120226	329.482
0.120921	330.429
0.121619	331.379
0.122321	332.331
0.123027	333.286
0.123737	334.244
0.124451	335.204
0.12517	336.168
0.125893	337.134
0.126619	338.103
0.12735	339.074
0.128086	340.048
0.128825	341.026
0.129569	342.006
0.130317	342.988
0.131069	343.974
0.131826	344.962
0.132587	345.954
0.133352	346.948
0.134122	347.945
0.134896	348.944
0.135675	349.947
0.136458	350.952
0.137246	351.961
0.138038	352.972
0.138835	353.986
0.139637	355.003
0.140443	356.023
0.141254	357.046
0.142069	358.072
0.142889	359.101
0.143714	360.133
0.144544	361.167
0.145378	362.205
0.146218	363.245
0.147062	364.289
0.147911	365.336
0.148765	366.385
0.149624	367.438
0.150487	368.493
0.151356	369.552
0.15223	370.614
0.153109	371.678
0.153993	372.746
0.154882	373.817
0.155776	374.891
0.156675	375.968
0.15758	377.048
0.158489	378.131
0.159404	379.217
0.160325	380.306
0.16125	381.399
0.162181	382.494
0.163117	383.593
0.164059	384.695
0.165006	385.8
0.165959	386.908
0.166917	388.019
0.16788	389.134
0.16885	390.252
0.169824	391.373
0.170805	392.497
0.171791	393.624
0.172783	394.755
0.17378	395.888
0.174783	397.025
0.175792	398.166
0.176807	399.309
0.177828	400.456
0.178855	401.606
0.179887	402.76
0.180926	403.916
0.18197	405.076
0.183021	406.24
0.184077	407.406
0.18514	408.576
0.186209	409.75
0.187284	410.926
0.188365	412.106
0.189452	413.29
0.190546	414.477
0.191646	415.667
0.192752	416.861
0.193865	418.058
0.194984	419.258
0.19611	420.462
0.197242	421.669
0.198381	422.88
0.199526	424.094
0.200678	425.312
0.201837	426.533
0.203002	427.758
0.204174	428.986
0.205353	430.218
0.206538	431.453
0.20773	432.692
0.20893	433.935
0.210136	435.18
0.211349	436.43
0.212569	437.683
0.213796	438.94
0.21503	440.2
0.216272	441.464
0.21752	442.731
0.218776	444.002
0.220039	445.277
0.221309	446.555
0.222587	447.837
0.223872	449.123
0.225165	450.412
0.226464	451.705
0.227772	453.002
0.229087	454.302
0.230409	455.606
0.231739	456.914
0.233077	458.226
0.234423	459.541
0.235776	460.86
0.237137	462.183
0.238506	463.51
0.239883	464.84
0.241268	466.174
0.242661	467.513
0.244062	468.854
0.245471	470.2
0.246888	471.55
0.248313	472.903
0.249747	474.26
0.251189	475.622
0.252639	476.987
0.254097	478.356
0.255564	479.729
0.25704	481.105
0.258523	482.486
0.260016	483.871
0.261517	485.26
0.263027	486.652
0.264545	488.049
0.266073	489.449
0.267609	490.854
0.269153	492.263
0.270707	493.675
0.27227	495.092
0.273842	496.513
0.275423	497.937
0.277013	499.366
0.278612	500.799
0.280221	502.236
0.281838	503.677
0.283465	505.122
0.285102	506.572
0.286748	508.025
0.288403	509.483
0.290068	510.945
0.291743	512.411
0.293427	513.881
0.295121	515.355
0.296825	516.834
0.298538	518.317
0.300262	519.804
0.301995	521.295
0.303739	522.791
0.305492	524.291
0.307256	525.795
0.30903	527.303
0.310814	528.816
0.312608	530.333
0.314413	531.854
0.316228	533.38
0.318053	534.91
0.31989	536.444
0.321736	537.983
0.323594	539.526
0.325462	541.074
0.327341	542.626
0.32923	544.182
0.331131	545.743
0.333043	547.309
0.334965	548.879
0.336899	550.453
0.338844	552.032
0.3408	553.615
0.342768	555.203
0.344747	556.795
0.346737	558.392
0.348739	559.994
0.350752	561.6
0.352777	563.21
0.354813	564.825
0.356862	566.445
0.358922	568.07
0.360994	569.699
0.363078	571.332
0.365174	572.971
0.367282	574.614
0.369403	576.262
0.371535	577.914
0.37368	579.571
0.375837	581.233
0.378007	582.9
0.380189	584.571
0.382384	586.247
0.384592	587.928
0.386812	589.614
0.389045	591.305
0.391291	593
0.39355	594.7
0.395822	596.405
0.398107	598.115
0.400405	599.83
0.402717	601.55
0.405042	603.274
0.40738	605.004
0.409732	606.738
0.412098	608.477
0.414477	610.222
0.416869	611.971
0.419276	613.725
0.421697	615.485
0.424131	617.249
0.42658	619.018
0.429042	620.793
0.431519	622.572
0.43401	624.357
0.436516	626.146
0.439036	627.941
0.44157	629.741
0.44412	631.546
0.446684	633.356
0.449262	635.171
0.451856	636.991
0.454465	638.817
0.457088	640.648
0.459727	642.484
0.462381	644.325
0.46505	646.172
0.467735	648.024
0.470435	649.881
0.473151	651.743
0.475883	653.611
0.47863	655.484
0.481393	657.362
0.484172	659.245
0.486968	661.135
0.489779	663.029
0.492606	664.929
0.49545	666.834
0.49831	668.745
0.501187	670.661
0.504081	672.582
0.506991	674.509
0.509918	676.442
0.512861	678.38
0.515822	680.323
0.5188	682.272
0.521795	684.227
0.524807	686.187
0.527837	688.153
0.530884	690.124
0.533949	692.101
0.537032	694.084
0.540132	696.072
0.54325	698.066
0.546387	700.066
0.549541	702.071
0.552713	704.082
0.555904	706.099
0.559114	708.121
0.562341	710.149
0.565588	712.183
0.568853	714.223
0.572137	716.269
0.57544	718.32
0.578762	720.377
0.582103	722.44
0.585464	724.509
0.588844	726.584
0.592243	728.665
0.595662	730.751
0.599101	732.844
0.60256	734.943
0.606038	737.047
0.609537	739.158
0.613056	741.274
0.616595	743.397
0.620155	745.525
0.623735	747.66
0.627336	749.801
0.630957	751.947
0.6346	754.1
0.638263	756.259
0.641948	758.425
0.645654	760.596
0.649382	762.773
0.653131	764.957
0.656901	767.147
0.660693	769.343
0.664508	771.546
0.668344	773.754
0.672202	775.969
0.676083	778.19
0.679986	780.418
0.683912	782.652
0.68786	784.892
0.691831	787.138
0.695825	789.391
0.699842	791.651
0.703882	793.917
0.707946	796.189
0.712033	798.468
0.716143	800.753
0.720278	803.044
0.724436	805.343
0.728618	807.647
0.732825	809.959
0.737055	812.276
0.74131	814.601
0.74559	816.932
0.749894	819.269
0.754223	821.614
0.758578	823.965
0.762957	826.322
0.767361	828.687
0.771792	831.058
0.776247	833.435
0.780728	835.82
0.785236	838.211
0.789769	840.609
0.794328	843.014
0.798914	845.426
0.803526	847.844
0.808165	850.27
0.812831	852.702
0.817523	855.141
0.822243	857.588
0.82699	860.041
0.831764	862.501
0.836566	864.968
0.841395	867.442
0.846253	869.923
0.851138	872.411
0.856052	874.906
0.860994	877.409
0.865964	879.918
0.870964	882.434
0.875992	884.958
0.881049	887.489
0.886135	890.027
0.891251	892.572
0.896396	895.124
0.901571	897.684
0.906776	900.251
0.912011	902.825
0.917276	905.407
0.922571	907.995
0.927897	910.592
0.933254	913.195
0.938642	915.806
0.944061	918.424
0.949511	921.05
0.954993	923.683
0.960506	926.324
0.966051	928.972
0.971628	931.628
0.977237	934.291
0.982879	936.962
0.988553	939.64
0.99426	942.326
1	945.019
1.00577	947.72
1.01158	950.429
1.01742	953.146
1.02329	955.87
1.0292	958.602
1.03514	961.341
1.04112	964.089
1.04713	966.844
1.05317	969.607
1.05925	972.378
1.06537	975.157
1.07152	977.943
1.07771	980.738
1.08393	983.54
1.09018	986.35
1.09648	989.169
1.10281	991.995
1.10917	994.829
1.11558	997.671
1.12202	1000.52
1.1285	1003.38
1.13501	1006.25
1.14156	1009.12
1.14815	1012
1.15478	1014.9
1.16145	1017.79
1.16815	1020.7
1.1749	1023.62
1.18168	1026.54
1.1885	1029.47
1.19536	1032.41
1.20226	1035.36
1.20921	1038.32
1.21619	1041.28
1.22321	1044.26
1.23027	1047.24
1.23737	1050.23
1.24451	1053.23
1.2517	1056.24
1.25893	1059.25
1.26619	1062.28
1.2735	1065.31
1.28086	1068.81
1.28825	1072.46
1.29569	1076.12
1.30317	1079.8
1.31069	1083.51
1.31826	1087.23
1.32587	1090.97
1.33352	1094.74
1.34122	1098.52
1.34896	1102.32
1.35675	1106.14
1.36458	1109.99
1.37246	1113.85
1.38038	1117.73
1.38835	1121.64
1.39637	1125.56
1.40443	1129.5
1.41254	1133.47
1.42069	1137.45
1.42889	1141.45
1.43714	1145.48
1.44544	1149.52
1.45378	1153.59
1.46218	1157.67
1.47062	1161.78
1.47911	1165.9
1.48765	1170.05
1.49624	1174.22
1.50487	1178.41
1.51356	1182.61
1.5223	1186.84
1.53109	1191.07
1.53993	1195.14
1.54882	1199.22
1.55776	1203.33
1.56675	1207.46
1.5758	1211.6
1.58489	1215.77
1.59404	1219.95
1.60325	1224.16
1.6125	1228.38
1.62181	1232.62
1.63117	1236.88
1.64059	1241.16
1.65006	1245.46
1.65959	1249.78
1.66917	1254.11
1.6788	1258.47
1.6885	1262.84
1.69824	1267.24
1.70805	1271.65
1.71791	1276.08
1.72783	1280.53
1.7378	1284.99
1.74783	1289.48
1.75792	1293.98
1.76807	1298.5
1.77828	1303.04
1.78855	1307.6
1.79887	1312.18
1.80926	1316.77
1.8197	1321.38
1.83021	1326.01
1.84077	1330.66
1.8514	1335.32
1.86209	1340
1.87284	1344.7
1.88365	1349.41
1.89452	1354.14
1.90546	1358.89
1.91646	1363.65
1.92752	1368.43
1.93865	1373.23
1.94984	1378.04
1.9611	1382.86
1.97242	1387.71
1.98381	1392.56
1.99526	1397.43
2.00678	1402.32
2.01837	1407.22
2.03002	1412.14
2.04174	1417.06
2.05353	1421.95
2.06538	1426.85
2.0773	1431.77
2.0893	1436.7
2.10136	1441.64
2.11349	1446.6
2.12569	1451.57
2.13796	1456.55
2.1503	1461.55
2.16272	1466.55
2.1752	1471.58
2.18776	1476.61
2.20039	1481.66
2.21309	1486.73
2.22587	1491.8
2.23872	1496.89
2.25165	1501.99
2.26464	1507.11
2.27772	1512.24
2.29087	1517.38
2.30409	1522.54
2.31739	1527.71
2.33077	1532.89
2.34423	1538.08
2.35776	1543.29
2.37137	1548.52
2.38506	1553.75
2.39883	1559
2.41268	1564.26
2.42661	1569.54
2.44062	1574.83
2.45471	1580.13
2.46888	1585.44
2.48313	1590.77
2.49747	1596.11
2.51189	1601.47
2.52639	1606.84
2.54097	1612.22
2.55564	1617.62
2.5704	1623.02
2.58523	1628.44
2.60016	1633.88
2.61517	1639.33
2.63027	1644.79
2.64545	1650.26
2.66073	1655.75
2.67609	1661.25
2.69153	1666.76
2.70707	1672.29
2.7227	1677.83
2.73842	1683.38
2.75423	1688.95
2.77013	1694.53
2.78612	1700.12
2.80221	1705.72
2.81838	1711.34
2.83465	1716.97
2.85102	1722.62
2.86748	1728.27
2.88403	1733.94
2.90068	1739.62
2.91743	1745.32
2.93427	1751.03
2.95121	1756.75
2.96825	1762.48
2.98538	1768.22
3.00262	1773.98
3.01995	1779.75
3.03739	1785.54
3.05492	1791.33
3.07256	1797.14
3.0903	1802.96
3.10814	1808.79
3.12608	1814.64
3.14413	1820.49
3.16228	1826.37
3.18053	1832.25
3.1989	1838.15
3.21736	1844.06
3.23594	1849.98
3.25462	1855.92
3.27341	1861.87
3.2923	1867.83
3.31131	1873.81
3.33043	1879.8
3.34965	1885.8
3.36899	1891.82
3.38844	1897.85
3.408	1903.9
3.42768	1909.96
3.44747	1916.04
3.46737	1922.13
3.48739	1928.24
3.50752	1934.36
3.52777	1940.49
3.54813	1946.65
3.56862	1952.82
3.58922	1959
3.60994	1965.2
3.63078	1971.42
3.65174	1977.66
3.67282	1983.91
3.69403	1990.18
3.71535	1996.47
3.7368	2002.77
3.75837	2009.1
3.78007	2015.45
3.80189	2021.81
3.82384	2028.2
3.84592	2034.6
3.86812	2041.03
3.89045	2047.48
3.91291	2053.95
3.9355	2060.45
3.95822	2066.96
3.98107	2073.5
4.00405	2080.07
4.02717	2086.66
4.05042	2093.28
4.0738	2099.92
4.09732	2106.59
4.12098	2113.28
4.14477	2120.01
4.16869	2126.76
4.19276	2133.54
4.21697	2140.35
4.24131	2147.2
4.2658	2154.07
4.29042	2160.97
4.31519	2167.9
4.3401	2174.87
4.36516	2181.87
4.39036	2188.9
4.4157	2195.96
4.4412	2203.06
4.46684	2210.2
4.49262	2217.37
4.51856	2224.58
4.54465	2231.82
4.57088	2239.11
4.59727	2246.43
4.62381	2253.79
4.6505	2261.19
4.67735	2268.63
4.70435	2276.11
4.73151	2283.63
4.75883	2291.19
4.7863	2298.79
4.81393	2306.43
4.84172	2314.11
4.86968	2321.83
4.89779	2329.58
4.92606	2337.38
4.9545	2345.22
4.9831	2353.1
5.01187	2361.01
5.04081	2368.97
5.06991	2376.96
5.09918	2385
5.12861	2393.08
5.15822	2401.19
5.188	2409.35
5.21795	2417.54
5.24807	2425.77
5.27837	2434.05
5.30884	2442.36
5.33949	2450.71
5.37032	2459.1
5.40132	2467.53
5.4325	2476
5.46387	2484.5
5.49541	2493.05
5.52713	2501.63
5.55904	2510.25
5.59114	2518.92
5.62341	2527.61
5.65588	2536.35
5.68853	2545.12
5.72137	2553.94
5.7544	2562.79
5.78762	2571.67
5.82103	2580.6
5.85464	2589.56
5.88844	2598.55
5.92243	2607.59
5.95662	2616.65
5.99101	2625.76
6.0256	2634.9
6.06038	2644.07
6.09537	2653.28
6.13056	2662.53
6.16595	2671.81
6.20155	2681.12
6.23735	2690.47
6.27336	2699.85
6.30957	2709.26
6.346	2718.7
6.38263	2728.18
6.41948	2737.69
6.45654	2747.23
6.49382	2756.8
6.53131	2766.4
6.56901	2776.03
6.60693	2785.68
6.64508	2795.37
6.68344	2805.09
6.72202	2814.83
6.76083	2824.6
6.79986	2834.39
6.83912	2844.22
6.8786	2854.06
6.91831	2863.93
6.95825	2873.83
6.99842	2883.74
7.03882	2893.68
7.07946	2903.64
7.12033	2913.62
7.16143	2923.63
7.20278	2933.65
7.24436	2943.69
7.28618	2953.74
7.32825	2963.81
7.37055	2973.9
7.4131	2984
7.4559	2994.12
7.49894	3004.25
7.54223	3014.39
7.58578	3024.54
7.62957	3034.7
7.67361	3044.85
7.71792	3054.99
7.76247	3065.14
7.80728	3075.3
7.85236	3085.47
7.89769	3095.64
7.94328	3105.81
7.98914	3115.99
8.03526	3126.18
8.08165	3136.37
8.12831	3146.57
8.17523	3156.77
8.22243	3166.97
8.2699	3177.18
8.31764	3187.4
8.36566	3197.61
8.41395	3207.83
8.46253	3218.05
8.51138	3228.28
8.56052	3238.5
8.60994	3248.73
8.65964	3258.96
8.70964	3269.19
8.75992	3279.42
8.81049	3289.65
8.86135	3299.88
8.91251	3310.11
8.96396	3320.34
9.01571	3330.57
9.06776	3340.8
9.12011	3351.03
9.17276	3361.25
9.22571	3371.48
9.27897	3381.7
9.33254	3391.92
9.38642	3402.13
9.44061	3412.35
9.49511	3422.56
9.54993	3432.77
9.60506	3442.97
9.66051	3453.17
9.71628	3463.36
9.77237	3473.55
9.82879	3483.74
9.88553	3493.92
9.9426	3504.09
10	3514.26
10.0577	3524.42
10.1158	3534.58
10.1742	3544.73
10.2329	3554.89
10.292	3565.06
10.3514	3575.22
10.4112	3585.37
10.4713	3595.52
10.5317	3605.66
10.5925	3615.79
10.6537	3625.91
10.7152	3636.02
10.7771	3646.12
10.8393	3656.22
10.9018	3666.3
10.9648	3676.38
11.0281	3686.44
11.0917	3696.5
11.1558	3706.54
11.2202	3716.57
11.285	3726.59
11.3501	3736.6
11.4156	3746.6
11.4815	3756.58
11.5478	3766.56
11.6145	3776.52
11.6815	3786.47
11.749	3796.4
11.8168	3806.33
11.885	3816.24
11.9536	3826.13
12.0226	3836.01
12.0921	3845.88
12.1619	3855.74
12.2321	3865.58
12.3027	3875.41
12.3737	3885.22
12.4451	3895.02
12.517	3904.8
12.5893	3914.57
12.6619	3924.33
12.735	3934.07
12.8086	3943.8
12.8825	3953.51
12.9569	3963.21
13.0317	3972.9
13.1069	3982.57
13.1826	3992.22
13.2587	4001.86
13.3352	4011.48
13.4122	4021.08
13.4896	4030.67
13.5675	4040.24
13.6458	4049.79
13.7246	4059.33
13.8038	4068.85
13.8835	4078.35
13.9637	4087.84
14.0443	4097.3
14.1254	4106.75
14.2069	4116.18
14.2889	4125.6
14.3714	4134.99
14.4544	4144.37
14.5378	4153.72
14.6218	4163.06
14.7062	4172.38
14.7911	4181.69
14.8765	4190.97
14.9624	4200.24
15.0487	4209.48
15.1356	4218.71
15.223	4227.92
15.3109	4237.12
15.3993	4246.31
15.4882	4255.48
15.5776	4264.63
15.6675	4273.76
15.758	4282.87
15.8489	4291.97
15.9404	4301.04
16.0325	4310.1
16.125	4319.13
16.2181	4328.15
16.3117	4337.14
16.4059	4346.12
16.5006	4355.07
16.5959	4364
16.6917	4372.91
16.788	4381.8
16.885	4390.67
16.9824	4399.52
17.0805	4408.34
17.1791	4417.15
17.2783	4425.93
17.378	4434.69
17.4783	4443.43
17.5792	4452.14
17.6807	4460.83
17.7828	4469.51
17.8855	4478.16
17.9887	4486.78
18.0926	4495.39
18.197	4503.97
18.3021	4512.53
18.4077	4521.07
18.514	4529.59
18.6209	4538.09
18.7284	4546.57
18.8365	4555.02
18.9452	4563.46
19.0546	4571.87
19.1646	4580.26
19.2752	4588.64
19.3865	4596.99
19.4984	4605.33
19.611	4613.64
19.7242	4621.94
19.8381	4630.22
19.9526	4638.48
20.0678	4646.73
20.1837	4654.96
20.3002	4663.17
20.4174	4671.36
20.5353	4679.5
20.6538	4687.61
20.773	4695.72
20.893	4703.8
21.0136	4711.87
21.1349	4719.93
21.2569	4727.96
21.3796	4735.98
21.503	4743.99
21.6272	4751.97
21.752	4759.93
21.8776	4767.88
22.0039	4775.81
22.1309	4783.72
22.2587	4791.61
22.3872	4799.48
22.5165	4807.33
22.6464	4815.16
22.7772	4822.96
22.9087	4830.75
23.0409	4838.52
23.1739	4846.26
23.3077	4853.99
23.4423	4861.69
23.5776	4869.37
23.7137	4877.03
23.8506	4884.66
23.9883	4892.27
24.1268	4899.86
24.2661	4907.43
24.4062	4914.97
24.5471	4922.49
24.6888	4929.99
24.8313	4937.46
24.9747	4944.91
25.1189	4952.34
25.2639	4959.74
25.4097	4967.12
25.5564	4974.48
25.704	4981.82
25.8523	4989.14
26.0016	4996.43
26.1517	5003.7
26.3027	5010.95
26.4545	5018.16
26.6073	5025.35
26.7609	5032.52
26.9153	5039.65
27.0707	5046.76
27.227	5053.84
27.3842	5060.9
27.5423	5067.92
27.7013	5074.92
27.8612	5081.88
28.0221	5088.82
28.1838	5095.73
28.3465	5102.6
28.5102	5109.45
28.6748	5116.26
28.8403	5123.05
29.0068	5129.8
29.1743	5136.52
29.3427	5143.21
29.5121	5149.87
29.6825	5156.49
29.8538	5163.08
30.0262	5169.64
30.1995	5176.16
30.3739	5182.66
30.5492	5189.12
30.7256	5195.54
30.903	5201.93
31.0814	5208.29
31.2608	5214.61
31.4413	5220.9
31.6228	5227.15
31.8053	5233.36
31.989	5239.54
32.1736	5245.68
32.3594	5251.78
32.5462	5257.84
32.7341	5263.87
32.923	5269.86
33.1131	5275.8
33.3043	5281.71
33.4965	5287.57
33.6899	5293.4
33.8844	5299.18
34.08	5304.92
34.2768	5310.62
34.4747	5316.28
34.6737	5321.89
34.8739	5327.46
35.0752	5332.99
35.2777	5338.47
35.4813	5343.91
35.6862	5349.31
35.8922	5354.66
36.0994	5359.96
36.3078	5365.22
36.5174	5370.43
36.7282	5375.59
36.9403	5380.71
37.1535	5385.78
37.368	5390.8
37.5837	5395.77
37.8007	5400.7
38.0189	5405.57
38.2384	5410.39
38.4592	5415.17
38.6812	5419.89
38.9045	5424.56
39.1291	5429.18
39.355	5433.75
39.5822	5438.27
39.8107	5442.74
40.0405	5447.15
40.2717	5451.51
40.5042	5455.81
40.738	5460.07
40.9732	5464.27
41.2098	5468.41
41.4477	5472.5
41.6869	5476.54
41.9276	5480.52
42.1697	5484.44
42.4131	5488.31
42.658	5492.12
42.9042	5495.87
43.1519	5499.57
43.401	5503.21
43.6516	5506.79
43.9036	5510.31
44.157	5513.77
44.412	5517.17
44.6684	5520.52
44.9262	5523.8
45.1856	5527.02
45.4465	5530.19
45.7088	5533.29
45.9727	5536.33
46.2381	5539.31
46.505	5542.23
46.7735	5545.09
47.0435	5547.88
47.3151	5550.62
47.5883	5553.29
47.863	5555.9
48.1393	5558.45
48.4172	5560.94
48.6968	5563.37
48.9779	5565.74
49.2606	5568.05
49.545	5570.3
49.831	5572.48
50.1187	5574.61
50.4081	5576.68
50.6991	5578.68
50.9918	5580.63
51.2861	5582.54
51.5822	5584.38
51.88	5586.17
52.1795	5587.9
52.4807	5589.57
52.7837	5591.17
53.0884	5592.72
53.3949	5594.2
53.7032	5595.62
54.0132	5596.98
54.325	5598.28
54.6387	5599.51
54.9541	5600.68
55.2713	5601.79
55.5904	5602.83
55.9114	5603.81
56.2341	5604.72
56.5588	5605.57
56.8853	5606.36
57.2137	5607.07
57.544	5607.73
57.8762	5608.31
58.2103	5608.83
58.5464	5609.28
58.8844	5609.67
59.2243	5609.99
59.5662	5610.24
59.9101	5610.43
60.256	5610.55
60.6038	5610.6
60.9537	5610.58
61.3056	5610.5
61.6595	5610.35
62.0155	5610.13
62.3735	5609.84
62.7336	5609.49
63.0957	5609.07
63.46	5608.58
63.8263	5608.03
64.1948	5607.41
64.5654	5606.72
64.9382	5605.97
65.3131	5605.15
65.6901	5604.26
66.0693	5603.31
66.4508	5602.3
66.8344	5601.22
67.2202	5600.07
67.6083	5598.86
67.9986	5597.59
68.3912	5596.26
68.786	5594.86
69.1831	5593.4
69.5825	5591.88
69.9842	5590.31
70.3882	5588.67
70.7946	5586.97
71.2033	5585.21
71.6143	5583.4
72.0278	5581.54
72.4436	5579.61
72.8618	5577.64
73.2825	5575.61
73.7055	5573.53
74.131	5571.4
74.559	5569.22
74.9894	5566.99
75.4223	5564.71
75.8578	5562.39
76.2957	5560.03
76.7361	5557.55
77.1792	5554.94
77.6247	5552.3
78.0728	5549.61
78.5236	5546.88
78.9769	5544.1
79.4328	5541.28
79.8914	5538.42
80.3526	5535.52
80.8165	5532.57
81.2831	5529.58
81.7523	5526.55
82.2243	5523.47
82.699	5520.34
83.1764	5517.17
83.6566	5513.96
84.1395	5510.7
84.6253	5507.4
85.1138	5504.05
85.6052	5500.66
86.0994	5497.22
86.5964	5493.73
87.0964	5490.2
87.5992	5486.63
88.1049	5483.01
88.6135	5479.34
89.1251	5475.63
89.6396	5471.87
90.1571	5468.06
90.6776	5464.21
91.2011	5460.32
91.7276	5456.37
92.2571	5452.39
92.7897	5448.35
93.3254	5444.27
93.8642	5440.15
94.4061	5435.97
94.9511	5431.76
95.4993	5427.5
96.0506	5423.19
96.6051	5418.84
97.1628	5414.44
97.7237	5410
98.2879	5405.51
98.8553	5400.98
99.426	5396.4
100	5391.78
100.577	5387.12
101.158	5382.41
101.742	5377.66
102.329	5372.87
102.92	5368.05
103.514	5363.19
104.112	5358.29
104.713	5353.34
105.317	5348.35
105.925	5343.32
106.537	5338.25
107.152	5333.14
107.771	5327.98
108.393	5322.78
109.018	5317.54
109.648	5312.26
110.281	5306.93
110.917	5301.57
111.558	5296.16
112.202	5290.72
112.85	5285.23
113.501	5279.7
114.156	5274.14
114.815	5268.53
115.478	5262.89
116.145	5257.2
116.815	5251.48
117.49	5245.72
118.168	5239.92
118.85	5234.09
119.536	5228.21
120.226	5222.31
120.921	5216.36
121.619	5210.38
122.321	5204.37
123.027	5198.32
123.737	5192.24
124.451	5186.12
125.17	5179.97
125.893	5173.79
126.619	5167.58
127.35	5161.34
128.086	5155.07
128.825	5148.77
129.569	5142.45
130.317	5136.09
131.069	5129.7
131.826	5123.29
132.587	5116.84
133.352	5110.37
134.122	5103.87
134.896	5097.34
135.675	5090.78
136.458	5084.19
137.246	5077.58
138.038	5070.93
138.835	5064.26
139.637	5057.56
140.443	5050.83
141.254	5044.07
142.069	5037.29
142.889	5030.48
143.714	5023.64
144.544	5016.78
145.378	5009.88
146.218	5002.96
147.062	4996.02
147.911	4989.05
148.765	4982.05
149.624	4975.03
150.487	4967.98
151.356	4960.9
152.23	4953.8
153.109	4946.68
153.993	4939.53
154.882	4932.36
155.776	4925.16
156.675	4917.94
157.58	4910.69
158.489	4903.42
159.404	4896.12
160.325	4888.81
161.25	4881.46
162.181	4874.1
163.117	4866.71
164.059	4859.29
165.006	4851.85
165.959	4844.39
166.917	4836.91
167.88	4829.4
168.85	4821.87
169.824	4814.32
170.805	4806.74
171.791	4799.14
172.783	4791.52
173.78	4783.88
174.783	4776.21
175.792	4768.52
176.807	4760.81
177.828	4753.08
178.855	4745.32
179.887	4737.55
180.926	4729.75
181.97	4721.93
183.021	4714.09
184.077	4706.23
185.14	4698.35
186.209	4690.45
187.284	4682.52
188.365	4674.58
189.452	4666.62
190.546	4658.64
191.646	4650.64
192.752	4642.62
193.865	4634.58
194.984	4626.53
196.11	4618.45
197.242	4610.36
198.381	4602.25
199.526	4594.12
200.678	4585.98
201.837	4577.82
203.002	4569.64
204.174	4561.45
205.353	4553.25
206.538	4545.03
207.73	4536.8
208.93	4528.55
210.136	4520.29
211.349	4512.01
212.569	4503.72
213.796	4495.42
215.03	4487.09
216.272	4478.76
217.52	4470.41
218.776	4462.04
220.039	4453.66
221.309	4445.27
222.587	4436.86
223.872	4428.44
225.165	4420.01
226.464	4411.56
227.772	4403.1
229.087	4394.62
230.409	4386.13
231.739	4377.63
233.077	4369.12
234.423	4360.59
235.776	4352.05
237.137	4343.5
238.506	4334.94
239.883	4326.36
241.268	4317.77
242.661	4309.17
244.062	4300.56
245.471	4291.94
246.888	4283.31
248.313	4274.66
249.747	4266
251.189	4257.34
252.639	4248.66
254.097	4239.97
255.564	4231.27
257.04	4222.56
258.523	4213.83
260.016	4205.1
261.517	4196.35
263.027	4187.6
264.545	4178.83
266.073	4170.06
267.609	4161.28
269.153	4152.49
270.707	4143.69
272.27	4134.88
273.842	4126.06
275.423	4117.23
277.013	4108.4
278.612	4099.56
280.221	4090.7
281.838	4081.84
283.465	4072.98
285.102	4064.1
286.748	4055.22
288.403	4046.33
290.068	4037.43
291.743	4028.53
293.427	4019.62
295.121	4010.7
296.825	4001.77
298.538	3992.84
300.262	3983.9
301.995	3974.95
303.739	3966
305.492	3957.04
307.256	3948.08
309.03	3939.11
310.814	3930.13
312.608	3921.15
314.413	3912.16
316.228	3903.17
318.053	3894.17
319.89	3885.17
321.736	3876.16
323.594	3867.15
325.462	3858.13
327.341	3849.11
329.23	3840.08
331.131	3831.05
333.043	3822.02
334.965	3812.98
336.899	3803.94
338.844	3794.89
340.8	3785.84
342.768	3776.79
344.747	3767.73
346.737	3758.67
348.739	3749.61
350.752	3740.55
352.777	3731.48
354.813	3722.41
356.862	3713.34
358.922	3704.26
360.994	3695.18
363.078	3686.1
365.174	3677.02
367.282	3667.94
369.403	3658.85
371.535	3649.77
373.68	3640.68
375.837	3631.59
378.007	3622.5
380.189	3613.41
382.384	3604.32
384.592	3595.22
386.812	3586.13
389.045	3577.03
391.291	3567.94
393.55	3558.85
395.822	3549.75
398.107	3540.66
400.405	3531.56
402.717	3522.47
405.042	3513.38
407.38	3504.28
409.732	3495.19
412.098	3486.1
414.477	3477.01
416.869	3467.92
419.276	3458.83
421.697	3449.74
424.131	3440.65
426.58	3431.57
429.042	3422.48
431.519	3413.4
434.01	3404.32
436.516	3395.25
439.036	3386.17
441.57	3377.1
444.12	3368.03
446.684	3358.97
449.262	3349.9
451.856	3340.84
454.465	3331.78
457.088	3322.73
459.727	3313.68
462.381	3304.63
465.05	3295.59
467.735	3286.55
470.435	3277.51
473.151	3268.48
475.883	3259.45
478.63	3250.42
481.393	3241.4
484.172	3232.38
486.968	3223.37
489.779	3214.36
492.606	3205.36
495.45	3196.36
498.31	3187.37
501.187	3178.38
504.081	3169.39
506.991	3160.41
509.918	3151.44
512.861	3142.46
515.822	3133.48
518.8	3124.51
521.795	3115.55
524.807	3106.59
527.837	3097.63
530.884	3088.68
533.949	3079.74
537.032	3070.81
540.132	3061.88
543.25	3052.96
546.387	3044.04
549.541	3035.14
552.713	3026.24
555.904	3017.35
559.114	3008.46
562.341	2999.59
565.588	2990.72
568.853	2981.86
572.137	2973.02
575.44	2964.18
578.762	2955.35
582.103	2946.52
585.464	2937.71
588.844	2928.91
592.243	2920.12
595.662	2911.34
599.101	2902.57
602.56	2893.8
606.038	2885.05
609.537	2876.31
613.056	2867.58
616.595	2858.87
620.155	2850.16
623.735	2841.46
627.336	2832.78
630.957	2824.1
634.6	2815.44
638.263	2806.79
641.948	2798.15
645.654	2789.52
649.382	2780.9
653.131	2772.3
656.901	2763.7
660.693	2755.12
664.508	2746.55
668.344	2737.99
672.202	2729.44
676.083	2720.9
679.986	2712.37
683.912	2703.86
687.86	2695.35
691.831	2686.86
695.825	2678.37
699.842	2669.9
703.882	2661.44
707.946	2652.99
712.033	2644.55
716.143	2636.11
720.278	2627.69
724.436	2619.28
728.618	2610.87
732.825	2602.47
737.055	2594.09
741.31	2585.71
745.59	2577.33
749.894	2568.97
754.223	2560.61
758.578	2552.26
762.957	2543.91
767.361	2535.63
771.792	2527.41
776.247	2519.2
780.728	2511
785.236	2502.8
789.769	2494.61
794.328	2486.42
798.914	2478.24
803.526	2470.07
808.165	2461.91
812.831	2453.76
817.523	2445.62
822.243	2437.48
826.99	2429.36
831.764	2421.24
836.566	2413.14
841.395	2405.04
846.253	2396.96
851.138	2388.88
856.052	2380.82
860.994	2372.77
865.964	2364.73
870.964	2356.7
875.992	2348.68
881.049	2340.68
886.135	2332.69
891.251	2324.71
896.396	2316.75
901.571	2308.8
906.776	2300.86
912.011	2292.94
917.276	2285.03
922.571	2277.13
927.897	2269.25
933.254	2261.39
938.642	2253.54
944.061	2245.7
949.511	2237.89
954.993	2230.08
960.506	2222.3
966.051	2214.53
971.628	2206.77
977.237	2199.04
982.879	2191.32
988.553	2183.61
994.26	2175.93
1000	2168.26
1005.77	2160.61
1011.58	2152.97
1017.42	2145.36
1023.29	2137.75
1029.2	2130.14
1035.14	2122.55
1041.12	2114.98
1047.13	2107.43
1053.17	2099.89
1059.25	2092.38
1065.37	2084.88
1071.52	2077.41
1077.71	2069.95
1083.93	2062.51
1090.18	2055.09
1096.48	2047.69
1102.81	2040.31
1109.17	2032.95
1115.58	2025.61
1122.02	2018.29
1128.5	2010.99
1135.01	2003.71
1141.56	1996.44
1148.15	1989.2
1154.78	1981.98
1161.45	1974.77
1168.15	1967.59
1174.9	1960.43
1181.68	1953.28
1188.5	1946.15
1195.36	1939.05
1202.26	1931.96
1209.21	1924.89
1216.19	1917.84
1223.21	1910.8
1230.27	1903.79
1237.37	1896.79
1244.51	1889.81
1251.7	1882.85
1258.93	1875.9
1266.19	1868.97
1273.5	1862.06
1280.86	1855.16
1288.25	1848.28
1295.69	1841.41
1303.17	1834.56
1310.69	1827.73
1318.26	1820.91
1325.87	1814.11
1333.52	1807.33
1341.22	1800.56
1348.96	1793.81
1356.75	1787.08
1364.58	1780.36
1372.46	1773.67
1380.38	1766.99
1388.35	1760.33
1396.37	1753.68
1404.43	1747.06
1412.54	1740.45
1420.69	1733.86
1428.89	1727.29
1437.14	1720.74
1445.44	1714.2
1453.78	1707.69
1462.18	1701.19
1470.62	1694.71
1479.11	1688.25
1487.65	1681.8
1496.24	1675.38
1504.87	1668.97
1513.56	1662.58
1522.3	1656.21
1531.09	1649.86
1539.93	1643.51
1548.82	1637.19
1557.76	1630.88
1566.75	1624.59
1575.8	1618.31
1584.89	1612.06
1594.04	1605.83
1603.25	1599.61
1612.5	1593.41
1621.81	1587.24
1631.17	1581.08
1640.59	1574.94
1650.06	1568.82
1659.59	1562.72
1669.17	1556.65
1678.8	1550.59
1688.5	1544.55
1698.24	1538.53
1708.05	1532.53
1717.91	1526.56
1727.83	1520.6
1737.8	1514.66
1747.83	1508.75
1757.92	1502.85
1768.07	1496.97
1778.28	1491.12
1788.55	1485.28
1798.87	1479.47
1809.26	1473.67
1819.7	1467.9
1830.21	1462.15
1840.77	1456.41
1851.4	1450.7
1862.09	1445
1872.84	1439.33
1883.65	1433.67
1894.52	1428.04
1905.46	1422.42
1916.46	1416.82
1927.52	1411.24
1938.65	1405.68
1949.84	1400.14
1961.1	1394.61
1972.42	1389.1
1983.81	1383.61
1995.26	1378.14
2006.78	1372.68
2018.37	1367.23
2030.02	1361.81
2041.74	1356.4
2053.53	1351.03
2065.38	1345.68
2077.3	1340.35
2089.3	1335.03
2101.36	1329.73
2113.49	1324.44
2125.69	1319.17
2137.96	1313.91
2150.3	1308.67
2162.72	1303.45
2175.2	1298.24
2187.76	1293.05
2200.39	1287.88
2213.09	1282.72
2225.87	1277.58
2238.72	1272.46
2251.65	1267.35
2264.64	1262.26
2277.72	1257.19
2290.87	1252.14
2304.09	1247.1
2317.39	1242.09
2330.77	1237.09
2344.23	1232.11
2357.76	1227.14
2371.37	1222.2
2385.06	1217.27
2398.83	1212.36
2412.68	1207.47
2426.61	1202.6
2440.62	1197.75
2454.71	1192.91
2468.88	1188.09
2483.13	1183.29
2497.47	1178.51
2511.89	1173.75
2526.39	1169.01
2540.97	1164.28
2555.64	1159.57
2570.4	1154.87
2585.23	1150.19
2600.16	1145.53
2615.17	1140.88
2630.27	1136.26
2645.45	1131.65
2660.73	1127.06
2676.09	1122.49
2691.53	1117.94
2707.07	1113.4
2722.7	1108.88
2738.42	1104.39
2754.23	1099.91
2770.13	1095.45
2786.12	1091.01
2802.21	1086.58
2818.38	1082.18
2834.65	1077.79
2851.02	1073.42
2867.48	1069.07
2884.03	1064.74
2900.68	1060.42
2917.43	1056.12
2934.27	1051.84
2951.21	1047.58
2968.25	1043.33
2985.38	1039.1
3002.62	1034.89
3019.95	1030.69
3037.39	1026.51
3054.92	1022.35
3072.56	1018.2
3090.3	1014.07
3108.14	1009.95
3126.08	1005.84
3144.13	1001.76
3162.28	997.685
3180.53	993.63
3198.9	989.59
3217.36	985.566
3235.94	981.559
3254.62	977.567
3273.41	973.592
3292.3	969.633
3311.31	965.69
3330.43	961.763
3349.65	957.852
3368.99	953.957
3388.44	950.079
3408	946.217
3427.68	942.371
3447.47	938.54
3467.37	934.726
3487.39	930.928
3507.52	927.145
3527.77	923.378
3548.13	919.627
3568.62	915.891
3589.22	912.17
3609.94	908.465
3630.78	904.775
3651.74	901.101
3672.82	897.441
3694.03	893.798
3715.35	890.17
3736.8	886.557
3758.37	882.96
3780.07	879.378
3801.89	875.812
3823.84	872.261
3845.92	868.725
3868.12	865.205
3890.45	861.7
3912.91	858.21
3935.5	854.736
3958.22	851.276
3981.07	847.831
4004.05	844.401
4027.17	840.985
4050.42	837.584
4073.8	834.198
4097.32	830.825
4120.98	827.467
4144.77	824.122
4168.69	820.792
4192.76	817.476
4216.97	814.175
4241.31	810.887
4265.8	807.614
4290.42	804.356
4315.19	801.112
4340.1	797.882
4365.16	794.667
4390.36	791.466
4415.7	788.28
4441.2	785.108
4466.84	781.95
4492.62	778.806
4518.56	775.677
4544.65	772.561
4570.88	769.46
4597.27	766.373
4623.81	763.299
4650.5	760.239
4677.35	757.193
4704.35	754.161
4731.51	751.142
4758.83	748.136
4786.3	745.144
4813.93	742.165
4841.72	739.199
4869.68	736.246
4897.79	733.305
4926.06	730.377
4954.5	727.461
4983.1	724.558
5011.87	721.666
5040.81	718.786
5069.91	715.917
5099.18	713.06
5128.61	710.207
5158.22	707.365
5188	704.534
5217.95	701.714
5248.07	698.906
5278.37	696.109
5308.84	693.323
5339.49	690.55
5370.32	687.788
5401.32	685.038
5432.5	682.3
5463.87	679.574
5495.41	676.86
5527.13	674.159
5559.04	671.471
5591.14	668.794
5623.41	666.131
5655.88	663.48
5688.53	660.842
5721.37	658.218
5754.4	655.606
5787.62	653.007
5821.03	650.421
5854.64	647.849
5888.44	645.289
5922.43	642.744
5956.62	640.211
5991.01	637.692
6025.6	635.186
6060.38	632.694
6095.37	630.215
6130.56	627.749
6165.95	625.298
6201.55	622.859
6237.35	620.434
6273.36	618.023
6309.57	615.624
6346	613.24
6382.63	610.868
6419.48	608.51
6456.54	606.165
6493.82	603.833
6531.31	601.514
6569.01	599.209
6606.93	596.916
6645.08	594.635
6683.44	592.368
6722.02	590.112
6760.83	587.869
6799.86	585.639
6839.12	583.42
6878.6	581.213
6918.31	579.017
6958.25	576.833
6998.42	574.66
7038.82	572.498
7079.46	570.347
7120.33	568.205
7161.43	566.074
7202.78	563.953
7244.36	561.841
7286.18	559.735
7328.25	557.465
7370.55	555.206
7413.1	552.957
7455.9	550.717
7498.94	548.485
7542.23	546.262
7585.78	544.047
7629.57	541.839
7673.61	539.67
7717.92	537.537
7762.47	535.411
7807.28	533.292
7852.36	531.18
7897.69	529.075
7943.28	526.978
7989.14	524.888
8035.26	522.806
8081.65	520.731
8128.31	518.665
8175.23	516.605
8222.43	514.554
8269.9	512.511
8317.64	510.476
8365.66	508.449
8413.95	506.431
8462.53	504.42
8511.38	502.419
8560.52	500.425
8609.94	498.44
8659.64	496.464
8709.64	494.497
8759.92	492.539
8810.49	490.589
8861.35	488.649
8912.51	486.717
8963.96	484.795
9015.71	482.882
9067.76	480.978
9120.11	479.084
9172.76	477.199
9225.71	475.324
9278.97	473.458
9332.54	471.601
9386.42	469.755
9440.61	467.918
9495.11	466.091
9549.93	464.273
9605.06	462.466
9660.51	460.668
9716.28	458.88
9772.37	457.102
9828.79	455.334
9885.53	453.577
9942.6	451.829
10000	450.091
10057.7	448.364
10115.8	446.646
10174.2	444.939
10232.9	443.236
10292	441.539
10351.4	439.851
10411.2	438.174
10471.3	436.508
10531.7	434.851
10592.5	433.204
10653.7	431.567
10715.2	429.941
10777.1	428.324
10839.3	426.718
10901.8	425.122
10964.8	423.535
11028.1	421.959
11091.7	420.393
11155.8	418.836
11220.2	417.289
11285	415.753
11350.1	414.226
11415.6	412.708
11481.5	411.2
11547.8	409.702
11614.5	408.213
11681.5	406.733
11749	405.263
11816.8	403.802
11885	402.349
11953.6	400.906
12022.6	399.471
12092.1	398.045
12161.9	396.627
12232.1	395.217
12302.7	393.815
12373.7	392.421
12445.1	391.035
12517	389.656
12589.3	388.285
12661.9	386.92
12735	385.562
12808.6	384.211
12882.5	382.865
12956.9	381.526
13031.7	380.194
13106.9	378.868
13182.6	377.548
13258.7	376.235
13335.2	374.929
13412.2	373.63
13489.6	372.337
13567.5	371.051
13645.8	369.771
13724.6	368.498
13803.8	367.232
13883.5	365.973
13963.7	364.721
14044.3	363.475
14125.4	362.236
14206.9	361.003
14288.9	359.778
14371.4	358.559
14454.4	357.346
14537.8	356.141
14621.8	354.942
14706.2	353.749
14791.1	352.563
14876.5	351.384
14962.4	350.211
15048.7	349.045
15135.6	347.885
15223	346.731
15310.9	345.583
15399.3	344.44
15488.2	343.302
15577.6	342.171
15667.5	341.046
15758	339.927
15848.9	338.815
15940.4	337.709
16032.5	336.609
16125	335.516
16218.1	334.429
16311.7	333.349
16405.9	332.275
16500.6	331.208
16595.9	330.147
16691.7	329.093
16788	328.046
16885	327.004
16982.4	325.97
17080.5	324.942
17179.1	323.92
17278.3	322.905
17378	321.896
17478.3	320.894
17579.2	319.898
17680.7	318.909
17782.8	317.926
17885.5	316.95
17988.7	315.979
18092.6	315.015
18197	314.058
18302.1	313.106
18407.7	312.16
18514	311.221
18620.9	310.288
18728.4	309.36
18836.5	308.438
18945.2	307.522
19054.6	306.612
19164.6	305.707
19275.2	304.808
19386.5	303.914
19498.4	303.025
19611	302.141
19724.2	301.262
19838.1	300.389
19952.6	299.519
20067.8	298.655
20183.7	297.794
20300.2	296.938
20417.4	296.087
20535.3	295.247
20653.8	294.412
20773	293.58
20893	292.752
21013.6	291.928
21134.9	291.108
21256.9	290.293
21379.6	289.481
21503	288.674
21627.2	287.871
21752	287.073
21877.6	286.278
22003.9	285.488
22130.9	284.703
22258.7	283.921
22387.2	283.144
22516.5	282.372
22646.4	281.604
22777.2	280.84
22908.7	280.081
23040.9	279.326
23173.9	278.576
23307.7	277.83
23442.3	277.089
23577.6	276.352
23713.7	275.62
23850.6	274.892
23988.3	274.169
24126.8	273.451
24266.1	272.736
24406.2	272.027
24547.1	271.321
24688.8	270.621
24831.3	269.924
24974.7	269.233
25118.9	268.545
25263.9	267.862
25409.7	267.184
25556.4	266.509
25704	265.837
25852.3	265.169
26001.6	264.506
26151.7	263.847
26302.7	263.193
26454.5	262.542
26607.3	261.896
26760.9	261.255
26915.3	260.618
27070.7	259.985
27227	259.356
27384.2	258.732
27542.3	258.112
27701.3	257.496
27861.2	256.884
28022.1	256.277
28183.8	255.673
28346.5	255.074
28510.2	254.479
28674.8	253.888
28840.3	253.302
29006.8	252.719
29174.3	252.14
29342.7	251.565
29512.1	250.993
29682.5	250.426
29853.8	249.862
30026.2	249.302
30199.5	248.746
30373.9	248.193
30549.2	247.643
30725.6	247.097
30903	246.554
31081.4	246.014
31260.8	245.478
31441.3	244.945
31622.8	244.415
31805.3	243.889
31989	243.366
32173.6	242.847
32359.4	242.33
32546.2	241.818
32734.1	241.309
32923	240.803
33113.1	240.3
33304.3	239.801
33496.5	239.305
33689.9	238.813
33884.4	238.324
34080	237.838
34276.8	237.355
34474.7	236.876
34673.7	236.401
34873.9	235.928
35075.2	235.459
35277.7	234.992
35481.3	234.529
35686.2	234.07
35892.2	233.613
36099.4	233.159
36307.8	232.709
36517.4	232.261
36728.2	231.817
36940.3	231.376
37153.5	230.938
37368	230.502
37583.7	230.071
37800.7	229.642
38018.9	229.216
38238.4	228.793
38459.2	228.374
38681.2	227.957
38904.5	227.544
39129.1	227.133
39355	226.725
39582.2	226.321
39810.7	225.919
40040.5	225.52
40271.7	225.124
40504.2	224.731
40738	224.341
40973.2	223.953
41209.8	223.569
41447.7	223.187
41686.9	222.807
41927.6	222.431
42169.7	222.057
42413.1	221.686
42658	221.318
42904.2	220.952
43151.9	220.589
43401	220.229
43651.6	219.871
43903.6	219.516
44157	219.164
44412	218.814
44668.4	218.467
44926.2	218.123
45185.6	217.781
45446.5	217.441
45708.8	217.104
45972.7	216.769
46238.1	216.437
46505	216.107
46773.5	215.78
47043.5	215.454
47315.1	215.131
47588.3	214.81
47863	214.491
48139.3	214.175
48417.2	213.86
48696.8	213.547
48977.9	213.236
49260.6	212.927
49545	212.619
49831	212.313
50118.7	212.009
50408.1	211.706
50699.1	211.404
50991.8	211.104
51286.1	210.786
51582.2	210.469
51880	210.155
52179.5	209.843
52480.7	209.533
52783.7	209.226
53088.4	208.922
53394.9	208.619
53703.2	208.319
54013.2	208.021
54325	207.726
54638.7	207.433
54954.1	207.142
55271.3	206.854
55590.4	206.567
55911.4	206.283
56234.1	206.002
56558.8	205.722
56885.3	205.445
57213.7	205.17
57544	204.897
57876.2	204.626
58210.3	204.357
58546.4	204.091
58884.4	203.827
59224.3	203.565
59566.2	203.305
59910.1	203.047
60256	202.791
60603.8	202.537
60953.7	202.285
61305.6	202.036
61659.5	201.788
62015.5	201.543
62373.5	201.299
62733.6	201.058
63095.7	200.818
63460	200.581
63826.3	200.345
64194.8	200.111
64565.4	199.88
64938.2	199.65
65313.1	199.422
65690.1	199.196
66069.3	198.972
66450.8	198.75
66834.4	198.53
67220.2	198.312
67608.3	198.096
67998.6	197.881
68391.2	197.668
68786	197.457
69183.1	197.248
69582.5	197.041
69984.2	196.836
70388.2	196.632
70794.6	196.43
71203.3	196.23
71614.3	196.031
72027.8	195.835
72443.6	195.64
72861.8	195.447
73282.5	195.255
73705.5	195.066
74131	194.878
74559	194.691
74989.4	194.507
75422.3	194.324
75857.8	194.142
76295.7	193.962
76736.1	193.784
77179.2	193.608
77624.7	193.433
78072.8	193.26
78523.6	193.088
78976.9	192.918
79432.8	192.75
79891.4	192.583
80352.6	192.417
80816.5	192.254
81283.1	192.091
81752.3	191.931
82224.3	191.772
82699	191.614
83176.4	191.458
83656.6	191.303
84139.5	191.15
84625.3	190.998
85113.8	190.848
85605.2	190.699
86099.4	190.552
86596.4	190.406
87096.4	190.261
87599.2	190.118
88104.9	189.976
88613.5	189.836
89125.1	189.697
89639.6	189.56
90157.1	189.424
90677.6	189.289
91201.1	189.156
91727.6	189.024
92257.1	188.893
92789.7	188.764
93325.4	188.636
93864.2	188.509
94406.1	188.384
94951.1	188.259
95499.3	188.137
96050.6	188.015
96605.1	187.895
97162.8	187.776
97723.7	187.658
98287.9	187.542
98855.3	187.427
99426	187.313
100000	187.2
100577	187.088
101158	186.978
101742	186.869
102329	186.761
102920	186.654
103514	186.549
104112	186.444
104713	186.341
105317	186.239
105925	186.138
106537	186.038
107152	185.94
107771	185.842
108393	185.746
109018	185.651
109648	185.556
110281	185.463
110917	185.371
111558	185.28
112202	185.191
112850	185.102
113501	185.014
114156	184.927
114815	184.842
115478	184.757
116145	184.674
116815	184.591
117490	184.51
118168	184.429
118850	184.35
119536	184.271
120226	184.194
120921	184.117
121619	184.042
122321	183.967
123027	183.894
123737	183.821
124451	183.749
125170	183.679
125893	183.609
126619	183.54
127350	183.472
128086	183.405
128825	183.339
129569	183.273
130317	183.209
131069	183.146
131826	183.083
132587	183.021
133352	182.96
134122	182.9
134896	182.841
135675	182.783
136458	182.726
137246	182.669
138038	182.613
138835	182.558
139637	182.504
140443	182.451
141254	182.399
142069	182.347
142889	182.296
143714	182.246
144544	182.197
145378	182.148
146218	182.1
147062	182.053
147911	182.007
148765	181.962
149624	181.917
150487	181.873
151356	181.83
152230	181.787
153109	181.745
153993	181.704
154882	181.664
155776	181.624
156675	181.585
157580	181.547
158489	181.51
159404	181.473
160325	181.437
161250	181.401
162181	181.366
163117	181.332
164059	181.299
165006	181.266
165959	181.234
166917	181.202
167880	181.171
168850	181.141
169824	181.111
170805	181.082
171791	181.054
172783	181.026
173780	180.999
174783	180.972
175792	180.947
176807	180.921
177828	180.896
178855	180.872
179887	180.849
180926	180.825
181970	180.803
183021	180.781
184077	180.76
185140	180.739
186209	180.719
187284	180.699
188365	180.68
189452	180.661
190546	180.643
191646	180.626
192752	180.609
193865	180.592
194984	180.576
196110	180.561
197242	180.546
198381	180.531
199526	180.517
200678	180.504
201837	180.491
203002	180.478
204174	180.466
205353	180.454
206538	180.443
207730	180.433
208930	180.422
210136	180.413
211349	180.403
212569	180.395
213796	180.386
215030	180.378
216272	180.371
217520	180.364
218776	180.357
220039	180.351
221309	180.345
222587	180.34
223872	180.335
225165	180.33
226464	180.326
227772	180.322
229087	180.319
230409	180.316
231739	180.313
233077	180.311
234423	180.31
235776	180.308
237137	180.307
238506	180.306
239883	180.306
241268	180.306
242661	180.307
244062	180.307
245471	180.308
246888	180.31
248313	180.312
249747	180.314
251189	180.316
252639	180.319
254097	180.322
255564	180.326
257040	180.33
258523	180.334
260016	180.338
261517	180.343
263027	180.348
264545	180.354
266073	180.359
267609	180.365
269153	180.372
270707	180.378
272270	180.385
273842	180.392
275423	180.4
277013	180.407
278612	180.416
280221	180.424
281838	180.432
283465	180.441
285102	180.45
286748	180.46
288403	180.469
290068	180.479
291743	180.489
293427	180.5
295121	180.511
296825	180.521
298538	180.533
300262	180.544
301995	180.556
303739	180.568
305492	180.58
307256	180.592
309030	180.605
310814	180.617
312608	180.63
314413	180.644
316228	180.657
318053	180.671
319890	180.684
321736	180.699
323594	180.713
325462	180.727
327341	180.742
329230	180.757
331131	180.772
333043	180.787
334965	180.803
336899	180.818
338844	180.834
340800	180.85
342768	180.866
344747	180.883
346737	180.899
348739	180.916
350752	180.933
352777	180.95
354813	180.967
356862	180.985
358922	181.002
360994	181.02
363078	181.038
365174	181.056
367282	181.074
369403	181.093
371535	181.111
373680	181.13
375837	181.149
378007	181.167
380189	181.187
382384	181.206
384592	181.225
386812	181.245
389045	181.264
391291	181.284
393550	181.304
395822	181.324
398107	181.344
400405	181.364
402717	181.385
405042	181.405
407380	181.426
409732	181.446
412098	181.467
414477	181.488
416869	181.509
419276	181.53
421697	181.552
424131	181.573
426580	181.595
429042	181.616
431519	181.638
434010	181.66
436516	181.681
439036	181.703
441570	181.725
444120	181.748
446684	181.77
449262	181.792
451856	181.815
454465	181.837
457088	181.86
459727	181.882
462381	181.905
465050	181.928
467735	181.951
470435	181.974
473151	181.997
475883	182.02
478630	182.043
481393	182.066
484172	182.089
486968	182.113
489779	182.136
492606	182.16
495450	182.183
498310	182.207
501187	182.23
504081	182.254
506991	182.278
509918	182.302
512861	182.326
515822	182.35
518800	182.373
521795	182.397
524807	182.422
527837	182.446
530884	182.47
533949	182.494
537032	182.518
540132	182.543
543250	182.567
546387	182.591
549541	182.616
552713	182.64
555904	182.664
559114	182.689
562341	182.713
565588	182.738
568853	182.763
572137	182.787
575440	182.812
578762	182.836
582103	182.861
585464	182.886
588844	182.911
592243	182.935
595662	182.96
599101	182.985
602560	183.01
606038	183.035
609537	183.059
613056	183.084
616595	183.109
620155	183.134
623735	183.159
627336	183.184
630957	183.209
634600	183.234
638263	183.259
641948	183.283
645654	183.308
649382	183.333
653131	183.358
656901	183.383
660693	183.408
664508	183.433
668344	183.458
672202	183.483
676083	183.508
679986	183.533
683912	183.558
687860	183.583
691831	183.608
695825	183.633
699842	183.658
703882	183.683
707946	183.708
712033	183.732
716143	183.757
720278	183.782
724436	183.807
728618	183.832
732825	183.857
737055	183.882
741310	183.906
745590	183.931
749894	183.956
754223	183.981
758578	184.006
762957	184.03
767361	184.055
771792	184.08
776247	184.104
780728	184.129
785236	184.154
789769	184.178
794328	184.203
798914	184.227
803526	184.252
808165	184.277
812831	184.301
817523	184.326
822243	184.35
826990	184.374
831764	184.399
836566	184.423
841395	184.447
846253	184.472
851138	184.496
856052	184.52
860994	184.545
865964	184.569
870964	184.593
875992	184.617
881049	184.641
886135	184.665
891251	184.689
896396	184.713
901571	184.737
906776	184.761
912011	184.785
917276	184.809
922571	184.833
927897	184.856
933254	184.88
938642	184.904
944061	184.927
949511	184.951
954993	184.975
960506	184.998
966051	185.022
971628	185.045
977237	185.068
982879	185.092
988553	185.115
994260	185.138
1e+06	185.162
1.00577e+06	185.185
1.01158e+06	185.208
1.01742e+06	185.231
1.02329e+06	185.254
1.0292e+06	185.277
1.03514e+06	185.3
1.04112e+06	185.323
1.04713e+06	185.346
1.05317e+06	185.369
1.05925e+06	185.392
1.06537e+06	185.414
1.07152e+06	185.437
1.07771e+06	185.46
1.08393e+06	185.482
1.09018e+06	185.505
1.09648e+06	185.527
1.10281e+06	185.55
1.10917e+06	185.572
1.11558e+06	185.595
1.12202e+06	185.617
1.1285e+06	185.639
1.13501e+06	185.661
1.14156e+06	185.684
1.14815e+06	185.706
1.15478e+06	185.728
1.16145e+06	185.75
1.16815e+06	185.772
1.1749e+06	185.794
1.18168e+06	185.815
1.1885e+06	185.837
1.19536e+06	185.859
1.20226e+06	185.881
1.20921e+06	185.902
1.21619e+06	185.924
1.22321e+06	185.945
1.23027e+06	185.967
1.23737e+06	185.988
1.24451e+06	186.01
1.2517e+06	186.031
1.25893e+06	186.052
1.26619e+06	186.073
1.2735e+06	186.094
1.28086e+06	186.116
1.28825e+06	186.137
1.29569e+06	186.158
1.30317e+06	186.178
1.31069e+06	186.199
1.31826e+06	186.22
1.32587e+06	186.241
1.33352e+06	186.262
1.34122e+06	186.282
1.34896e+06	186.303
1.35675e+06	186.323
1.36458e+06	186.344
1.37246e+06	186.364
1.38038e+06	186.384
1.38835e+06	186.405
1.39637e+06	186.425
1.40443e+06	186.445
1.41254e+06	186.465
1.42069e+06	186.485
1.42889e+06	186.505
1.43714e+06	186.525
1.44544e+06	186.545
1.45378e+06	186.565
1.46218e+06	186.585
1.47062e+06	186.604
1.47911e+06	186.624
1.48765e+06	186.644
1.49624e+06	186.663
1.50487e+06	186.683
1.51356e+06	186.702
1.5223e+06	186.721
1.53109e+06	186.741
1.53993e+06	186.76
1.54882e+06	186.779
1.55776e+06	186.798
1.56675e+06	186.817
1.5758e+06	186.836
1.58489e+06	186.855
1.59404e+06	186.874
1.60325e+06	186.893
1.6125e+06	186.911
1.62181e+06	186.93
1.63117e+06	186.949
1.64059e+06	186.967
1.65006e+06	186.986
1.65959e+06	187.004
1.66917e+06	187.022
1.6788e+06	187.041
1.6885e+06	187.059
1.69824e+06	187.077
1.70805e+06	187.095
1.71791e+06	187.113
1.72783e+06	187.131
1.7378e+06	187.149
1.74783e+06	187.167
1.75792e+06	187.185
1.76807e+06	187.203
1.77828e+06	187.22
1.78855e+06	187.238
1.79887e+06	187.255
1.80926e+06	187.273
1.8197e+06	187.29
1.83021e+06	187.308
1.84077e+06	187.325
1.8514e+06	187.342
1.86209e+06	187.359
1.87284e+06	187.377
1.88365e+06	187.394
1.89452e+06	187.411
1.90546e+06	187.428
1.91646e+06	187.444
1.92752e+06	187.461
1.93865e+06	187.478
1.94984e+06	187.495
1.9611e+06	187.511
1.97242e+06	187.528
1.98381e+06	187.544
1.99526e+06	187.561
2.00678e+06	187.577
2.01837e+06	187.593
2.03002e+06	187.61
2.04174e+06	187.626
2.05353e+06	187.642
2.06538e+06	187.658
2.0773e+06	187.674
2.0893e+06	187.69
2.10136e+06	187.706
2.11349e+06	187.722
2.12569e+06	187.737
2.13796e+06	187.753
2.1503e+06	187.769
2.16272e+06	187.784
2.1752e+06	187.8
2.18776e+06	187.815
2.20039e+06	187.83
2.21309e+06	187.846
2.22587e+06	187.861
2.23872e+06	187.876
2.25165e+06	187.891
2.26464e+06	187.906
2.27772e+06	187.921
2.29087e+06	187.936
2.30409e+06	187.951
2.31739e+06	187.966
2.33077e+06	187.981
2.34423e+06	187.995
2.35776e+06	188.01
2.37137e+06	188.025
2.38506e+06	188.039
2.39883e+06	188.054
2.41268e+06	188.068
2.42661e+06	188.082
2.44062e+06	188.096
2.45471e+06	188.111
2.46888e+06	188.125
2.48313e+06	188.139
2.49747e+06	188.153
2.51189e+06	188.167
2.52639e+06	188.181
2.54097e+06	188.195
2.55564e+06	188.208
2.5704e+06	188.222
2.58523e+06	188.236
2.60016e+06	188.249
2.61517e+06	188.263
2.63027e+06	188.276
2.64545e+06	188.29
2.66073e+06	188.303
2.67609e+06	188.316
2.69153e+06	188.329
2.70707e+06	188.343
2.7227e+06	188.356
2.73842e+06	188.369
2.75423e+06	188.382
2.77013e+06	188.395
2.78612e+06	188.407
2.80221e+06	188.42
2.81838e+06	188.433
2.83465e+06	188.446
2.85102e+06	188.458
2.86748e+06	188.471
2.88403e+06	188.483
2.90068e+06	188.496
2.91743e+06	188.508
2.93427e+06	188.521
2.95121e+06	188.533
2.96825e+06	188.545
2.98538e+06	188.557
3.00262e+06	188.569
3.01995e+06	188.581
3.03739e+06	188.593
3.05492e+06	188.605
3.07256e+06	188.617
3.0903e+06	188.629
3.10814e+06	188.641
3.12608e+06	188.652
3.14413e+06	188.664
3.16228e+06	188.675
3.18053e+06	188.687
3.1989e+06	188.698
3.21736e+06	188.71
3.23594e+06	188.721
3.25462e+06	188.732
3.27341e+06	188.744
3.2923e+06	188.755
3.31131e+06	188.766
3.33043e+06	188.777
3.34965e+06	188.788
3.36899e+06	188.799
3.38844e+06	188.81
3.408e+06	188.821
3.42768e+06	188.831
3.44747e+06	188.842
3.46737e+06	188.853
3.48739e+06	188.863
3.50752e+06	188.874
3.52777e+06	188.884
3.54813e+06	188.895
3.56862e+06	188.905
3.58922e+06	188.915
3.60994e+06	188.926
3.63078e+06	188.936
3.65174e+06	188.946
3.67282e+06	188.956
3.69403e+06	188.966
3.71535e+06	188.976
3.7368e+06	188.986
3.75837e+06	188.996
3.78007e+06	189.006
3.80189e+06	189.016
3.82384e+06	189.025
3.84592e+06	189.035
3.86812e+06	189.045
3.89045e+06	189.054
3.91291e+06	189.064
3.9355e+06	189.073
3.95822e+06	189.083
3.98107e+06	189.092
4.00405e+06	189.101
4.02717e+06	189.111
4.05042e+06	189.12
4.0738e+06	189.129
4.09732e+06	189.138
4.12098e+06	189.147
4.14477e+06	189.156
4.16869e+06	189.165
4.19276e+06	189.174
4.21697e+06	189.183
4.24131e+06	189.191
4.2658e+06	189.2
4.29042e+06	189.209
4.31519e+06	189.217
4.3401e+06	189.226
4.36516e+06	189.234
4.39036e+06	189.243
4.4157e+06	189.251
4.4412e+06	189.26
4.46684e+06	189.268
4.49262e+06	189.276
4.51856e+06	189.284
4.54465e+06	189.293
4.57088e+06	189.301
4.59727e+06	189.309
4.62381e+06	189.317
4.6505e+06	189.325
4.67735e+06	189.333
4.70435e+06	189.341
4.73151e+06	189.348
4.75883e+06	189.356
4.7863e+06	189.364
4.81393e+06	189.372
4.84172e+06	189.379
4.86968e+06	189.387
4.89779e+06	189.394
4.92606e+06	189.402
4.9545e+06	189.409
4.9831e+06	189.417
5.01187e+06	189.424
5.04081e+06	189.431
5.06991e+06	189.439
5.09918e+06	189.446
5.12861e+06	189.453
5.15822e+06	189.46
5.188e+06	189.467
5.21795e+06	189.474
5.24807e+06	189.481
5.27837e+06	189.488
5.30884e+06	189.495
5.33949e+06	189.502
5.37032e+06	189.508
5.40132e+06	189.515
5.4325e+06	189.522
5.46387e+06	189.528
5.49541e+06	189.535
5.52713e+06	189.542
5.55904e+06	189.548
5.59114e+06	189.555
5.62341e+06	189.561
5.65588e+06	189.567
5.68853e+06	189.574
5.72137e+06	189.58
5.7544e+06	189.586
5.78762e+06	189.592
5.82103e+06	189.599
5.85464e+06	189.605
5.88844e+06	189.611
5.92243e+06	189.617
5.95662e+06	189.623
5.99101e+06	189.629
6.0256e+06	189.635
6.06038e+06	189.641
6.09537e+06	189.646
6.13056e+06	189.652
6.16595e+06	189.658
6.20155e+06	189.664
6.23735e+06	189.669
6.27336e+06	189.675
6.30957e+06	189.68
6.346e+06	189.686
6.38263e+06	189.691
6.41948e+06	189.697
6.45654e+06	189.702
6.49382e+06	189.708
6.53131e+06	189.713
6.56901e+06	189.718
6.60693e+06	189.723
6.64508e+06	189.729
6.68344e+06	189.734
6.72202e+06	189.739
6.76083e+06	189.744
6.79986e+06	189.749
6.83912e+06	189.754
6.8786e+06	189.759
6.91831e+06	189.764
6.95825e+06	189.769
6.99842e+06	189.774
7.03882e+06	189.778
7.07946e+06	189.783
7.12033e+06	189.788
7.16143e+06	189.793
7.20278e+06	189.797
7.24436e+06	189.802
7.28618e+06	189.806
7.32825e+06	189.811
7.37055e+06	189.815
7.4131e+06	189.82
7.4559e+06	189.824
7.49894e+06	189.829
7.54223e+06	189.833
7.58578e+06	189.837
7.62957e+06	189.842
7.67361e+06	189.846
7.71792e+06	189.85
7.76247e+06	189.854
7.80728e+06	189.858
7.85236e+06	189.863
7.89769e+06	189.867
7.94328e+06	189.871
7.98914e+06	189.875
8.03526e+06	189.879
8.08165e+06	189.883
8.12831e+06	189.886
8.17523e+06	189.89
8.22243e+06	189.894
8.2699e+06	189.898
8.31764e+06	189.902
8.36566e+06	189.905
8.41395e+06	189.909
8.46253e+06	189.913
8.51138e+06	189.916
8.56052e+06	189.92
8.60994e+06	189.924
8.65964e+06	189.927
8.70964e+06	189.931
8.75992e+06	189.934
8.81049e+06	189.937
8.86135e+06	189.941
8.91251e+06	189.944
8.96396e+06	189.948
9.01571e+06	189.951
9.06776e+06	189.954
9.12011e+06	189.957
9.17276e+06	189.961
9.22571e+06	189.964
9.27897e+06	189.967
9.33254e+06	189.97
9.38642e+06	189.973
9.44061e+06	189.976
9.49511e+06	189.979
9.54993e+06	189.982
9.60506e+06	189.985
9.66051e+06	189.988
9.71628e+06	189.991
9.77237e+06	189.994
9.82879e+06	189.997
9.88553e+06	190
9.9426e+06	190.002
1e+07	190.005
