E [MeV]	dEdx [keV/microm]
0.001	30.9831
0.00100577	31.0731
0.00101158	31.1633
0.00101742	31.2539
0.00102329	31.3447
0.0010292	31.4357
0.00103514	31.527
0.00104112	31.6186
0.00104713	31.7105
0.00105317	31.8026
0.00105925	31.8949
0.00106537	31.9876
0.00107152	32.0805
0.00107771	32.1737
0.00108393	32.2671
0.00109018	32.3608
0.00109648	32.4548
0.00110281	32.549
0.00110917	32.6436
0.00111558	32.7383
0.00112202	32.8334
0.0011285	32.9288
0.00113501	33.0244
0.00114156	33.1203
0.00114815	33.2164
0.00115478	33.3129
0.00116145	33.4096
0.00116815	33.5066
0.0011749	33.6039
0.00118168	33.7014
0.0011885	33.7993
0.00119536	33.8974
0.00120226	33.9958
0.00120921	34.0945
0.00121619	34.1935
0.00122321	34.2928
0.00123027	34.3923
0.00123737	34.4921
0.00124451	34.5923
0.0012517	34.6927
0.00125893	34.7934
0.00126619	34.8944
0.0012735	34.9956
0.00128086	35.0972
0.00128825	35.1991
0.00129569	35.3013
0.00130317	35.4037
0.00131069	35.5065
0.00131826	35.6095
0.00132587	35.7129
0.00133352	35.8165
0.00134122	35.9204
0.00134896	36.0247
0.00135675	36.1292
0.00136458	36.2341
0.00137246	36.3392
0.00138038	36.4447
0.00138835	36.5504
0.00139637	36.6565
0.00140443	36.7628
0.00141254	36.8695
0.00142069	36.9765
0.00142889	37.0838
0.00143714	37.1914
0.00144544	37.2992
0.00145378	37.4075
0.00146218	37.516
0.00147062	37.6248
0.00147911	37.734
0.00148765	37.8435
0.00149624	37.9532
0.00150487	38.0633
0.00151356	38.1738
0.0015223	38.2845
0.00153109	38.3956
0.00153993	38.5069
0.00154882	38.6186
0.00155776	38.7306
0.00156675	38.843
0.0015758	38.9556
0.00158489	39.0686
0.00159404	39.182
0.00160325	39.2956
0.0016125	39.4096
0.00162181	39.5238
0.00163117	39.6385
0.00164059	39.7534
0.00165006	39.8687
0.00165959	39.9843
0.00166917	40.1003
0.0016788	40.2166
0.0016885	40.3332
0.00169824	40.4502
0.00170805	40.5675
0.00171791	40.6851
0.00172783	40.8031
0.0017378	40.9214
0.00174783	41.0401
0.00175792	41.1591
0.00176807	41.2784
0.00177828	41.3981
0.00178855	41.5181
0.00179887	41.6385
0.00180926	41.7592
0.0018197	41.8803
0.00183021	42.0017
0.00184077	42.1235
0.0018514	42.2456
0.00186209	42.3681
0.00187284	42.4909
0.00188365	42.6141
0.00189452	42.7376
0.00190546	42.8615
0.00191646	42.9857
0.00192752	43.1103
0.00193865	43.2353
0.00194984	43.3606
0.0019611	43.4863
0.00197242	43.6123
0.00198381	43.7388
0.00199526	43.8655
0.00200678	43.9927
0.00201837	44.1202
0.00203002	44.2481
0.00204174	44.3763
0.00205353	44.5049
0.00206538	44.6339
0.0020773	44.7633
0.0020893	44.893
0.00210136	45.0231
0.00211349	45.1536
0.00212569	45.2844
0.00213796	45.4157
0.0021503	45.5473
0.00216272	45.6793
0.0021752	45.8116
0.00218776	45.9444
0.00220039	46.0775
0.00221309	46.211
0.00222587	46.3449
0.00223872	46.4792
0.00225165	46.6139
0.00226464	46.749
0.00227772	46.8844
0.00229087	47.0202
0.00230409	47.1565
0.00231739	47.2931
0.00233077	47.4301
0.00234423	47.5675
0.00235776	47.7053
0.00237137	47.8436
0.00238506	47.9822
0.00239883	48.1212
0.00241268	48.2606
0.00242661	48.4004
0.00244062	48.5406
0.00245471	48.6812
0.00246888	48.8222
0.00248313	48.9637
0.00249747	49.1055
0.00251189	49.2478
0.00252639	49.3904
0.00254097	49.5335
0.00255564	49.677
0.0025704	49.8208
0.00258523	49.9652
0.00260016	50.1099
0.00261517	50.255
0.00263027	50.4006
0.00264545	50.5466
0.00266073	50.693
0.00267609	50.8398
0.00269153	50.987
0.00270707	51.1347
0.0027227	51.2828
0.00273842	51.4313
0.00275423	51.5802
0.00277013	51.7296
0.00278612	51.8794
0.00280221	52.0297
0.00281838	52.1804
0.00283465	52.3315
0.00285102	52.483
0.00286748	52.635
0.00288403	52.7874
0.00290068	52.9403
0.00291743	53.0936
0.00293427	53.2473
0.00295121	53.4015
0.00296825	53.5561
0.00298538	53.7112
0.00300262	53.8667
0.00301995	54.0227
0.00303739	54.1791
0.00305492	54.336
0.00307256	54.4933
0.0030903	54.6511
0.00310814	54.8093
0.00312608	54.968
0.00314413	55.1271
0.00316228	55.2867
0.00318053	55.4468
0.0031989	55.6073
0.00321736	55.7683
0.00323594	55.9297
0.00325462	56.0916
0.00327341	56.254
0.0032923	56.4169
0.00331131	56.5802
0.00333043	56.744
0.00334965	56.9082
0.00336899	57.073
0.00338844	57.2382
0.003408	57.4039
0.00342768	57.57
0.00344747	57.7367
0.00346737	57.9038
0.00348739	58.0714
0.00350752	58.2395
0.00352777	58.4081
0.00354813	58.5771
0.00356862	58.7467
0.00358922	58.9167
0.00360994	59.0872
0.00363078	59.2583
0.00365174	59.4297
0.00367282	59.6018
0.00369403	59.7743
0.00371535	59.9472
0.0037368	60.1208
0.00375837	60.2947
0.00378007	60.4692
0.00380189	60.6442
0.00382384	60.8197
0.00384592	60.9958
0.00386812	61.1723
0.00389045	61.3493
0.00391291	61.5268
0.0039355	61.7049
0.00395822	61.8834
0.00398107	62.0625
0.00400405	62.2421
0.00402717	62.4222
0.00405042	62.6029
0.0040738	62.784
0.00409732	62.9657
0.00412098	63.1479
0.00414477	63.3306
0.00416869	63.5138
0.00419276	63.6976
0.00421697	63.8819
0.00424131	64.0667
0.0042658	64.2521
0.00429042	64.438
0.00431519	64.6245
0.0043401	64.8115
0.00436516	64.999
0.00439036	65.187
0.0044157	65.3756
0.0044412	65.5647
0.00446684	65.7544
0.00449262	65.9447
0.00451856	66.1355
0.00454465	66.3268
0.00457088	66.5187
0.00459727	66.7111
0.00462381	66.9041
0.0046505	67.0977
0.00467735	67.2918
0.00470435	67.4864
0.00473151	67.6816
0.00475883	67.8774
0.0047863	68.0738
0.00481393	68.2707
0.00484172	68.4682
0.00486968	68.6662
0.00489779	68.8649
0.00492606	69.0641
0.0049545	69.2638
0.0049831	69.4642
0.00501187	69.6651
0.00504081	69.8666
0.00506991	70.0687
0.00509918	70.2714
0.00512861	70.4746
0.00515822	70.6785
0.005188	70.8829
0.00521795	71.0879
0.00524807	71.2935
0.00527837	71.4997
0.00530884	71.7065
0.00533949	71.9139
0.00537032	72.1219
0.00540132	72.3305
0.0054325	72.5397
0.00546387	72.7495
0.00549541	72.9598
0.00552713	73.1708
0.00555904	73.3824
0.00559114	73.5947
0.00562341	73.8075
0.00565588	74.0209
0.00568853	74.235
0.00572137	74.4497
0.0057544	74.665
0.00578762	74.8809
0.00582103	75.0974
0.00585464	75.3146
0.00588844	75.5324
0.00592243	75.7508
0.00595662	75.9699
0.00599101	76.1895
0.0060256	76.4098
0.00606038	76.6308
0.00609537	76.8524
0.00613056	77.0746
0.00616595	77.2974
0.00620155	77.521
0.00623735	77.7451
0.00627336	77.9699
0.00630957	78.1953
0.006346	78.4214
0.00638263	78.6482
0.00641948	78.8756
0.00645654	79.1036
0.00649382	79.3323
0.00653131	79.5617
0.00656901	79.7918
0.00660693	80.0224
0.00664508	80.2538
0.00668344	80.4858
0.00672202	80.7185
0.00676083	80.9519
0.00679986	81.1859
0.00683912	81.4207
0.0068786	81.656
0.00691831	81.8921
0.00695825	82.1288
0.00699842	82.3663
0.00703882	82.6044
0.00707946	82.8432
0.00712033	83.0827
0.00716143	83.3229
0.00720278	83.5637
0.00724436	83.8053
0.00728618	84.0476
0.00732825	84.2905
0.00737055	84.5342
0.0074131	84.7785
0.0074559	85.0236
0.00749894	85.2694
0.00754223	85.5159
0.00758578	85.7631
0.00762957	86.011
0.00767361	86.2596
0.00771792	86.5089
0.00776247	86.759
0.00780728	87.0098
0.00785236	87.2613
0.00789769	87.5135
0.00794328	87.7664
0.00798914	88.0201
0.00803526	88.2745
0.00808165	88.5297
0.00812831	88.7856
0.00817523	89.0422
0.00822243	89.2995
0.0082699	89.5576
0.00831764	89.8165
0.00836566	90.0761
0.00841395	90.3364
0.00846253	90.5975
0.00851138	90.8593
0.00856052	91.1219
0.00860994	91.3853
0.00865964	91.6494
0.00870964	91.9143
0.00875992	92.1799
0.00881049	92.4463
0.00886135	92.7135
0.00891251	92.9814
0.00896396	93.2501
0.00901571	93.5196
0.00906776	93.7899
0.00912011	94.4188
0.00917276	94.9037
0.00922571	95.1776
0.00927897	95.4522
0.00933254	95.7277
0.00938642	96.0039
0.00944061	96.3499
0.00949511	96.6279
0.00954993	96.9066
0.00960506	97.3728
0.00966051	97.6537
0.00971628	97.9352
0.00977237	98.2176
0.00982879	98.5009
0.00988553	98.785
0.0099426	99.0698
0.01	99.3781
0.0100577	99.6648
0.0101158	99.952
0.0101742	100.24
0.0102329	100.529
0.010292	100.819
0.0103514	101.11
0.0104112	101.401
0.0104713	101.693
0.0105317	101.987
0.0105925	102.281
0.0106537	102.576
0.0107152	102.871
0.0107771	103.192
0.0108393	103.514
0.0109018	103.812
0.0109648	104.112
0.0110281	104.411
0.0110917	104.762
0.0111558	105.064
0.0112202	105.367
0.011285	105.67
0.0113501	105.975
0.0114156	106.28
0.0114815	106.586
0.0115478	106.893
0.0116145	107.201
0.0116815	107.509
0.011749	107.819
0.0118168	108.129
0.011885	108.441
0.0119536	108.753
0.0120226	109.066
0.0120921	109.38
0.0121619	109.696
0.0122321	110.011
0.0123027	110.328
0.0123737	110.646
0.0124451	110.965
0.012517	111.284
0.0125893	111.605
0.0126619	111.926
0.012735	112.248
0.0128086	112.571
0.0128825	112.896
0.0129569	113.221
0.0130317	113.547
0.0131069	113.874
0.0131826	114.202
0.0132587	114.531
0.0133352	114.861
0.0134122	115.191
0.0134896	115.523
0.0135675	115.856
0.0136458	116.189
0.0137246	116.524
0.0138038	116.86
0.0138835	117.196
0.0139637	117.534
0.0140443	117.872
0.0141254	118.211
0.0142069	118.552
0.0142889	118.893
0.0143714	119.235
0.0144544	119.579
0.0145378	119.923
0.0146218	120.268
0.0147062	120.615
0.0147911	120.962
0.0148765	121.31
0.0149624	121.66
0.0150487	122.01
0.0151356	122.361
0.015223	122.714
0.0153109	123.067
0.0153993	123.421
0.0154882	123.777
0.0155776	124.133
0.0156675	124.491
0.015758	124.849
0.0158489	125.209
0.0159404	125.569
0.0160325	125.931
0.016125	126.293
0.0162181	126.657
0.0163117	127.022
0.0164059	127.387
0.0165006	127.754
0.0165959	128.122
0.0166917	128.491
0.016788	128.861
0.016885	129.232
0.0169824	129.604
0.0170805	129.977
0.0171791	130.352
0.0172783	130.727
0.017378	131.103
0.0174783	131.481
0.0175792	131.859
0.0176807	132.239
0.0177828	132.62
0.0178855	133.002
0.0179887	133.385
0.0180926	133.769
0.018197	134.154
0.0183021	134.54
0.0184077	134.927
0.018514	135.316
0.0186209	135.705
0.0187284	136.096
0.0188365	136.488
0.0189452	136.881
0.0190546	137.275
0.0191646	137.67
0.0192752	138.067
0.0193865	138.464
0.0194984	138.863
0.019611	139.263
0.0197242	139.664
0.0198381	140.066
0.0199526	140.469
0.0200678	140.874
0.0201837	141.279
0.0203002	141.686
0.0204174	142.094
0.0205353	142.503
0.0206538	142.913
0.020773	143.325
0.020893	143.737
0.0210136	144.151
0.0211349	144.566
0.0212569	144.982
0.0213796	145.4
0.021503	145.818
0.0216272	146.238
0.021752	146.659
0.0218776	147.081
0.0220039	147.505
0.0221309	147.93
0.0222587	148.355
0.0223872	148.783
0.0225165	149.211
0.0226464	149.64
0.0227772	150.071
0.0229087	150.503
0.0230409	150.937
0.0231739	151.371
0.0233077	151.807
0.0234423	152.244
0.0235776	152.682
0.0237137	153.122
0.0238506	153.562
0.0239883	154.004
0.0241268	154.448
0.0242661	154.892
0.0244062	155.338
0.0245471	155.786
0.0246888	156.234
0.0248313	156.684
0.0249747	157.135
0.0251189	157.587
0.0252639	158.041
0.0254097	158.496
0.0255564	158.952
0.025704	159.41
0.0258523	159.869
0.0260016	160.329
0.0261517	160.79
0.0263027	161.253
0.0264545	161.717
0.0266073	162.183
0.0267609	162.65
0.0269153	163.118
0.0270707	163.587
0.027227	164.058
0.0273842	164.531
0.0275423	165.004
0.0277013	165.479
0.0278612	165.956
0.0280221	166.433
0.0281838	166.912
0.0283465	167.393
0.0285102	167.874
0.0286748	168.358
0.0288403	168.842
0.0290068	169.329
0.0291743	169.816
0.0293427	170.304
0.0295121	170.795
0.0296825	171.286
0.0298538	171.779
0.0300262	172.274
0.0301995	172.77
0.0303739	173.267
0.0305492	173.766
0.0307256	174.266
0.030903	174.767
0.0310814	175.27
0.0312608	175.775
0.0314413	176.281
0.0316228	176.788
0.0318053	177.297
0.031989	177.807
0.0321736	178.319
0.0323594	178.833
0.0325462	179.347
0.0327341	179.863
0.032923	180.381
0.0331131	180.9
0.0333043	181.421
0.0334965	181.943
0.0336899	182.467
0.0338844	182.992
0.03408	183.519
0.0342768	184.047
0.0344747	184.577
0.0346737	185.108
0.0348739	185.64
0.0350752	186.175
0.0352777	186.711
0.0354813	187.248
0.0356862	187.787
0.0358922	188.327
0.0360994	188.869
0.0363078	189.413
0.0365174	189.958
0.0367282	190.505
0.0369403	191.053
0.0371535	191.603
0.037368	192.154
0.0375837	192.707
0.0378007	193.262
0.0380189	193.818
0.0382384	194.376
0.0384592	194.935
0.0386812	195.496
0.0389045	196.059
0.0391291	196.623
0.039355	197.189
0.0395822	197.756
0.0398107	198.325
0.0400405	198.896
0.0402717	199.468
0.0405042	200.042
0.040738	200.618
0.0409732	201.195
0.0412098	201.774
0.0414477	202.355
0.0416869	202.938
0.0419276	203.521
0.0421697	204.107
0.0424131	204.694
0.042658	205.284
0.0429042	205.874
0.0431519	206.467
0.043401	207.061
0.0436516	207.657
0.0439036	208.254
0.044157	208.853
0.044412	209.454
0.0446684	210.057
0.0449262	210.662
0.0451856	211.268
0.0454465	211.876
0.0457088	212.485
0.0459727	213.097
0.0462381	213.71
0.046505	214.325
0.0467735	214.941
0.0470435	215.56
0.0473151	216.18
0.0475883	216.802
0.047863	217.426
0.0481393	218.052
0.0484172	218.679
0.0486968	219.308
0.0489779	219.939
0.0492606	220.572
0.049545	221.207
0.049831	221.843
0.0501187	222.481
0.0504081	223.122
0.0506991	223.764
0.0509918	224.407
0.0512861	225.053
0.0515822	225.701
0.05188	226.35
0.0521795	227.001
0.0524807	227.654
0.0527837	228.309
0.0530884	228.966
0.0533949	229.625
0.0537032	230.286
0.0540132	230.948
0.054325	231.613
0.0546387	232.279
0.0549541	232.947
0.0552713	233.617
0.0555904	234.29
0.0559114	234.964
0.0562341	235.639
0.0565588	236.317
0.0568853	236.997
0.0572137	237.679
0.057544	238.363
0.0578762	239.049
0.0582103	239.736
0.0585464	240.426
0.0588844	241.117
0.0592243	241.811
0.0595662	242.507
0.0599101	243.204
0.060256	243.904
0.0606038	244.606
0.0609537	245.309
0.0613056	246.015
0.0616595	246.723
0.0620155	247.433
0.0623735	248.144
0.0627336	248.858
0.0630957	249.574
0.06346	250.292
0.0638263	251.012
0.0641948	251.734
0.0645654	252.458
0.0649382	253.184
0.0653131	253.912
0.0656901	254.643
0.0660693	255.375
0.0664508	256.11
0.0668344	256.847
0.0672202	257.585
0.0676083	258.326
0.0679986	259.069
0.0683912	259.814
0.068786	260.562
0.0691831	261.312
0.0695825	262.063
0.0699842	262.817
0.0703882	263.573
0.0707946	264.331
0.0712033	265.091
0.0716143	265.854
0.0720278	266.618
0.0724436	267.385
0.0728618	268.154
0.0732825	268.925
0.0737055	269.699
0.074131	270.475
0.074559	271.252
0.0749894	272.032
0.0754223	272.815
0.0758578	273.6
0.0762957	274.387
0.0767361	275.176
0.0771792	275.967
0.0776247	276.761
0.0780728	277.557
0.0785236	278.355
0.0789769	279.155
0.0794328	279.958
0.0798914	280.763
0.0803526	281.571
0.0808165	282.381
0.0812831	283.193
0.0817523	284.007
0.0822243	284.824
0.082699	285.643
0.0831764	286.464
0.0836566	287.288
0.0841395	288.114
0.0846253	288.943
0.0851138	289.774
0.0856052	290.607
0.0860994	291.443
0.0865964	292.281
0.0870964	293.121
0.0875992	293.964
0.0881049	294.809
0.0886135	295.657
0.0891251	296.507
0.0896396	297.36
0.0901571	298.215
0.0906776	299.073
0.0912011	299.932
0.0917276	300.795
0.0922571	301.66
0.0927897	302.527
0.0933254	303.397
0.0938642	304.27
0.0944061	305.144
0.0949511	306.022
0.0954993	306.902
0.0960506	307.784
0.0966051	308.669
0.0971628	309.557
0.0977237	310.447
0.0982879	311.339
0.0988553	312.235
0.099426	313.132
0.1	314.032
0.100577	314.935
0.101158	315.841
0.101742	316.749
0.102329	317.66
0.10292	318.573
0.103514	319.489
0.104112	320.407
0.104713	321.328
0.105317	322.252
0.105925	323.179
0.106537	324.108
0.107152	325.039
0.107771	325.974
0.108393	326.911
0.109018	327.851
0.109648	328.793
0.110281	329.739
0.110917	330.687
0.111558	331.637
0.112202	332.591
0.11285	333.547
0.113501	334.506
0.114156	335.467
0.114815	336.431
0.115478	337.399
0.116145	338.368
0.116815	339.341
0.11749	340.316
0.118168	341.295
0.11885	342.276
0.119536	343.26
0.120226	344.246
0.120921	345.236
0.121619	346.228
0.122321	347.223
0.123027	348.221
0.123737	349.222
0.124451	350.226
0.12517	351.233
0.125893	352.242
0.126619	353.255
0.12735	354.27
0.128086	355.288
0.128825	356.31
0.129569	357.334
0.130317	358.361
0.131069	359.391
0.131826	360.423
0.132587	361.46
0.133352	362.499
0.134122	363.54
0.134896	364.585
0.135675	365.633
0.136458	366.683
0.137246	367.737
0.138038	368.794
0.138835	369.854
0.139637	370.917
0.140443	371.983
0.141254	373.052
0.142069	374.124
0.142889	375.199
0.143714	376.277
0.144544	377.359
0.145378	378.443
0.146218	379.53
0.147062	380.621
0.147911	381.715
0.148765	382.812
0.149624	383.912
0.150487	385.015
0.151356	386.121
0.15223	387.231
0.153109	388.343
0.153993	389.459
0.154882	390.579
0.155776	391.701
0.156675	392.826
0.15758	393.955
0.158489	395.087
0.159404	396.222
0.160325	397.36
0.16125	398.502
0.162181	399.647
0.163117	400.796
0.164059	401.947
0.165006	403.102
0.165959	404.26
0.166917	405.422
0.16788	406.586
0.16885	407.755
0.169824	408.926
0.170805	410.101
0.171791	411.279
0.172783	412.461
0.17378	413.645
0.174783	414.834
0.175792	416.026
0.176807	417.221
0.177828	418.419
0.178855	419.621
0.179887	420.827
0.180926	422.036
0.18197	423.248
0.183021	424.464
0.184077	425.683
0.18514	426.906
0.186209	428.132
0.187284	429.362
0.188365	430.595
0.189452	431.832
0.190546	433.073
0.191646	434.317
0.192752	435.564
0.193865	436.815
0.194984	438.07
0.19611	439.328
0.197242	440.59
0.198381	441.856
0.199526	443.125
0.200678	444.397
0.201837	445.674
0.203002	446.954
0.204174	448.238
0.205353	449.525
0.206538	450.816
0.20773	452.111
0.20893	453.409
0.210136	454.712
0.211349	456.017
0.212569	457.327
0.213796	458.64
0.21503	459.958
0.216272	461.279
0.21752	462.603
0.218776	463.932
0.220039	465.264
0.221309	466.6
0.222587	467.94
0.223872	469.284
0.225165	470.631
0.226464	471.983
0.227772	473.338
0.229087	474.697
0.230409	476.06
0.231739	477.427
0.233077	478.798
0.234423	480.173
0.235776	481.552
0.237137	482.934
0.238506	484.321
0.239883	485.712
0.241268	487.106
0.242661	488.505
0.244062	489.907
0.245471	491.314
0.246888	492.725
0.248313	494.139
0.249747	495.558
0.251189	496.981
0.252639	498.408
0.254097	499.838
0.255564	501.273
0.25704	502.712
0.258523	504.156
0.260016	505.603
0.261517	507.055
0.263027	508.51
0.264545	509.97
0.266073	511.434
0.267609	512.902
0.269153	514.374
0.270707	515.851
0.27227	517.332
0.273842	518.817
0.275423	520.306
0.277013	521.8
0.278612	523.297
0.280221	524.799
0.281838	526.306
0.283465	527.817
0.285102	529.331
0.286748	530.851
0.288403	532.374
0.290068	533.902
0.291743	535.435
0.293427	536.972
0.295121	538.513
0.296825	540.058
0.298538	541.608
0.300262	543.163
0.301995	544.722
0.303739	546.285
0.305492	547.853
0.307256	549.425
0.30903	551.001
0.310814	552.583
0.312608	554.169
0.314413	555.759
0.316228	557.354
0.318053	558.953
0.31989	560.557
0.321736	562.166
0.323594	563.779
0.325462	565.397
0.327341	567.019
0.32923	568.646
0.331131	570.278
0.333043	571.914
0.334965	573.555
0.336899	575.2
0.338844	576.851
0.3408	578.506
0.342768	580.166
0.344747	581.83
0.346737	583.5
0.348739	585.174
0.350752	586.853
0.352777	588.536
0.354813	590.225
0.356862	591.918
0.358922	593.616
0.360994	595.319
0.363078	597.027
0.365174	598.74
0.367282	600.457
0.369403	602.18
0.371535	603.907
0.37368	605.64
0.375837	607.377
0.378007	609.119
0.380189	610.867
0.382384	612.619
0.384592	614.376
0.386812	616.138
0.389045	617.906
0.391291	619.678
0.39355	621.455
0.395822	623.238
0.398107	625.025
0.400405	626.818
0.402717	628.616
0.405042	630.419
0.40738	632.227
0.409732	634.04
0.412098	635.858
0.414477	637.682
0.416869	639.511
0.419276	641.345
0.421697	643.184
0.424131	645.028
0.42658	646.878
0.429042	648.733
0.431519	650.593
0.43401	652.459
0.436516	654.33
0.439036	656.206
0.44157	658.088
0.44412	659.975
0.446684	661.867
0.449262	663.765
0.451856	665.668
0.454465	667.577
0.457088	669.491
0.459727	671.41
0.462381	673.335
0.46505	675.266
0.467735	677.202
0.470435	679.143
0.473151	681.09
0.475883	683.043
0.47863	685.001
0.481393	686.965
0.484172	688.934
0.486968	690.909
0.489779	692.89
0.492606	694.876
0.49545	696.868
0.49831	698.866
0.501187	700.869
0.504081	702.878
0.506991	704.893
0.509918	706.913
0.512861	708.939
0.515822	710.971
0.5188	713.009
0.521795	715.053
0.524807	717.102
0.527837	719.158
0.530884	721.219
0.533949	723.286
0.537032	725.359
0.540132	727.437
0.54325	729.522
0.546387	731.613
0.549541	733.709
0.552713	735.812
0.555904	737.921
0.559114	740.035
0.562341	742.156
0.565588	744.283
0.568853	746.415
0.572137	748.554
0.57544	750.699
0.578762	752.85
0.582103	755.007
0.585464	757.17
0.588844	759.34
0.592243	761.515
0.595662	763.697
0.599101	765.885
0.60256	768.08
0.606038	770.28
0.609537	772.487
0.613056	774.7
0.616595	776.92
0.620155	779.145
0.623735	781.377
0.627336	783.616
0.630957	785.86
0.6346	788.112
0.638263	790.369
0.641948	792.633
0.645654	794.904
0.649382	797.18
0.653131	799.464
0.656901	801.754
0.660693	804.05
0.664508	806.353
0.668344	808.663
0.672202	810.979
0.676083	813.301
0.679986	815.631
0.683912	817.967
0.68786	820.309
0.691831	822.658
0.695825	825.014
0.699842	827.377
0.703882	829.774
0.707946	832.179
0.712033	834.591
0.716143	837.011
0.720278	839.439
0.724436	841.874
0.728618	844.316
0.732825	846.766
0.737055	849.224
0.74131	851.689
0.74559	854.161
0.749894	856.641
0.754223	859.129
0.758578	861.625
0.762957	864.128
0.767361	866.639
0.771792	869.157
0.776247	871.691
0.780728	874.254
0.785236	876.825
0.789769	879.405
0.794328	881.993
0.798914	884.59
0.803526	887.218
0.808165	889.863
0.812831	892.517
0.817523	895.18
0.822243	897.853
0.82699	900.535
0.831764	903.227
0.836566	905.928
0.841395	908.634
0.846253	911.34
0.851138	914.055
0.856052	916.779
0.860994	919.513
0.865964	922.257
0.870964	925.01
0.875992	927.778
0.881049	930.582
0.886135	933.395
0.891251	936.219
0.896396	939.053
0.901571	941.897
0.906776	944.752
0.912011	947.617
0.917276	950.494
0.922571	953.381
0.927897	956.278
0.933254	959.175
0.938642	962.079
0.944061	964.991
0.949511	967.915
0.954993	970.849
0.960506	973.792
0.966051	976.731
0.971628	979.68
0.977237	982.656
0.982879	985.672
0.988553	988.7
0.99426	991.74
1	994.79
1.00577	997.931
1.01158	1001.09
1.01742	1004.26
1.02329	1007.44
1.0292	1010.64
1.03514	1013.84
1.04112	1017.07
1.04713	1020.3
1.05317	1023.54
1.05925	1026.79
1.06537	1030.04
1.07152	1033.31
1.07771	1036.6
1.08393	1039.89
1.09018	1043.21
1.09648	1046.53
1.10281	1049.86
1.10917	1053.21
1.11558	1056.58
1.12202	1059.95
1.1285	1063.37
1.13501	1066.81
1.14156	1070.28
1.14815	1073.75
1.15478	1077.25
1.16145	1080.75
1.16815	1084.27
1.1749	1087.79
1.18168	1091.33
1.1885	1094.87
1.19536	1098.43
1.20226	1102.02
1.20921	1105.62
1.21619	1109.24
1.22321	1112.88
1.23027	1116.53
1.23737	1120.2
1.24451	1123.88
1.2517	1127.57
1.25893	1131.27
1.26619	1135
1.2735	1138.73
1.28086	1142.53
1.28825	1146.34
1.29569	1150.17
1.30317	1154.05
1.31069	1157.97
1.31826	1161.9
1.32587	1165.86
1.33352	1169.83
1.34122	1173.82
1.34896	1177.82
1.35675	1181.83
1.36458	1185.85
1.37246	1189.89
1.38038	1193.95
1.38835	1198.03
1.39637	1202.12
1.40443	1206.23
1.41254	1210.35
1.42069	1214.49
1.42889	1218.64
1.43714	1222.82
1.44544	1227
1.45378	1231.19
1.46218	1235.4
1.47062	1239.63
1.47911	1243.88
1.48765	1248.14
1.49624	1252.42
1.50487	1256.71
1.51356	1261.03
1.5223	1265.36
1.53109	1269.71
1.53993	1274.06
1.54882	1278.43
1.55776	1282.81
1.56675	1287.2
1.5758	1291.59
1.58489	1296
1.59404	1300.43
1.60325	1304.88
1.6125	1309.34
1.62181	1313.81
1.63117	1318.3
1.64059	1322.81
1.65006	1327.34
1.65959	1331.88
1.66917	1336.44
1.6788	1341.02
1.6885	1345.62
1.69824	1350.23
1.70805	1354.86
1.71791	1359.51
1.72783	1364.17
1.7378	1368.86
1.74783	1373.56
1.75792	1378.28
1.76807	1383.02
1.77828	1387.77
1.78855	1392.54
1.79887	1397.33
1.80926	1402.13
1.8197	1406.96
1.83021	1411.79
1.84077	1416.65
1.8514	1421.52
1.86209	1426.41
1.87284	1431.32
1.88365	1436.25
1.89452	1441.19
1.90546	1446.15
1.91646	1451.13
1.92752	1456.13
1.93865	1461.14
1.94984	1466.16
1.9611	1471.21
1.97242	1476.27
1.98381	1481.34
1.99526	1486.44
2.00678	1491.55
2.01837	1496.68
2.03002	1501.83
2.04174	1506.99
2.05353	1512.17
2.06538	1517.36
2.0773	1522.57
2.0893	1527.8
2.10136	1533.04
2.11349	1538.29
2.12569	1543.57
2.13796	1548.86
2.1503	1554.16
2.16272	1559.49
2.1752	1564.83
2.18776	1570.18
2.20039	1575.55
2.21309	1580.94
2.22587	1586.35
2.23872	1591.77
2.25165	1597.21
2.26464	1602.67
2.27772	1608.14
2.29087	1613.63
2.30409	1619.13
2.31739	1624.65
2.33077	1630.18
2.34423	1635.74
2.35776	1641.3
2.37137	1646.89
2.38506	1652.48
2.39883	1658.1
2.41268	1663.73
2.42661	1669.37
2.44062	1675.04
2.45471	1680.71
2.46888	1686.4
2.48313	1692.11
2.49747	1697.83
2.51189	1703.57
2.52639	1709.32
2.54097	1715.09
2.55564	1720.87
2.5704	1726.67
2.58523	1732.48
2.60016	1738.3
2.61517	1744.14
2.63027	1750
2.64545	1755.86
2.66073	1761.74
2.67609	1767.64
2.69153	1773.55
2.70707	1779.47
2.7227	1785.41
2.73842	1791.36
2.75423	1797.33
2.77013	1803.3
2.78612	1809.29
2.80221	1815.3
2.81838	1821.32
2.83465	1827.35
2.85102	1833.4
2.86748	1839.45
2.88403	1845.52
2.90068	1851.61
2.91743	1857.7
2.93427	1863.81
2.95121	1869.93
2.96825	1876.07
2.98538	1882.21
3.00262	1888.37
3.01995	1894.54
3.03739	1900.73
3.05492	1906.93
3.07256	1913.13
3.0903	1919.36
3.10814	1925.59
3.12608	1931.83
3.14413	1938.09
3.16228	1944.36
3.18053	1950.64
3.1989	1956.94
3.21736	1963.25
3.23594	1969.56
3.25462	1975.89
3.27341	1982.24
3.2923	1988.59
3.31131	1994.96
3.33043	2001.34
3.34965	2007.73
3.36899	2014.13
3.38844	2020.55
3.408	2026.98
3.42768	2033.42
3.44747	2039.87
3.46737	2046.34
3.48739	2052.82
3.50752	2059.31
3.52777	2065.81
3.54813	2072.33
3.56862	2078.86
3.58922	2085.4
3.60994	2091.95
3.63078	2098.52
3.65174	2105.1
3.67282	2111.7
3.69403	2118.31
3.71535	2124.93
3.7368	2131.56
3.75837	2138.21
3.78007	2144.87
3.80189	2151.54
3.82384	2158.24
3.84592	2164.94
3.86812	2171.65
3.89045	2178.38
3.91291	2185.12
3.9355	2191.88
3.95822	2198.66
3.98107	2205.44
4.00405	2212.24
4.02717	2219.06
4.05042	2225.88
4.0738	2232.73
4.09732	2239.59
4.12098	2246.46
4.14477	2253.35
4.16869	2260.26
4.19276	2267.18
4.21697	2274.1
4.24131	2281.05
4.2658	2288
4.29042	2294.98
4.31519	2301.97
4.3401	2308.97
4.36516	2315.99
4.39036	2323.03
4.4157	2330.08
4.4412	2337.15
4.46684	2344.24
4.49262	2351.34
4.51856	2358.45
4.54465	2365.59
4.57088	2372.74
4.59727	2379.9
4.62381	2387.08
4.6505	2394.28
4.67735	2401.49
4.70435	2408.71
4.73151	2415.95
4.75883	2423.21
4.7863	2430.48
4.81393	2437.76
4.84172	2445.05
4.86968	2452.36
4.89779	2459.69
4.92606	2467.03
4.9545	2474.38
4.9831	2481.75
5.01187	2489.14
5.04081	2496.54
5.06991	2503.95
5.09918	2511.38
5.12861	2518.82
5.15822	2526.27
5.188	2533.74
5.21795	2541.22
5.24807	2548.71
5.27837	2556.22
5.30884	2563.73
5.33949	2571.25
5.37032	2578.78
5.40132	2586.33
5.4325	2593.89
5.46387	2601.46
5.49541	2609.04
5.52713	2616.63
5.55904	2624.24
5.59114	2631.85
5.62341	2639.47
5.65588	2647.11
5.68853	2654.75
5.72137	2662.4
5.7544	2670.06
5.78762	2677.73
5.82103	2685.41
5.85464	2693.09
5.88844	2700.78
5.92243	2708.47
5.95662	2716.18
5.99101	2723.88
6.0256	2731.59
6.06038	2739.3
6.09537	2747.01
6.13056	2754.73
6.16595	2762.45
6.20155	2770.18
6.23735	2777.92
6.27336	2785.66
6.30957	2793.4
6.346	2801.15
6.38263	2808.89
6.41948	2816.65
6.45654	2824.4
6.49382	2832.16
6.53131	2839.92
6.56901	2847.68
6.60693	2855.45
6.64508	2863.21
6.68344	2870.98
6.72202	2878.74
6.76083	2886.51
6.79986	2894.27
6.83912	2902.03
6.8786	2909.79
6.91831	2917.55
6.95825	2925.3
6.99842	2933.06
7.03882	2940.81
7.07946	2948.57
7.12033	2956.32
7.16143	2964.06
7.20278	2971.81
7.24436	2979.54
7.28618	2987.28
7.32825	2995.01
7.37055	3002.73
7.4131	3010.45
7.4559	3018.16
7.49894	3025.87
7.54223	3033.57
7.58578	3041.27
7.62957	3048.96
7.67361	3056.64
7.71792	3064.32
7.76247	3071.98
7.80728	3079.64
7.85236	3087.3
7.89769	3094.94
7.94328	3102.58
7.98914	3110.21
8.03526	3117.83
8.08165	3125.45
8.12831	3133.06
8.17523	3140.66
8.22243	3148.26
8.2699	3155.84
8.31764	3163.42
8.36566	3170.98
8.41395	3178.54
8.46253	3186.09
8.51138	3193.63
8.56052	3201.16
8.60994	3208.68
8.65964	3216.19
8.70964	3223.69
8.75992	3231.18
8.81049	3238.66
8.86135	3246.13
8.91251	3253.58
8.96396	3261.03
9.01571	3268.46
9.06776	3275.89
9.12011	3283.31
9.17276	3290.71
9.22571	3298.1
9.27897	3305.48
9.33254	3312.85
9.38642	3320.2
9.44061	3327.55
9.49511	3334.88
9.54993	3342.2
9.60506	3349.51
9.66051	3356.8
9.71628	3364.09
9.77237	3371.36
9.82879	3378.62
9.88553	3385.86
9.9426	3393.09
10	3400.31
10.0577	3407.52
10.1158	3414.71
10.1742	3421.88
10.2329	3429.05
10.292	3436.2
10.3514	3443.34
10.4112	3450.46
10.4713	3457.57
10.5317	3464.67
10.5925	3471.75
10.6537	3478.82
10.7152	3485.87
10.7771	3492.91
10.8393	3499.93
10.9018	3506.93
10.9648	3513.92
11.0281	3520.9
11.0917	3527.85
11.1558	3534.79
11.2202	3541.72
11.285	3548.63
11.3501	3555.52
11.4156	3562.39
11.4815	3569.25
11.5478	3576.09
11.6145	3582.91
11.6815	3589.72
11.749	3596.51
11.8168	3603.29
11.885	3610.05
11.9536	3616.79
12.0226	3623.51
12.0921	3630.22
12.1619	3636.91
12.2321	3643.58
12.3027	3650.24
12.3737	3656.88
12.4451	3663.5
12.517	3670.1
12.5893	3676.69
12.6619	3683.25
12.735	3689.8
12.8086	3696.32
12.8825	3702.83
12.9569	3709.32
13.0317	3715.79
13.1069	3722.24
13.1826	3728.68
13.2587	3735.09
13.3352	3741.49
13.4122	3747.86
13.4896	3754.22
13.5675	3760.55
13.6458	3766.87
13.7246	3773.17
13.8038	3779.45
13.8835	3785.7
13.9637	3791.94
14.0443	3798.16
14.1254	3804.35
14.2069	3810.53
14.2889	3816.68
14.3714	3822.82
14.4544	3828.93
14.5378	3835.02
14.6218	3841.1
14.7062	3847.15
14.7911	3853.18
14.8765	3859.19
14.9624	3865.17
15.0487	3871.14
15.1356	3877.09
15.223	3883.01
15.3109	3888.91
15.3993	3894.8
15.4882	3900.66
15.5776	3906.5
15.6675	3912.31
15.758	3918.11
15.8489	3923.88
15.9404	3929.63
16.0325	3935.36
16.125	3941.06
16.2181	3946.74
16.3117	3952.4
16.4059	3958.04
16.5006	3963.65
16.5959	3969.24
16.6917	3974.8
16.788	3980.35
16.885	3985.87
16.9824	3991.36
17.0805	3996.84
17.1791	4002.29
17.2783	4007.71
17.378	4013.11
17.4783	4018.49
17.5792	4023.85
17.6807	4029.17
17.7828	4034.48
17.8855	4039.76
17.9887	4045.02
18.0926	4050.24
18.197	4055.45
18.3021	4060.63
18.4077	4065.78
18.514	4070.91
18.6209	4076.01
18.7284	4081.09
18.8365	4086.14
18.9452	4091.17
19.0546	4096.17
19.1646	4101.15
19.2752	4106.1
19.3865	4111.02
19.4984	4115.92
19.611	4120.79
19.7242	4125.64
19.8381	4130.46
19.9526	4135.26
20.0678	4140.03
20.1837	4144.77
20.3002	4149.49
20.4174	4154.18
20.5353	4158.84
20.6538	4163.48
20.773	4168.09
20.893	4172.66
21.0136	4177.21
21.1349	4181.74
21.2569	4186.23
21.3796	4190.7
21.503	4195.14
21.6272	4199.55
21.752	4203.94
21.8776	4208.29
22.0039	4212.62
22.1309	4216.92
22.2587	4221.19
22.3872	4225.43
22.5165	4229.64
22.6464	4233.82
22.7772	4237.97
22.9087	4242.09
23.0409	4246.18
23.1739	4250.25
23.3077	4254.28
23.4423	4258.28
23.5776	4262.25
23.7137	4266.18
23.8506	4270.09
23.9883	4273.96
24.1268	4277.81
24.2661	4281.63
24.4062	4285.41
24.5471	4289.16
24.6888	4292.88
24.8313	4296.56
24.9747	4300.22
25.1189	4303.83
25.2639	4307.42
25.4097	4310.98
25.5564	4314.5
25.704	4317.98
25.8523	4321.44
26.0016	4324.86
26.1517	4328.25
26.3027	4331.6
26.4545	4334.92
26.6073	4338.21
26.7609	4341.46
26.9153	4344.67
27.0707	4347.85
27.227	4351
27.3842	4354.11
27.5423	4357.18
27.7013	4360.22
27.8612	4363.22
28.0221	4366.19
28.1838	4369.12
28.3465	4372.02
28.5102	4374.88
28.6748	4377.7
28.8403	4380.48
29.0068	4383.23
29.1743	4385.94
29.3427	4388.61
29.5121	4391.25
29.6825	4393.84
29.8538	4396.4
30.0262	4398.92
30.1995	4401.4
30.3739	4403.85
30.5492	4406.26
30.7256	4408.62
30.903	4410.95
31.0814	4413.24
31.2608	4415.49
31.4413	4417.7
31.6228	4419.88
31.8053	4422.01
31.989	4424.1
32.1736	4426.16
32.3594	4428.17
32.5462	4430.15
32.7341	4432.08
32.923	4433.97
33.1131	4435.83
33.3043	4437.64
33.4965	4439.41
33.6899	4441.14
33.8844	4442.82
34.08	4444.47
34.2768	4446.07
34.4747	4447.63
34.6737	4449.15
34.8739	4450.63
35.0752	4452.06
35.2777	4453.45
35.4813	4454.8
35.6862	4456.1
35.8922	4457.37
36.0994	4458.59
36.3078	4459.76
36.5174	4460.89
36.7282	4461.98
36.9403	4463.03
37.1535	4464.03
37.368	4464.98
37.5837	4465.89
37.8007	4466.76
38.0189	4467.58
38.2384	4468.36
38.4592	4469.1
38.6812	4469.79
38.9045	4470.43
39.1291	4471.03
39.355	4471.59
39.5822	4472.11
39.8107	4472.58
40.0405	4473
40.2717	4473.38
40.5042	4473.72
40.738	4474.01
40.9732	4474.26
41.2098	4474.47
41.4477	4474.63
41.6869	4474.74
41.9276	4474.81
42.1697	4474.83
42.4131	4474.81
42.658	4474.74
42.9042	4474.62
43.1519	4474.46
43.401	4474.26
43.6516	4474.01
43.9036	4473.71
44.157	4473.37
44.412	4472.98
44.6684	4472.55
44.9262	4472.07
45.1856	4471.55
45.4465	4470.98
45.7088	4470.37
45.9727	4469.72
46.2381	4469.01
46.505	4468.27
46.7735	4467.47
47.0435	4466.63
47.3151	4465.75
47.5883	4464.82
47.863	4463.84
48.1393	4462.83
48.4172	4461.76
48.6968	4460.65
48.9779	4459.5
49.2606	4458.3
49.545	4457.06
49.831	4455.77
50.1187	4454.44
50.4081	4453.07
50.6991	4451.65
50.9918	4450.19
51.2861	4448.69
51.5822	4447.14
51.88	4445.55
52.1795	4443.92
52.4807	4442.25
52.7837	4440.53
53.0884	4438.76
53.3949	4436.96
53.7032	4435.11
54.0132	4433.21
54.325	4431.28
54.6387	4429.3
54.9541	4427.28
55.2713	4425.22
55.5904	4423.12
55.9114	4420.97
56.2341	4418.78
56.5588	4416.56
56.8853	4414.29
57.2137	4411.97
57.544	4409.62
57.8762	4407.23
58.2103	4404.79
58.5464	4402.32
58.8844	4399.79
59.2243	4397.23
59.5662	4394.62
59.9101	4391.98
60.256	4389.28
60.6038	4386.54
60.9537	4383.76
61.3056	4380.95
61.6595	4378.09
62.0155	4375.2
62.3735	4372.26
62.7336	4369.29
63.0957	4366.28
63.46	4363.23
63.8263	4360.14
64.1948	4357.02
64.5654	4353.86
64.9382	4350.65
65.3131	4347.42
65.6901	4344.14
66.0693	4340.83
66.4508	4337.49
66.8344	4334.1
67.2202	4330.68
67.6083	4327.22
67.9986	4323.72
68.3912	4320.18
68.786	4316.6
69.1831	4313
69.5825	4309.35
69.9842	4305.67
70.3882	4301.96
70.7946	4298.22
71.2033	4294.44
71.6143	4290.63
72.0278	4286.78
72.4436	4282.89
72.8618	4278.97
73.2825	4275.01
73.7055	4271.03
74.131	4267.01
74.559	4262.96
74.9894	4258.88
75.4223	4254.77
75.8578	4250.63
76.2957	4246.46
76.7361	4242.25
77.1792	4238
77.6247	4233.73
78.0728	4229.42
78.5236	4225.08
78.9769	4220.71
79.4328	4216.3
79.8914	4211.87
80.3526	4207.41
80.8165	4202.93
81.2831	4198.41
81.7523	4193.87
82.2243	4189.3
82.699	4184.69
83.1764	4180.06
83.6566	4175.41
84.1395	4170.72
84.6253	4166.01
85.1138	4161.26
85.6052	4156.49
86.0994	4151.7
86.5964	4146.87
87.0964	4142.02
87.5992	4137.13
88.1049	4132.22
88.6135	4127.29
89.1251	4122.32
89.6396	4117.33
90.1571	4112.31
90.6776	4107.27
91.2011	4102.2
91.7276	4097.1
92.2571	4091.98
92.7897	4086.83
93.3254	4081.66
93.8642	4076.45
94.4061	4071.22
94.9511	4065.97
95.4993	4060.69
96.0506	4055.39
96.6051	4050.06
97.1628	4044.71
97.7237	4039.33
98.2879	4033.93
98.8553	4028.51
99.426	4023.06
100	4017.58
100.577	4012.09
101.158	4006.57
101.742	4001.03
102.329	3995.46
102.92	3989.87
103.514	3984.26
104.112	3978.63
104.713	3972.97
105.317	3967.3
105.925	3961.6
106.537	3955.88
107.152	3950.14
107.771	3944.37
108.393	3938.58
109.018	3932.78
109.648	3926.95
110.281	3921.1
110.917	3915.23
111.558	3909.33
112.202	3903.42
112.85	3897.49
113.501	3891.54
114.156	3885.57
114.815	3879.58
115.478	3873.57
116.145	3867.54
116.815	3861.49
117.49	3855.42
118.168	3849.33
118.85	3843.22
119.536	3837.1
120.226	3830.96
120.921	3824.8
121.619	3818.62
122.321	3812.42
123.027	3806.21
123.737	3799.98
124.451	3793.73
125.17	3787.47
125.893	3781.19
126.619	3774.89
127.35	3768.58
128.086	3762.25
128.825	3755.91
129.569	3749.55
130.317	3743.17
131.069	3736.78
131.826	3730.38
132.587	3723.96
133.352	3717.52
134.122	3711.07
134.896	3704.61
135.675	3698.13
136.458	3691.64
137.246	3685.13
138.038	3678.61
138.835	3672.07
139.637	3665.52
140.443	3658.96
141.254	3652.38
142.069	3645.79
142.889	3639.18
143.714	3632.57
144.544	3625.93
145.378	3619.29
146.218	3612.63
147.062	3605.96
147.911	3599.28
148.765	3592.59
149.624	3585.88
150.487	3579.16
151.356	3572.43
152.23	3565.69
153.109	3558.93
153.993	3552.17
154.882	3545.39
155.776	3538.6
156.675	3531.8
157.58	3524.99
158.489	3518.17
159.404	3511.33
160.325	3504.49
161.25	3497.64
162.181	3490.78
163.117	3483.91
164.059	3477.02
165.006	3470.13
165.959	3463.23
166.917	3456.31
167.88	3449.39
168.85	3442.46
169.824	3435.52
170.805	3428.57
171.791	3421.61
172.783	3414.64
173.78	3407.66
174.783	3400.68
175.792	3393.68
176.807	3386.67
177.828	3379.66
178.855	3372.64
179.887	3365.61
180.926	3358.58
181.97	3351.53
183.021	3344.48
184.077	3337.42
185.14	3330.35
186.209	3323.28
187.284	3316.2
188.365	3309.11
189.452	3302.01
190.546	3294.91
191.646	3287.8
192.752	3280.69
193.865	3273.57
194.984	3266.44
196.11	3259.31
197.242	3252.17
198.381	3245.02
199.526	3237.87
200.678	3230.71
201.837	3223.55
203.002	3216.38
204.174	3209.21
205.353	3202.03
206.538	3194.85
207.73	3187.66
208.93	3180.47
210.136	3173.28
211.349	3166.08
212.569	3158.88
213.796	3151.67
215.03	3144.46
216.272	3137.24
217.52	3130.02
218.776	3122.8
220.039	3115.57
221.309	3108.34
222.587	3101.11
223.872	3093.87
225.165	3086.63
226.464	3079.39
227.772	3072.14
229.087	3064.89
230.409	3057.64
231.739	3050.39
233.077	3043.13
234.423	3035.87
235.776	3028.61
237.137	3021.34
238.506	3014.08
239.883	3006.81
241.268	2999.54
242.661	2992.27
244.062	2984.99
245.471	2977.72
246.888	2970.44
248.313	2963.16
249.747	2955.88
251.189	2948.6
252.639	2941.32
254.097	2934.04
255.564	2926.76
257.04	2919.47
258.523	2912.19
260.016	2904.91
261.517	2897.62
263.027	2890.33
264.545	2883.04
266.073	2875.76
267.609	2868.47
269.153	2861.19
270.707	2853.9
272.27	2846.61
273.842	2839.33
275.423	2832.04
277.013	2824.76
278.612	2817.48
280.221	2810.19
281.838	2802.91
283.465	2795.63
285.102	2788.35
286.748	2781.07
288.403	2773.79
290.068	2766.51
291.743	2759.24
293.427	2751.96
295.121	2744.69
296.825	2737.42
298.538	2730.15
300.262	2722.89
301.995	2715.62
303.739	2708.36
305.492	2701.1
307.256	2693.84
309.03	2686.59
310.814	2679.34
312.608	2672.09
314.413	2664.84
316.228	2657.59
318.053	2650.35
319.89	2643.12
321.736	2635.88
323.594	2628.64
325.462	2621.42
327.341	2614.19
329.23	2606.97
331.131	2599.75
333.043	2592.53
334.965	2585.32
336.899	2578.12
338.844	2570.91
340.8	2563.72
342.768	2556.52
344.747	2549.33
346.737	2542.15
348.739	2534.97
350.752	2527.8
352.777	2520.62
354.813	2513.46
356.862	2506.3
358.922	2499.14
360.994	2491.99
363.078	2484.85
365.174	2477.71
367.282	2470.58
369.403	2463.45
371.535	2456.33
373.68	2449.21
375.837	2442.1
378.007	2435
380.189	2427.9
382.384	2420.81
384.592	2413.72
386.812	2406.65
389.045	2399.58
391.291	2392.51
393.55	2385.45
395.822	2378.39
398.107	2371.35
400.405	2364.31
402.717	2357.27
405.042	2350.25
407.38	2343.23
409.732	2336.21
412.098	2329.2
414.477	2322.2
416.869	2315.21
419.276	2308.23
421.697	2301.25
424.131	2294.29
426.58	2287.33
429.042	2280.38
431.519	2273.44
434.01	2266.51
436.516	2259.58
439.036	2252.66
441.57	2245.75
444.12	2238.85
446.684	2231.95
449.262	2225.07
451.856	2218.19
454.465	2211.31
457.088	2204.45
459.727	2197.6
462.381	2190.75
465.05	2183.91
467.735	2177.09
470.435	2170.27
473.151	2163.46
475.883	2156.66
478.63	2149.87
481.393	2143.09
484.172	2136.33
486.968	2129.57
489.779	2122.82
492.606	2116.08
495.45	2109.35
498.31	2102.63
501.187	2095.92
504.081	2089.21
506.991	2082.52
509.918	2075.83
512.861	2069.15
515.822	2062.48
518.8	2055.82
521.795	2049.17
524.807	2042.53
527.837	2035.91
530.884	2029.29
533.949	2022.69
537.032	2016.1
540.132	2009.51
543.25	2002.94
546.387	1996.38
549.541	1989.82
552.713	1983.28
555.904	1976.75
559.114	1970.22
562.341	1963.71
565.588	1957.2
568.853	1950.71
572.137	1944.23
575.44	1937.76
578.762	1931.29
582.103	1924.84
585.464	1918.4
588.844	1911.98
592.243	1905.57
595.662	1899.16
599.101	1892.77
602.56	1886.4
606.038	1880.05
609.537	1873.71
613.056	1867.38
616.595	1861.06
620.155	1854.76
623.735	1848.46
627.336	1842.17
630.957	1835.89
634.6	1829.63
638.263	1823.38
641.948	1817.14
645.654	1810.9
649.382	1804.68
653.131	1798.48
656.901	1792.28
660.693	1786.1
664.508	1779.93
668.344	1773.77
672.202	1767.62
676.083	1761.48
679.986	1755.37
683.912	1749.26
687.86	1743.17
691.831	1737.09
695.825	1731.02
699.842	1724.97
703.882	1718.92
707.946	1712.89
712.033	1706.86
716.143	1700.85
720.278	1694.86
724.436	1688.88
728.618	1682.91
732.825	1676.96
737.055	1671.02
741.31	1665.09
745.59	1659.17
749.894	1653.27
754.223	1647.38
758.578	1641.5
762.957	1635.63
767.361	1629.78
771.792	1623.94
776.247	1618.12
780.728	1612.31
785.236	1606.53
789.769	1600.75
794.328	1594.99
798.914	1589.23
803.526	1583.49
808.165	1577.76
812.831	1572.04
817.523	1566.34
822.243	1560.64
826.99	1554.97
831.764	1549.3
836.566	1543.65
841.395	1538.01
846.253	1532.38
851.138	1526.77
856.052	1521.17
860.994	1515.58
865.964	1510.01
870.964	1504.45
875.992	1498.91
881.049	1493.38
886.135	1487.86
891.251	1482.36
896.396	1476.87
901.571	1471.4
906.776	1465.94
912.011	1460.49
917.276	1455.06
922.571	1449.64
927.897	1444.24
933.254	1438.85
938.642	1433.48
944.061	1428.12
949.511	1422.77
954.993	1417.44
960.506	1412.13
966.051	1406.82
971.628	1401.53
977.237	1396.26
982.879	1391
988.553	1385.76
994.26	1380.53
1000	1375.31
1005.77	1370.11
1011.58	1364.92
1017.42	1359.75
1023.29	1354.6
1029.2	1349.46
1035.14	1344.33
1041.12	1339.21
1047.13	1334.11
1053.17	1329.03
1059.25	1323.96
1065.37	1318.9
1071.52	1313.86
1077.71	1308.84
1083.93	1303.83
1090.18	1298.83
1096.48	1293.85
1102.81	1288.89
1109.17	1283.94
1115.58	1279.01
1122.02	1274.09
1128.5	1269.19
1135.01	1264.3
1141.56	1259.43
1148.15	1254.57
1154.78	1249.73
1161.45	1244.9
1168.15	1240.09
1174.9	1235.29
1181.68	1230.51
1188.5	1225.74
1195.36	1220.99
1202.26	1216.25
1209.21	1211.52
1216.19	1206.81
1223.21	1202.11
1230.27	1197.43
1237.37	1192.76
1244.51	1188.11
1251.7	1183.47
1258.93	1178.85
1266.19	1174.24
1273.5	1169.64
1280.86	1165.06
1288.25	1160.5
1295.69	1155.94
1303.17	1151.41
1310.69	1146.88
1318.26	1142.37
1325.87	1137.88
1333.52	1133.4
1341.22	1128.93
1348.96	1124.48
1356.75	1120.04
1364.58	1115.62
1372.46	1111.21
1380.38	1106.81
1388.35	1102.43
1396.37	1098.06
1404.43	1093.71
1412.54	1089.38
1420.69	1085.06
1428.89	1080.75
1437.14	1076.46
1445.44	1072.18
1453.78	1067.91
1462.18	1063.66
1470.62	1059.42
1479.11	1055.2
1487.65	1051
1496.24	1046.8
1504.87	1042.63
1513.56	1038.46
1522.3	1034.31
1531.09	1030.17
1539.93	1026.05
1548.82	1021.94
1557.76	1017.85
1566.75	1013.77
1575.8	1009.7
1584.89	1005.65
1594.04	1001.61
1603.25	997.587
1612.5	993.579
1621.81	989.588
1631.17	985.609
1640.59	981.643
1650.06	977.692
1659.59	973.755
1669.17	969.833
1678.8	965.923
1688.5	962.027
1698.24	958.145
1708.05	954.278
1717.91	950.427
1727.83	946.587
1737.8	942.763
1747.83	938.953
1757.92	935.154
1768.07	931.372
1778.28	927.602
1788.55	923.847
1798.87	920.106
1809.26	916.38
1819.7	912.67
1830.21	908.972
1840.77	905.289
1851.4	901.619
1862.09	897.962
1872.84	894.319
1883.65	890.689
1894.52	887.073
1905.46	883.471
1916.46	879.882
1927.52	876.306
1938.65	872.747
1949.84	869.2
1961.1	865.665
1972.42	862.143
1983.81	858.635
1995.26	855.139
2006.78	851.655
2018.37	848.182
2030.02	844.724
2041.74	841.278
2053.53	837.847
2065.38	834.43
2077.3	831.024
2089.3	827.634
2101.36	824.257
2113.49	820.893
2125.69	817.542
2137.96	814.201
2150.3	810.875
2162.72	807.561
2175.2	804.26
2187.76	800.972
2200.39	797.697
2213.09	794.434
2225.87	791.184
2238.72	787.947
2251.65	784.723
2264.64	781.509
2277.72	778.309
2290.87	775.122
2304.09	771.948
2317.39	768.787
2330.77	765.637
2344.23	762.5
2357.76	759.376
2371.37	756.264
2385.06	753.166
2398.83	750.079
2412.68	747.004
2426.61	743.941
2440.62	740.891
2454.71	737.853
2468.88	734.828
2483.13	731.814
2497.47	728.814
2511.89	725.825
2526.39	722.85
2540.97	719.886
2555.64	716.935
2570.4	713.995
2585.23	711.068
2600.16	708.153
2615.17	705.248
2630.27	702.357
2645.45	699.477
2660.73	696.61
2676.09	693.755
2691.53	690.911
2707.07	688.08
2722.7	685.26
2738.42	682.453
2754.23	679.657
2770.13	676.874
2786.12	674.102
2802.21	671.341
2818.38	668.593
2834.65	665.855
2851.02	663.129
2867.48	660.415
2884.03	657.713
2900.68	655.021
2917.43	652.341
2934.27	649.673
2951.21	647.016
2968.25	644.37
2985.38	641.735
3002.62	639.113
3019.95	636.5
3037.39	633.9
3054.92	631.31
3072.56	628.731
3090.3	626.163
3108.14	623.605
3126.08	621.057
3144.13	618.522
3162.28	615.995
3180.53	613.48
3198.9	610.975
3217.36	608.481
3235.94	605.997
3254.62	603.524
3273.41	601.061
3292.3	598.609
3311.31	596.168
3330.43	593.737
3349.65	591.317
3368.99	588.908
3388.44	586.508
3408	584.12
3427.68	581.742
3447.47	579.374
3467.37	577.018
3487.39	574.672
3507.52	572.337
3527.77	570.011
3548.13	567.695
3568.62	565.39
3589.22	563.096
3609.94	560.811
3630.78	558.537
3651.74	556.273
3672.82	554.019
3694.03	551.776
3715.35	549.542
3736.8	547.319
3758.37	545.106
3780.07	542.903
3801.89	540.709
3823.84	538.526
3845.92	536.353
3868.12	534.189
3890.45	532.036
3912.91	529.891
3935.5	527.757
3958.22	525.632
3981.07	523.516
4004.05	521.409
4027.17	519.306
4050.42	517.212
4073.8	515.127
4097.32	513.052
4120.98	510.986
4144.77	508.929
4168.69	506.882
4192.76	504.844
4216.97	502.817
4241.31	500.799
4265.8	498.791
4290.42	496.793
4315.19	494.803
4340.1	492.822
4365.16	490.851
4390.36	488.889
4415.7	486.936
4441.2	484.989
4466.84	483.047
4492.62	481.114
4518.56	479.19
4544.65	477.275
4570.88	475.369
4597.27	473.464
4623.81	471.567
4650.5	469.68
4677.35	467.803
4704.35	465.936
4731.51	464.076
4758.83	462.226
4786.3	460.384
4813.93	458.551
4841.72	456.729
4869.68	454.914
4897.79	453.108
4926.06	451.31
4954.5	449.521
4983.1	447.74
5011.87	445.964
5040.81	444.19
5069.91	442.425
5099.18	440.668
5128.61	438.919
5158.22	437.178
5188	435.444
5217.95	433.719
5248.07	432.001
5278.37	430.293
5308.84	428.595
5339.49	426.904
5370.32	425.221
5401.32	423.546
5432.5	421.879
5463.87	420.22
5495.41	418.569
5527.13	416.925
5559.04	415.29
5591.14	413.656
5623.41	412.026
5655.88	410.403
5688.53	408.788
5721.37	407.177
5754.4	405.556
5787.62	403.943
5821.03	402.338
5854.64	400.741
5888.44	399.156
5922.43	397.577
5956.62	396.007
5991.01	394.444
6025.6	392.895
6060.38	391.355
6095.37	389.822
6130.56	388.297
6165.95	386.78
6201.55	385.27
6237.35	383.767
6273.36	382.272
6309.57	380.785
6346	379.304
6382.63	377.832
6419.48	376.366
6456.54	374.898
6493.82	373.434
6531.31	371.977
6569.01	370.528
6606.93	369.086
6645.08	367.651
6683.44	366.223
6722.02	364.802
6760.83	363.39
6799.86	361.989
6839.12	360.594
6878.6	359.198
6918.31	357.802
6958.25	356.413
6998.42	355.032
7038.82	353.656
7079.46	352.287
7120.33	350.925
7161.43	349.569
7202.78	348.22
7244.36	346.882
7286.18	345.55
7328.25	344.209
7370.55	342.875
7413.1	341.546
7455.9	340.213
7498.94	338.88
7542.23	337.553
7585.78	336.233
7629.57	334.919
7673.61	333.613
7717.92	332.317
7762.47	331.026
7807.28	329.742
7852.36	328.469
7897.69	327.201
7943.28	325.939
7989.14	324.684
8035.26	323.433
8081.65	322.188
8128.31	320.949
8175.23	319.716
8222.43	318.489
8269.9	317.269
8317.64	316.054
8365.66	314.846
8413.95	313.643
8462.53	312.447
8511.38	311.257
8560.52	310.073
8609.94	308.895
8659.64	307.723
8709.64	306.558
8759.92	305.399
8810.49	304.246
8861.35	303.099
8912.51	301.958
8963.96	300.824
9015.71	299.695
9067.76	298.572
9120.11	297.456
9172.76	296.345
9225.71	295.241
9278.97	294.143
9332.54	293.05
9386.42	291.965
9440.61	290.885
9495.11	289.811
9549.93	288.743
9605.06	287.682
9660.51	286.625
9716.28	285.574
9772.37	284.53
9828.79	283.491
9885.53	282.458
9942.6	281.431
10000	280.409
10057.7	279.394
10115.8	278.384
10174.2	277.38
10232.9	276.381
10292	275.388
10351.4	274.4
10411.2	273.418
10471.3	272.441
10531.7	271.47
10592.5	270.504
10653.7	269.544
10715.2	268.59
10777.1	267.641
10839.3	266.698
10901.8	265.76
10964.8	264.828
11028.1	263.902
11091.7	262.98
11155.8	262.065
11220.2	261.155
11285	260.25
11350.1	259.351
11415.6	258.457
11481.5	257.568
11547.8	256.684
11614.5	255.806
11681.5	254.932
11749	254.064
11816.8	253.2
11885	252.342
11953.6	251.488
12022.6	250.639
12092.1	249.795
12161.9	248.955
12232.1	248.12
12302.7	247.29
12373.7	246.465
12445.1	245.644
12517	244.828
12589.3	244.016
12661.9	243.209
12735	242.407
12808.6	241.609
12882.5	240.815
12956.9	240.026
13031.7	239.241
13106.9	238.46
13182.6	237.684
13258.7	236.912
13335.2	236.144
13412.2	235.38
13489.6	234.621
13567.5	233.866
13645.8	233.115
13724.6	232.368
13803.8	231.626
13883.5	230.888
13963.7	230.154
14044.3	229.424
14125.4	228.699
14206.9	227.978
14288.9	227.261
14371.4	226.548
14454.4	225.839
14537.8	225.134
14621.8	224.434
14706.2	223.737
14791.1	223.045
14876.5	222.356
14962.4	221.672
15048.7	220.991
15135.6	220.315
15223	219.643
15310.9	218.974
15399.3	218.309
15488.2	217.648
15577.6	216.991
15667.5	216.337
15758	215.688
15848.9	215.042
15940.4	214.4
16032.5	213.762
16125	213.128
16218.1	212.498
16311.7	211.871
16405.9	211.249
16500.6	210.63
16595.9	210.014
16691.7	209.403
16788	208.795
16885	208.191
16982.4	207.59
17080.5	206.993
17179.1	206.4
17278.3	205.81
17378	205.224
17478.3	204.642
17579.2	204.063
17680.7	203.488
17782.8	202.916
17885.5	202.347
17988.7	201.783
18092.6	201.222
18197	200.665
18302.1	200.111
18407.7	199.56
18514	199.013
18620.9	198.469
18728.4	197.929
18836.5	197.392
18945.2	196.858
19054.6	196.327
19164.6	195.8
19275.2	195.276
19386.5	194.755
19498.4	194.238
19611	193.724
19724.2	193.212
19838.1	192.704
19952.6	192.198
20067.8	191.696
20183.7	191.196
20300.2	190.7
20417.4	190.206
20535.3	189.716
20653.8	189.229
20773	188.744
20893	188.263
21013.6	187.785
21134.9	187.31
21256.9	186.838
21379.6	186.368
21503	185.901
21627.2	185.438
21752	184.977
21877.6	184.519
22003.9	184.063
22130.9	183.611
22258.7	183.161
22387.2	182.714
22516.5	182.27
22646.4	181.828
22777.2	181.39
22908.7	180.954
23040.9	180.521
23173.9	180.09
23307.7	179.663
23442.3	179.238
23577.6	178.816
23713.7	178.396
23850.6	177.98
23988.3	177.566
24126.8	177.154
24266.1	176.745
24406.2	176.339
24547.1	175.935
24688.8	175.534
24831.3	175.136
24974.7	174.741
25118.9	174.347
25263.9	173.957
25409.7	173.569
25556.4	173.184
25704	172.801
25852.3	172.421
26001.6	172.043
26151.7	171.668
26302.7	171.295
26454.5	170.924
26607.3	170.557
26760.9	170.191
26915.3	169.829
27070.7	169.468
27227	169.11
27384.2	168.755
27542.3	168.401
27701.3	168.05
27861.2	167.702
28022.1	167.356
28183.8	167.012
28346.5	166.67
28510.2	166.331
28674.8	165.993
28840.3	165.659
29006.8	165.326
29174.3	164.996
29342.7	164.668
29512.1	164.342
29682.5	164.018
29853.8	163.697
30026.2	163.378
30199.5	163.061
30373.9	162.746
30549.2	162.433
30725.6	162.123
30903	161.814
31081.4	161.507
31260.8	161.202
31441.3	160.899
31622.8	160.598
31805.3	160.299
31989	160.002
32173.6	159.707
32359.4	159.414
32546.2	159.122
32734.1	158.833
32923	158.546
33113.1	158.26
33304.3	157.977
33496.5	157.696
33689.9	157.417
33884.4	157.139
34080	156.864
34276.8	156.59
34474.7	156.319
34673.7	156.049
34873.9	155.781
35075.2	155.515
35277.7	155.251
35481.3	154.988
35686.2	154.727
35892.2	154.468
36099.4	154.211
36307.8	153.956
36517.4	153.703
36728.2	153.451
36940.3	153.202
37153.5	152.954
37368	152.707
37583.7	152.463
37800.7	152.22
38018.9	151.979
38238.4	151.74
38459.2	151.502
38681.2	151.266
38904.5	151.032
39129.1	150.798
39355	150.565
39582.2	150.334
39810.7	150.105
40040.5	149.877
40271.7	149.648
40504.2	149.421
40738	149.196
40973.2	148.972
41209.8	148.751
41447.7	148.531
41686.9	148.312
41927.6	148.096
42169.7	147.88
42413.1	147.667
42658	147.455
42904.2	147.245
43151.9	147.036
43401	146.829
43651.6	146.623
43903.6	146.419
44157	146.216
44412	146.015
44668.4	145.816
44926.2	145.618
45185.6	145.42
45446.5	145.223
45708.8	145.027
45972.7	144.833
46238.1	144.641
46505	144.45
46773.5	144.261
47043.5	144.072
47315.1	143.886
47588.3	143.7
47863	143.516
48139.3	143.333
48417.2	143.15
48696.8	142.968
48977.9	142.787
49260.6	142.609
49545	142.431
49831	142.255
50118.7	142.08
50408.1	141.906
50699.1	141.734
50991.8	141.562
51286.1	141.391
51582.2	141.22
51880	141.051
52179.5	140.882
52480.7	140.714
52783.7	140.546
53088.4	140.381
53394.9	140.217
53703.2	140.054
54013.2	139.892
54325	139.732
54638.7	139.573
54954.1	139.416
55271.3	139.26
55590.4	139.105
55911.4	138.951
56234.1	138.799
56558.8	138.648
56885.3	138.498
57213.7	138.35
57544	138.203
57876.2	138.057
58210.3	137.912
58546.4	137.769
58884.4	137.627
59224.3	137.486
59566.2	137.347
59910.1	137.208
60256	137.071
60603.8	136.935
60953.7	136.8
61305.6	136.667
61659.5	136.535
62015.5	136.404
62373.5	136.273
62733.6	136.145
63095.7	136.017
63460	135.89
63826.3	135.765
64194.8	135.641
64565.4	135.518
64938.2	135.395
65313.1	135.275
65690.1	135.155
66069.3	135.036
66450.8	134.919
66834.4	134.802
67220.2	134.687
67608.3	134.573
67998.6	134.459
68391.2	134.347
68786	134.236
69183.1	134.126
69582.5	134.017
69984.2	133.909
70388.2	133.802
70794.6	133.696
71203.3	133.591
71614.3	133.487
72027.8	133.384
72443.6	133.282
72861.8	133.182
73282.5	133.082
73705.5	132.983
74131	132.885
74559	132.788
74989.4	132.692
75422.3	132.597
75857.8	132.503
76295.7	132.409
76736.1	132.317
77179.2	132.226
77624.7	132.136
78072.8	132.046
78523.6	131.958
78976.9	131.87
79432.8	131.783
79891.4	131.698
80352.6	131.612
80816.5	131.529
81283.1	131.445
81752.3	131.363
82224.3	131.282
82699	131.201
83176.4	131.122
83656.6	131.043
84139.5	130.965
84625.3	130.888
85113.8	130.812
85605.2	130.736
86099.4	130.661
86596.4	130.588
87096.4	130.515
87599.2	130.442
88104.9	130.371
88613.5	130.3
89125.1	130.231
89639.6	130.162
90157.1	130.093
90677.6	130.026
91201.1	129.959
91727.6	129.894
92257.1	129.828
92789.7	129.764
93325.4	129.7
93864.2	129.638
94406.1	129.575
94951.1	129.514
95499.3	129.453
96050.6	129.393
96605.1	129.334
97162.8	129.276
97723.7	129.218
98287.9	129.161
98855.3	129.104
99426	129.049
100000	128.994
100577	128.939
101158	128.886
101742	128.833
102329	128.781
102920	128.729
103514	128.678
104112	128.628
104713	128.578
105317	128.529
105925	128.481
106537	128.433
107152	128.386
107771	128.34
108393	128.294
109018	128.249
109648	128.204
110281	128.16
110917	128.117
111558	128.075
112202	128.032
112850	127.991
113501	127.95
114156	127.91
114815	127.87
115478	127.831
116145	127.792
116815	127.754
117490	127.717
118168	127.68
118850	127.644
119536	127.608
120226	127.572
120921	127.538
121619	127.504
122321	127.47
123027	127.437
123737	127.404
124451	127.372
125170	127.341
125893	127.31
126619	127.28
127350	127.25
128086	127.22
128825	127.191
129569	127.163
130317	127.135
131069	127.107
131826	127.08
132587	127.054
133352	127.028
134122	127.002
134896	126.977
135675	126.953
136458	126.929
137246	126.905
138038	126.882
138835	126.859
139637	126.837
140443	126.815
141254	126.793
142069	126.772
142889	126.752
143714	126.732
144544	126.712
145378	126.693
146218	126.674
147062	126.655
147911	126.637
148765	126.62
149624	126.603
150487	126.586
151356	126.569
152230	126.553
153109	126.538
153993	126.522
154882	126.508
155776	126.493
156675	126.479
157580	126.465
158489	126.452
159404	126.439
160325	126.427
161250	126.414
162181	126.403
163117	126.391
164059	126.38
165006	126.369
165959	126.359
166917	126.349
167880	126.339
168850	126.33
169824	126.32
170805	126.312
171791	126.303
172783	126.295
173780	126.288
174783	126.28
175792	126.273
176807	126.266
177828	126.26
178855	126.254
179887	126.248
180926	126.242
181970	126.237
183021	126.232
184077	126.227
185140	126.223
186209	126.219
187284	126.215
188365	126.212
189452	126.208
190546	126.205
191646	126.203
192752	126.2
193865	126.198
194984	126.196
196110	126.195
197242	126.194
198381	126.192
199526	126.192
200678	126.191
201837	126.191
203002	126.191
204174	126.191
205353	126.192
206538	126.192
207730	126.193
208930	126.194
210136	126.196
211349	126.198
212569	126.2
213796	126.202
215030	126.204
216272	126.206
217520	126.209
218776	126.212
220039	126.216
221309	126.219
222587	126.223
223872	126.227
225165	126.231
226464	126.235
227772	126.239
229087	126.244
230409	126.249
231739	126.254
233077	126.259
234423	126.265
235776	126.271
237137	126.276
238506	126.282
239883	126.289
241268	126.295
242661	126.302
244062	126.309
245471	126.316
246888	126.323
248313	126.33
249747	126.337
251189	126.345
252639	126.353
254097	126.361
255564	126.369
257040	126.377
258523	126.386
260016	126.395
261517	126.403
263027	126.412
264545	126.421
266073	126.431
267609	126.44
269153	126.45
270707	126.459
272270	126.469
273842	126.479
275423	126.489
277013	126.499
278612	126.51
280221	126.52
281838	126.531
283465	126.542
285102	126.553
286748	126.564
288403	126.575
290068	126.586
291743	126.597
293427	126.609
295121	126.621
296825	126.632
298538	126.644
300262	126.656
301995	126.669
303739	126.681
305492	126.693
307256	126.706
309030	126.718
310814	126.731
312608	126.743
314413	126.756
316228	126.769
318053	126.782
319890	126.795
321736	126.809
323594	126.822
325462	126.835
327341	126.849
329230	126.863
331131	126.876
333043	126.89
334965	126.904
336899	126.918
338844	126.932
340800	126.946
342768	126.96
344747	126.975
346737	126.989
348739	127.003
350752	127.018
352777	127.033
354813	127.047
356862	127.062
358922	127.077
360994	127.092
363078	127.107
365174	127.122
367282	127.137
369403	127.152
371535	127.167
373680	127.183
375837	127.198
378007	127.213
380189	127.229
382384	127.244
384592	127.26
386812	127.276
389045	127.291
391291	127.307
393550	127.323
395822	127.338
398107	127.354
400405	127.37
402717	127.386
405042	127.402
407380	127.418
409732	127.435
412098	127.451
414477	127.467
416869	127.483
419276	127.5
421697	127.516
424131	127.532
426580	127.549
429042	127.565
431519	127.582
434010	127.598
436516	127.615
439036	127.631
441570	127.648
444120	127.665
446684	127.681
449262	127.698
451856	127.715
454465	127.731
457088	127.748
459727	127.765
462381	127.782
465050	127.799
467735	127.816
470435	127.833
473151	127.85
475883	127.867
478630	127.884
481393	127.9
484172	127.917
486968	127.935
489779	127.952
492606	127.969
495450	127.986
498310	128.003
501187	128.02
504081	128.037
506991	128.054
509918	128.071
512861	128.089
515822	128.106
518800	128.123
521795	128.14
524807	128.158
527837	128.175
530884	128.192
533949	128.209
537032	128.226
540132	128.244
543250	128.261
546387	128.278
549541	128.295
552713	128.312
555904	128.33
559114	128.347
562341	128.364
565588	128.382
568853	128.399
572137	128.416
575440	128.433
578762	128.45
582103	128.468
585464	128.485
588844	128.502
592243	128.519
595662	128.537
599101	128.554
602560	128.571
606038	128.588
609537	128.605
613056	128.623
616595	128.64
620155	128.657
623735	128.674
627336	128.691
630957	128.709
634600	128.726
638263	128.743
641948	128.76
645654	128.777
649382	128.794
653131	128.811
656901	128.828
660693	128.845
664508	128.862
668344	128.879
672202	128.896
676083	128.913
679986	128.93
683912	128.947
687860	128.964
691831	128.981
695825	128.998
699842	129.015
703882	129.032
707946	129.048
712033	129.065
716143	129.082
720278	129.099
724436	129.116
728618	129.132
732825	129.149
737055	129.166
741310	129.182
745590	129.199
749894	129.215
754223	129.232
758578	129.249
762957	129.265
767361	129.282
771792	129.298
776247	129.315
780728	129.331
785236	129.348
789769	129.364
794328	129.38
798914	129.397
803526	129.413
808165	129.429
812831	129.445
817523	129.462
822243	129.478
826990	129.494
831764	129.51
836566	129.526
841395	129.542
846253	129.559
851138	129.575
856052	129.59
860994	129.606
865964	129.622
870964	129.638
875992	129.654
881049	129.67
886135	129.686
891251	129.701
896396	129.717
901571	129.733
906776	129.749
912011	129.764
917276	129.78
922571	129.795
927897	129.811
933254	129.826
938642	129.842
944061	129.857
949511	129.873
954993	129.888
960506	129.903
966051	129.919
971628	129.934
977237	129.949
982879	129.964
988553	129.979
994260	129.995
1e+06	130.01
1.00577e+06	130.025
1.01158e+06	130.04
1.01742e+06	130.055
1.02329e+06	130.07
1.0292e+06	130.084
1.03514e+06	130.099
1.04112e+06	130.114
1.04713e+06	130.129
1.05317e+06	130.144
1.05925e+06	130.158
1.06537e+06	130.173
1.07152e+06	130.187
1.07771e+06	130.202
1.08393e+06	130.217
1.09018e+06	130.231
1.09648e+06	130.246
1.10281e+06	130.26
1.10917e+06	130.274
1.11558e+06	130.289
1.12202e+06	130.303
1.1285e+06	130.318
1.13501e+06	130.332
1.14156e+06	130.346
1.14815e+06	130.36
1.15478e+06	130.374
1.16145e+06	130.388
1.16815e+06	130.402
1.1749e+06	130.416
1.18168e+06	130.43
1.1885e+06	130.444
1.19536e+06	130.458
1.20226e+06	130.472
1.20921e+06	130.486
1.21619e+06	130.499
1.22321e+06	130.513
1.23027e+06	130.527
1.23737e+06	130.54
1.24451e+06	130.554
1.2517e+06	130.567
1.25893e+06	130.581
1.26619e+06	130.594
1.2735e+06	130.608
1.28086e+06	130.621
1.28825e+06	130.635
1.29569e+06	130.648
1.30317e+06	130.661
1.31069e+06	130.674
1.31826e+06	130.687
1.32587e+06	130.701
1.33352e+06	130.714
1.34122e+06	130.727
1.34896e+06	130.74
1.35675e+06	130.753
1.36458e+06	130.766
1.37246e+06	130.778
1.38038e+06	130.791
1.38835e+06	130.804
1.39637e+06	130.817
1.40443e+06	130.829
1.41254e+06	130.842
1.42069e+06	130.855
1.42889e+06	130.867
1.43714e+06	130.88
1.44544e+06	130.892
1.45378e+06	130.905
1.46218e+06	130.917
1.47062e+06	130.93
1.47911e+06	130.942
1.48765e+06	130.954
1.49624e+06	130.966
1.50487e+06	130.979
1.51356e+06	130.991
1.5223e+06	131.003
1.53109e+06	131.015
1.53993e+06	131.027
1.54882e+06	131.039
1.55776e+06	131.051
1.56675e+06	131.063
1.5758e+06	131.074
1.58489e+06	131.086
1.59404e+06	131.098
1.60325e+06	131.11
1.6125e+06	131.121
1.62181e+06	131.133
1.63117e+06	131.145
1.64059e+06	131.156
1.65006e+06	131.168
1.65959e+06	131.179
1.66917e+06	131.19
1.6788e+06	131.202
1.6885e+06	131.213
1.69824e+06	131.224
1.70805e+06	131.236
1.71791e+06	131.247
1.72783e+06	131.258
1.7378e+06	131.269
1.74783e+06	131.28
1.75792e+06	131.291
1.76807e+06	131.302
1.77828e+06	131.313
1.78855e+06	131.324
1.79887e+06	131.335
1.80926e+06	131.346
1.8197e+06	131.356
1.83021e+06	131.367
1.84077e+06	131.378
1.8514e+06	131.388
1.86209e+06	131.399
1.87284e+06	131.409
1.88365e+06	131.42
1.89452e+06	131.43
1.90546e+06	131.441
1.91646e+06	131.451
1.92752e+06	131.462
1.93865e+06	131.472
1.94984e+06	131.482
1.9611e+06	131.492
1.97242e+06	131.502
1.98381e+06	131.512
1.99526e+06	131.523
2.00678e+06	131.533
2.01837e+06	131.543
2.03002e+06	131.552
2.04174e+06	131.562
2.05353e+06	131.572
2.06538e+06	131.582
2.0773e+06	131.592
2.0893e+06	131.602
2.10136e+06	131.611
2.11349e+06	131.621
2.12569e+06	131.631
2.13796e+06	131.64
2.1503e+06	131.65
2.16272e+06	131.659
2.1752e+06	131.669
2.18776e+06	131.678
2.20039e+06	131.687
2.21309e+06	131.697
2.22587e+06	131.706
2.23872e+06	131.715
2.25165e+06	131.724
2.26464e+06	131.733
2.27772e+06	131.742
2.29087e+06	131.751
2.30409e+06	131.761
2.31739e+06	131.77
2.33077e+06	131.779
2.34423e+06	131.787
2.35776e+06	131.796
2.37137e+06	131.805
2.38506e+06	131.814
2.39883e+06	131.823
2.41268e+06	131.831
2.42661e+06	131.84
2.44062e+06	131.848
2.45471e+06	131.857
2.46888e+06	131.866
2.48313e+06	131.874
2.49747e+06	131.882
2.51189e+06	131.891
2.52639e+06	131.899
2.54097e+06	131.908
2.55564e+06	131.916
2.5704e+06	131.924
2.58523e+06	131.932
2.60016e+06	131.94
2.61517e+06	131.949
2.63027e+06	131.956
2.64545e+06	131.965
2.66073e+06	131.973
2.67609e+06	131.98
2.69153e+06	131.988
2.70707e+06	131.997
2.7227e+06	132.004
2.73842e+06	132.012
2.75423e+06	132.02
2.77013e+06	132.027
2.78612e+06	132.035
2.80221e+06	132.043
2.81838e+06	132.05
2.83465e+06	132.058
2.85102e+06	132.065
2.86748e+06	132.073
2.88403e+06	132.08
2.90068e+06	132.088
2.91743e+06	132.095
2.93427e+06	132.102
2.95121e+06	132.11
2.96825e+06	132.117
2.98538e+06	132.124
3.00262e+06	132.131
3.01995e+06	132.138
3.03739e+06	132.145
3.05492e+06	132.153
3.07256e+06	132.16
3.0903e+06	132.167
3.10814e+06	132.174
3.12608e+06	132.18
3.14413e+06	132.187
3.16228e+06	132.194
3.18053e+06	132.201
3.1989e+06	132.208
3.21736e+06	132.214
3.23594e+06	132.221
3.25462e+06	132.228
3.27341e+06	132.234
3.2923e+06	132.241
3.31131e+06	132.247
3.33043e+06	132.254
3.34965e+06	132.26
3.36899e+06	132.267
3.38844e+06	132.273
3.408e+06	132.28
3.42768e+06	132.286
3.44747e+06	132.292
3.46737e+06	132.299
3.48739e+06	132.305
3.50752e+06	132.311
3.52777e+06	132.317
3.54813e+06	132.323
3.56862e+06	132.329
3.58922e+06	132.335
3.60994e+06	132.341
3.63078e+06	132.347
3.65174e+06	132.353
3.67282e+06	132.359
3.69403e+06	132.365
3.71535e+06	132.371
3.7368e+06	132.376
3.75837e+06	132.382
3.78007e+06	132.388
3.80189e+06	132.393
3.82384e+06	132.399
3.84592e+06	132.405
3.86812e+06	132.41
3.89045e+06	132.416
3.91291e+06	132.421
3.9355e+06	132.427
3.95822e+06	132.432
3.98107e+06	132.438
4.00405e+06	132.443
4.02717e+06	132.448
4.05042e+06	132.454
4.0738e+06	132.459
4.09732e+06	132.464
4.12098e+06	132.469
4.14477e+06	132.474
4.16869e+06	132.48
4.19276e+06	132.485
4.21697e+06	132.49
4.24131e+06	132.495
4.2658e+06	132.5
4.29042e+06	132.505
4.31519e+06	132.51
4.3401e+06	132.515
4.36516e+06	132.52
4.39036e+06	132.524
4.4157e+06	132.529
4.4412e+06	132.534
4.46684e+06	132.539
4.49262e+06	132.543
4.51856e+06	132.548
4.54465e+06	132.553
4.57088e+06	132.557
4.59727e+06	132.562
4.62381e+06	132.566
4.6505e+06	132.571
4.67735e+06	132.576
4.70435e+06	132.58
4.73151e+06	132.584
4.75883e+06	132.589
4.7863e+06	132.593
4.81393e+06	132.598
4.84172e+06	132.602
4.86968e+06	132.606
4.89779e+06	132.61
4.92606e+06	132.615
4.9545e+06	132.619
4.9831e+06	132.623
5.01187e+06	132.627
5.04081e+06	132.631
5.06991e+06	132.635
5.09918e+06	132.639
5.12861e+06	132.643
5.15822e+06	132.647
5.188e+06	132.651
5.21795e+06	132.655
5.24807e+06	132.659
5.27837e+06	132.663
5.30884e+06	132.667
5.33949e+06	132.671
5.37032e+06	132.674
5.40132e+06	132.678
5.4325e+06	132.682
5.46387e+06	132.686
5.49541e+06	132.689
5.52713e+06	132.693
5.55904e+06	132.697
5.59114e+06	132.7
5.62341e+06	132.704
5.65588e+06	132.707
5.68853e+06	132.711
5.72137e+06	132.714
5.7544e+06	132.718
5.78762e+06	132.721
5.82103e+06	132.724
5.85464e+06	132.728
5.88844e+06	132.731
5.92243e+06	132.735
5.95662e+06	132.738
5.99101e+06	132.741
6.0256e+06	132.744
6.06038e+06	132.748
6.09537e+06	132.751
6.13056e+06	132.754
6.16595e+06	132.757
6.20155e+06	132.76
6.23735e+06	132.764
6.27336e+06	132.766
6.30957e+06	132.769
6.346e+06	132.772
6.38263e+06	132.775
6.41948e+06	132.778
6.45654e+06	132.781
6.49382e+06	132.784
6.53131e+06	132.787
6.56901e+06	132.79
6.60693e+06	132.793
6.64508e+06	132.796
6.68344e+06	132.799
6.72202e+06	132.801
6.76083e+06	132.804
6.79986e+06	132.807
6.83912e+06	132.809
6.8786e+06	132.812
6.91831e+06	132.815
6.95825e+06	132.817
6.99842e+06	132.82
7.03882e+06	132.823
7.07946e+06	132.825
7.12033e+06	132.828
7.16143e+06	132.83
7.20278e+06	132.833
7.24436e+06	132.835
7.28618e+06	132.837
7.32825e+06	132.84
7.37055e+06	132.842
7.4131e+06	132.845
7.4559e+06	132.847
7.49894e+06	132.849
7.54223e+06	132.852
7.58578e+06	132.854
7.62957e+06	132.856
7.67361e+06	132.859
7.71792e+06	132.861
7.76247e+06	132.863
7.80728e+06	132.865
7.85236e+06	132.867
7.89769e+06	132.869
7.94328e+06	132.872
7.98914e+06	132.874
8.03526e+06	132.876
8.08165e+06	132.878
8.12831e+06	132.88
8.17523e+06	132.882
8.22243e+06	132.884
8.2699e+06	132.886
8.31764e+06	132.888
8.36566e+06	132.889
8.41395e+06	132.892
8.46253e+06	132.893
8.51138e+06	132.895
8.56052e+06	132.897
8.60994e+06	132.899
8.65964e+06	132.901
8.70964e+06	132.903
8.75992e+06	132.904
8.81049e+06	132.906
8.86135e+06	132.908
8.91251e+06	132.91
8.96396e+06	132.911
9.01571e+06	132.913
9.06776e+06	132.915
9.12011e+06	132.916
9.17276e+06	132.918
9.22571e+06	132.92
9.27897e+06	132.921
9.33254e+06	132.923
9.38642e+06	132.924
9.44061e+06	132.926
9.49511e+06	132.927
9.54993e+06	132.929
9.60506e+06	132.93
9.66051e+06	132.932
9.71628e+06	132.933
9.77237e+06	132.935
9.82879e+06	132.936
9.88553e+06	132.938
9.9426e+06	132.939
1e+07	132.94
