E [MeV]	dEdx [keV/microm]
0.001	62.973
0.00100577	63.1545
0.00101158	63.3366
0.00101742	63.5191
0.00102329	63.7022
0.0010292	63.8858
0.00103514	64.07
0.00104112	64.2547
0.00104713	64.4398
0.00105317	64.6256
0.00105925	64.8119
0.00106537	64.9987
0.00107152	65.186
0.00107771	65.3739
0.00108393	65.5624
0.00109018	65.7513
0.00109648	65.9408
0.00110281	66.1309
0.00110917	66.3215
0.00111558	66.5127
0.00112202	66.7044
0.0011285	66.8967
0.00113501	67.0895
0.00114156	67.2829
0.00114815	67.4768
0.00115478	67.6713
0.00116145	67.8663
0.00116815	68.062
0.0011749	68.2581
0.00118168	68.4549
0.0011885	68.6522
0.00119536	68.8501
0.00120226	69.0485
0.00120921	69.2475
0.00121619	69.4472
0.00122321	69.6473
0.00123027	69.8481
0.00123737	70.0494
0.00124451	70.2513
0.0012517	70.4538
0.00125893	70.6569
0.00126619	70.8606
0.0012735	71.0648
0.00128086	71.2696
0.00128825	71.4751
0.00129569	71.6811
0.00130317	71.8877
0.00131069	72.0949
0.00131826	72.3027
0.00132587	72.5111
0.00133352	72.7201
0.00134122	72.9297
0.00134896	73.1399
0.00135675	73.3507
0.00136458	73.5622
0.00137246	73.7742
0.00138038	73.9868
0.00138835	74.2001
0.00139637	74.414
0.00140443	74.6285
0.00141254	74.8436
0.00142069	75.0593
0.00142889	75.2756
0.00143714	75.4926
0.00144544	75.7102
0.00145378	75.9284
0.00146218	76.1473
0.00147062	76.3668
0.00147911	76.5869
0.00148765	76.8076
0.00149624	77.029
0.00150487	77.2511
0.00151356	77.4737
0.0015223	77.697
0.00153109	77.921
0.00153993	78.1456
0.00154882	78.3709
0.00155776	78.5967
0.00156675	78.8233
0.0015758	79.0505
0.00158489	79.2783
0.00159404	79.5068
0.00160325	79.736
0.0016125	79.9658
0.00162181	80.1963
0.00163117	80.4275
0.00164059	80.6593
0.00165006	80.8918
0.00165959	81.125
0.00166917	81.3588
0.0016788	81.5933
0.0016885	81.8285
0.00169824	82.0643
0.00170805	82.3009
0.00171791	82.5381
0.00172783	82.776
0.0017378	83.0146
0.00174783	83.2539
0.00175792	83.4938
0.00176807	83.7345
0.00177828	83.9759
0.00178855	84.2179
0.00179887	84.4607
0.00180926	84.7041
0.0018197	84.9482
0.00183021	85.1931
0.00184077	85.4387
0.0018514	85.6849
0.00186209	85.9319
0.00187284	86.1796
0.00188365	86.428
0.00189452	86.6771
0.00190546	86.927
0.00191646	87.1775
0.00192752	87.4288
0.00193865	87.6808
0.00194984	87.9335
0.0019611	88.187
0.00197242	88.4412
0.00198381	88.6961
0.00199526	88.9517
0.00200678	89.2081
0.00201837	89.4653
0.00203002	89.7231
0.00204174	89.9818
0.00205353	90.2411
0.00206538	90.5012
0.0020773	90.7621
0.0020893	91.0237
0.00210136	91.2861
0.00211349	91.5492
0.00212569	91.813
0.00213796	92.0777
0.0021503	92.3431
0.00216272	92.6093
0.0021752	92.8762
0.00218776	93.1439
0.00220039	93.4124
0.00221309	93.6816
0.00222587	93.9517
0.00223872	94.2224
0.00225165	94.494
0.00226464	94.7665
0.00227772	95.0396
0.00229087	95.3135
0.00230409	95.5883
0.00231739	95.8637
0.00233077	96.1401
0.00234423	96.4172
0.00235776	96.6951
0.00237137	96.9738
0.00238506	97.2534
0.00239883	97.5336
0.00241268	97.8148
0.00242661	98.0969
0.00244062	98.3795
0.00245471	98.663
0.00246888	98.9474
0.00248313	99.2325
0.00249747	99.5188
0.00251189	99.8055
0.00252639	100.093
0.00254097	100.382
0.00255564	100.671
0.0025704	100.961
0.00258523	101.252
0.00260016	101.544
0.00261517	101.837
0.00263027	102.13
0.00264545	102.425
0.00266073	102.72
0.00267609	103.016
0.00269153	103.313
0.00270707	103.611
0.0027227	103.909
0.00273842	104.209
0.00275423	104.509
0.00277013	104.81
0.00278612	105.113
0.00280221	105.415
0.00281838	105.719
0.00283465	106.024
0.00285102	106.33
0.00286748	106.636
0.00288403	106.943
0.00290068	107.252
0.00291743	107.561
0.00293427	107.871
0.00295121	108.182
0.00296825	108.494
0.00298538	108.806
0.00300262	109.12
0.00301995	109.435
0.00303739	109.75
0.00305492	110.066
0.00307256	110.384
0.0030903	110.702
0.00310814	111.021
0.00312608	111.341
0.00314413	111.662
0.00316228	111.984
0.00318053	112.306
0.0031989	112.63
0.00321736	112.955
0.00323594	113.28
0.00325462	113.607
0.00327341	113.934
0.0032923	114.263
0.00331131	114.592
0.00333043	114.922
0.00334965	115.254
0.00336899	115.586
0.00338844	115.919
0.003408	116.253
0.00342768	116.588
0.00344747	116.924
0.00346737	117.261
0.00348739	117.599
0.00350752	117.938
0.00352777	118.278
0.00354813	118.619
0.00356862	118.961
0.00358922	119.304
0.00360994	119.648
0.00363078	119.993
0.00365174	120.338
0.00367282	120.685
0.00369403	121.033
0.00371535	121.382
0.0037368	121.732
0.00375837	122.083
0.00378007	122.435
0.00380189	122.788
0.00382384	123.142
0.00384592	123.496
0.00386812	123.852
0.00389045	124.209
0.00391291	124.568
0.0039355	124.927
0.00395822	125.287
0.00398107	125.648
0.00400405	126.01
0.00402717	126.373
0.00405042	126.737
0.0040738	127.103
0.00409732	127.469
0.00412098	127.836
0.00414477	128.205
0.00416869	128.574
0.00419276	128.945
0.00421697	129.317
0.00424131	129.689
0.0042658	130.063
0.00429042	130.438
0.00431519	130.814
0.0043401	131.191
0.00436516	131.569
0.00439036	131.948
0.0044157	132.329
0.0044412	132.71
0.00446684	133.093
0.00449262	133.476
0.00451856	133.861
0.00454465	134.247
0.00457088	134.634
0.00459727	135.022
0.00462381	135.411
0.0046505	135.801
0.00467735	136.193
0.00470435	136.585
0.00473151	136.979
0.00475883	137.374
0.0047863	137.77
0.00481393	138.167
0.00484172	138.565
0.00486968	138.965
0.00489779	139.365
0.00492606	139.767
0.0049545	140.17
0.0049831	140.574
0.00501187	140.979
0.00504081	141.385
0.00506991	141.793
0.00509918	142.202
0.00512861	142.611
0.00515822	143.023
0.005188	143.435
0.00521795	143.848
0.00524807	144.263
0.00527837	144.679
0.00530884	145.096
0.00533949	145.514
0.00537032	145.933
0.00540132	146.354
0.0054325	146.776
0.00546387	147.199
0.00549541	147.623
0.00552713	148.049
0.00555904	148.475
0.00559114	148.903
0.00562341	149.332
0.00565588	149.763
0.00568853	150.195
0.00572137	150.628
0.0057544	151.062
0.00578762	151.497
0.00582103	151.934
0.00585464	152.372
0.00588844	152.811
0.00592243	153.252
0.00595662	153.693
0.00599101	154.136
0.0060256	154.58
0.00606038	155.026
0.00609537	155.473
0.00613056	155.921
0.00616595	156.37
0.00620155	156.821
0.00623735	157.273
0.00627336	157.726
0.00630957	158.181
0.006346	158.637
0.00638263	159.094
0.00641948	159.553
0.00645654	160.013
0.00649382	160.474
0.00653131	160.936
0.00656901	161.4
0.00660693	161.866
0.00664508	162.332
0.00668344	162.8
0.00672202	163.269
0.00676083	163.74
0.00679986	164.212
0.00683912	164.685
0.0068786	165.16
0.00691831	165.636
0.00695825	166.113
0.00699842	166.592
0.00703882	167.071
0.00707946	167.552
0.00712033	168.034
0.00716143	168.517
0.00720278	169.002
0.00724436	169.488
0.00728618	169.975
0.00732825	170.464
0.00737055	170.955
0.0074131	171.447
0.0074559	171.94
0.00749894	172.434
0.00754223	172.931
0.00758578	173.428
0.00762957	173.927
0.00767361	174.427
0.00771792	174.929
0.00776247	175.431
0.00780728	175.935
0.00785236	176.44
0.00789769	176.947
0.00794328	177.455
0.00798914	177.964
0.00803526	178.474
0.00808165	178.986
0.00812831	179.498
0.00817523	180.012
0.00822243	180.528
0.0082699	181.046
0.00831764	181.564
0.00836566	182.084
0.00841395	182.606
0.00846253	183.129
0.00851138	183.654
0.00856052	184.18
0.00860994	184.708
0.00865964	185.237
0.00870964	185.768
0.00875992	186.3
0.00881049	186.833
0.00886135	187.367
0.00891251	187.903
0.00896396	188.44
0.00901571	188.979
0.00906776	189.519
0.00912011	190.061
0.00917276	190.605
0.00922571	191.15
0.00927897	191.697
0.00933254	192.245
0.00938642	192.795
0.00944061	193.346
0.00949511	193.899
0.00954993	194.454
0.00960506	195.01
0.00966051	195.568
0.00971628	196.127
0.00977237	196.687
0.00982879	197.249
0.00988553	197.812
0.0099426	198.376
0.01	198.942
0.0100577	199.507
0.0101158	200.074
0.0101742	200.643
0.0102329	201.213
0.010292	201.785
0.0103514	202.359
0.0104112	202.934
0.0104713	203.511
0.0105317	204.089
0.0105925	204.669
0.0106537	205.251
0.0107152	205.835
0.0107771	206.42
0.0108393	207.007
0.0109018	207.596
0.0109648	208.186
0.0110281	208.778
0.0110917	209.371
0.0111558	209.967
0.0112202	210.564
0.011285	211.162
0.0113501	211.761
0.0114156	212.362
0.0114815	212.965
0.0115478	213.569
0.0116145	214.175
0.0116815	214.783
0.011749	215.393
0.0118168	216.004
0.011885	216.617
0.0119536	217.233
0.0120226	217.848
0.0120921	218.465
0.0121619	219.084
0.0122321	219.705
0.0123027	220.327
0.0123737	220.951
0.0124451	221.578
0.012517	222.205
0.0125893	222.835
0.0126619	223.467
0.012735	224.1
0.0128086	224.733
0.0128825	225.369
0.0129569	226.006
0.0130317	226.644
0.0131069	227.283
0.0131826	227.925
0.0132587	228.568
0.0133352	229.213
0.0134122	229.86
0.0134896	230.509
0.0135675	231.159
0.0136458	231.812
0.0137246	232.466
0.0138038	233.122
0.0138835	233.78
0.0139637	234.441
0.0140443	235.103
0.0141254	235.767
0.0142069	236.433
0.0142889	237.1
0.0143714	237.77
0.0144544	238.442
0.0145378	239.115
0.0146218	239.791
0.0147062	240.468
0.0147911	241.147
0.0148765	241.829
0.0149624	242.512
0.0150487	243.197
0.0151356	243.885
0.015223	244.574
0.0153109	245.265
0.0153993	245.959
0.0154882	246.654
0.0155776	247.351
0.0156675	248.05
0.015758	248.752
0.0158489	249.455
0.0159404	250.16
0.0160325	250.868
0.016125	251.578
0.0162181	252.289
0.0163117	253.003
0.0164059	253.718
0.0165006	254.436
0.0165959	255.156
0.0166917	255.878
0.016788	256.602
0.016885	257.328
0.0169824	258.056
0.0170805	258.787
0.0171791	259.519
0.0172783	260.254
0.017378	260.99
0.0174783	261.729
0.0175792	262.47
0.0176807	263.213
0.0177828	263.959
0.0178855	264.706
0.0179887	265.455
0.0180926	266.207
0.018197	266.961
0.0183021	267.717
0.0184077	268.476
0.018514	269.236
0.0186209	269.999
0.0187284	270.764
0.0188365	271.531
0.0189452	272.3
0.0190546	273.072
0.0191646	273.846
0.0192752	274.622
0.0193865	275.4
0.0194984	276.181
0.019611	276.964
0.0197242	277.749
0.0198381	278.536
0.0199526	279.326
0.0200678	280.118
0.0201837	280.912
0.0203002	281.709
0.0204174	282.508
0.0205353	283.309
0.0206538	284.113
0.020773	284.919
0.020893	285.727
0.0210136	286.538
0.0211349	287.351
0.0212569	288.166
0.0213796	288.984
0.021503	289.804
0.0216272	290.626
0.021752	291.451
0.0218776	292.278
0.0220039	293.108
0.0221309	293.94
0.0222587	294.774
0.0223872	295.611
0.0225165	296.451
0.0226464	297.292
0.0227772	298.136
0.0229087	298.983
0.0230409	299.832
0.0231739	300.684
0.0233077	301.538
0.0234423	302.394
0.0235776	303.253
0.0237137	304.115
0.0238506	304.979
0.0239883	305.846
0.0241268	306.715
0.0242661	307.586
0.0244062	308.461
0.0245471	309.337
0.0246888	310.217
0.0248313	311.098
0.0249747	311.983
0.0251189	312.87
0.0252639	313.759
0.0254097	314.651
0.0255564	315.546
0.025704	316.444
0.0258523	317.344
0.0260016	318.246
0.0261517	319.151
0.0263027	320.059
0.0264545	320.97
0.0266073	321.883
0.0267609	322.799
0.0269153	323.717
0.0270707	324.638
0.027227	325.562
0.0273842	326.489
0.0275423	327.418
0.0277013	328.35
0.0278612	329.284
0.0280221	330.202
0.0281838	331.081
0.0283465	331.963
0.0285102	332.847
0.0286748	333.734
0.0288403	334.624
0.0290068	335.517
0.0291743	336.413
0.0293427	337.311
0.0295121	338.211
0.0296825	339.115
0.0298538	340.022
0.0300262	340.931
0.0301995	341.843
0.0303739	342.757
0.0305492	343.675
0.0307256	344.595
0.030903	345.518
0.0310814	346.402
0.0312608	347.266
0.0314413	348.132
0.0316228	349.002
0.0318053	349.874
0.031989	350.739
0.0321736	351.549
0.0323594	352.361
0.0325462	353.176
0.0327341	353.993
0.032923	354.813
0.0331131	355.636
0.0333043	356.462
0.0334965	357.291
0.0336899	358.122
0.0338844	358.956
0.03408	359.793
0.0342768	360.632
0.0344747	361.474
0.0346737	362.319
0.0348739	363.167
0.0350752	363.976
0.0352777	364.757
0.0354813	365.541
0.0356862	366.328
0.0358922	367.117
0.0360994	367.909
0.0363078	368.704
0.0365174	369.502
0.0367282	370.301
0.0369403	371.104
0.0371535	371.91
0.037368	372.718
0.0375837	373.529
0.0378007	374.342
0.0380189	375.159
0.0382384	375.978
0.0384592	376.799
0.0386812	377.624
0.0389045	378.451
0.0391291	379.218
0.039355	379.972
0.0395822	380.728
0.0398107	381.487
0.0400405	382.187
0.0402717	382.793
0.0405042	383.402
0.040738	384.013
0.0409732	384.627
0.0412098	385.243
0.0414477	385.862
0.0416869	386.483
0.0419276	387.107
0.0421697	387.733
0.0424131	388.362
0.042658	388.993
0.0429042	389.626
0.0431519	390.262
0.043401	390.901
0.0436516	391.542
0.0439036	392.185
0.044157	392.83
0.044412	393.478
0.0446684	394.129
0.0449262	394.782
0.0451856	395.357
0.0454465	395.929
0.0457088	396.503
0.0459727	397.079
0.0462381	397.658
0.046505	398.239
0.0467735	398.822
0.0470435	399.408
0.0473151	399.996
0.0475883	400.586
0.047863	401.178
0.0481393	401.707
0.0484172	402.215
0.0486968	402.725
0.0489779	403.237
0.0492606	403.751
0.049545	404.268
0.049831	404.786
0.0501187	405.307
0.0504081	405.83
0.0506991	406.354
0.0509918	406.862
0.0512861	407.299
0.0515822	407.738
0.05188	408.179
0.0521795	408.541
0.0524807	408.891
0.0527837	409.242
0.0530884	409.595
0.0533949	409.95
0.0537032	410.307
0.0540132	410.666
0.054325	411.026
0.0546387	411.389
0.0549541	411.753
0.0552713	412.119
0.0555904	412.486
0.0559114	412.856
0.0562341	413.227
0.0565588	413.6
0.0568853	413.975
0.0572137	414.351
0.057544	414.729
0.0578762	415.108
0.0582103	415.49
0.0585464	415.873
0.0588844	416.257
0.0592243	416.643
0.0595662	417.031
0.0599101	417.42
0.060256	417.811
0.0606038	418.204
0.0609537	418.598
0.0613056	418.994
0.0616595	419.391
0.0620155	419.79
0.0623735	420.19
0.0627336	420.592
0.0630957	420.995
0.06346	421.401
0.0638263	421.807
0.0641948	422.215
0.0645654	422.625
0.0649382	423.035
0.0653131	423.448
0.0656901	423.862
0.0660693	424.277
0.0664508	424.694
0.0668344	425.113
0.0672202	425.533
0.0676083	425.954
0.0679986	426.377
0.0683912	426.801
0.068786	427.227
0.0691831	427.654
0.0695825	428.083
0.0699842	428.513
0.0703882	428.945
0.0707946	429.378
0.0712033	429.812
0.0716143	430.248
0.0720278	430.686
0.0724436	431.125
0.0728618	431.565
0.0732825	432.007
0.0737055	432.45
0.074131	432.895
0.074559	433.341
0.0749894	433.788
0.0754223	434.238
0.0758578	434.688
0.0762957	435.14
0.0767361	435.593
0.0771792	436.048
0.0776247	436.505
0.0780728	436.962
0.0785236	437.422
0.0789769	437.882
0.0794328	438.344
0.0798914	438.808
0.0803526	439.273
0.0808165	439.74
0.0812831	440.208
0.0817523	440.678
0.0822243	441.149
0.082699	441.621
0.0831764	442.095
0.0836566	442.571
0.0841395	443.048
0.0846253	443.526
0.0851138	444.007
0.0856052	444.488
0.0860994	444.971
0.0865964	445.456
0.0870964	445.942
0.0875992	446.43
0.0881049	446.919
0.0886135	447.41
0.0891251	447.903
0.0896396	448.397
0.0901571	448.892
0.0906776	449.389
0.0912011	449.888
0.0917276	450.388
0.0922571	450.89
0.0927897	451.394
0.0933254	451.899
0.0938642	452.405
0.0944061	452.914
0.0949511	453.424
0.0954993	453.935
0.0960506	454.449
0.0966051	454.963
0.0971628	455.48
0.0977237	455.998
0.0982879	456.518
0.0988553	457.04
0.099426	457.563
0.1	458.088
0.100577	458.615
0.101158	459.143
0.101742	459.673
0.102329	460.205
0.10292	460.738
0.103514	461.274
0.104112	461.811
0.104713	462.35
0.105317	462.89
0.105925	463.433
0.106537	463.977
0.107152	464.523
0.107771	465.071
0.108393	465.62
0.109018	466.172
0.109648	466.725
0.110281	467.28
0.110917	467.837
0.111558	468.396
0.112202	468.957
0.11285	469.52
0.113501	470.084
0.114156	470.65
0.114815	471.219
0.115478	471.789
0.116145	472.361
0.116815	472.936
0.11749	473.512
0.118168	474.09
0.11885	474.67
0.119536	475.252
0.120226	475.836
0.120921	476.422
0.121619	477.01
0.122321	477.601
0.123027	478.193
0.123737	478.787
0.124451	479.383
0.12517	479.982
0.125893	480.582
0.126619	481.185
0.12735	481.789
0.128086	482.396
0.128825	483.005
0.129569	483.616
0.130317	484.229
0.131069	484.845
0.131826	485.462
0.132587	486.082
0.133352	486.704
0.134122	487.328
0.134896	487.954
0.135675	488.583
0.136458	489.213
0.137246	489.847
0.138038	490.482
0.138835	491.12
0.139637	491.76
0.140443	492.402
0.141254	493.046
0.142069	493.693
0.142889	494.343
0.143714	494.994
0.144544	495.648
0.145378	496.304
0.146218	496.963
0.147062	497.624
0.147911	498.288
0.148765	498.953
0.149624	499.622
0.150487	500.292
0.151356	500.966
0.15223	501.641
0.153109	502.319
0.153993	503
0.154882	503.683
0.155776	504.369
0.156675	505.057
0.15758	505.748
0.158489	506.441
0.159404	507.137
0.160325	507.835
0.16125	508.536
0.162181	509.24
0.163117	509.946
0.164059	510.655
0.165006	511.366
0.165959	512.08
0.166917	512.797
0.16788	513.516
0.16885	514.239
0.169824	514.964
0.170805	515.691
0.171791	516.421
0.172783	517.154
0.17378	517.89
0.174783	518.628
0.175792	519.37
0.176807	520.114
0.177828	520.861
0.178855	521.61
0.179887	522.363
0.180926	523.118
0.18197	523.876
0.183021	524.637
0.184077	525.401
0.18514	526.168
0.186209	526.937
0.187284	527.71
0.188365	528.485
0.189452	529.264
0.190546	530.045
0.191646	530.83
0.192752	531.617
0.193865	532.407
0.194984	533.2
0.19611	533.996
0.197242	534.796
0.198381	535.598
0.199526	536.403
0.200678	537.211
0.201837	538.023
0.203002	538.837
0.204174	539.655
0.205353	540.476
0.206538	541.299
0.20773	542.127
0.20893	542.956
0.210136	543.79
0.211349	544.626
0.212569	545.466
0.213796	546.308
0.21503	547.154
0.216272	548.003
0.21752	548.856
0.218776	549.711
0.220039	550.57
0.221309	551.432
0.222587	552.298
0.223872	553.166
0.225165	554.038
0.226464	554.914
0.227772	555.792
0.229087	556.674
0.230409	557.559
0.231739	558.448
0.233077	559.34
0.234423	560.235
0.235776	561.134
0.237137	562.036
0.238506	562.941
0.239883	563.85
0.241268	564.763
0.242661	565.678
0.244062	566.598
0.245471	567.52
0.246888	568.447
0.248313	569.377
0.249747	570.31
0.251189	571.247
0.252639	572.187
0.254097	573.131
0.255564	574.078
0.25704	575.029
0.258523	575.984
0.260016	576.942
0.261517	577.903
0.263027	578.869
0.264545	579.838
0.266073	580.81
0.267609	581.787
0.269153	582.766
0.270707	583.75
0.27227	584.737
0.273842	585.728
0.275423	586.723
0.277013	587.721
0.278612	588.723
0.280221	589.729
0.281838	590.738
0.283465	591.752
0.285102	592.769
0.286748	593.789
0.288403	594.814
0.290068	595.842
0.291743	596.875
0.293427	597.911
0.295121	598.95
0.296825	599.994
0.298538	601.042
0.300262	602.093
0.301995	603.148
0.303739	604.207
0.305492	605.27
0.307256	606.337
0.30903	607.408
0.310814	608.483
0.312608	609.562
0.314413	610.644
0.316228	611.731
0.318053	612.821
0.31989	613.916
0.321736	615.014
0.323594	616.117
0.325462	617.223
0.327341	618.334
0.32923	619.448
0.331131	620.567
0.333043	621.689
0.334965	622.816
0.336899	623.946
0.338844	625.081
0.3408	626.22
0.342768	627.363
0.344747	628.51
0.346737	629.661
0.348739	630.816
0.350752	631.976
0.352777	633.139
0.354813	634.307
0.356862	635.478
0.358922	636.654
0.360994	637.834
0.363078	639.019
0.365174	640.207
0.367282	641.4
0.369403	642.597
0.371535	643.798
0.37368	645.003
0.375837	646.212
0.378007	647.426
0.380189	648.644
0.382384	649.866
0.384592	651.092
0.386812	652.323
0.389045	653.558
0.391291	654.797
0.39355	656.04
0.395822	657.288
0.398107	658.54
0.400405	659.797
0.402717	661.057
0.405042	662.322
0.40738	663.592
0.409732	664.865
0.412098	666.143
0.414477	667.425
0.416869	668.712
0.419276	670.003
0.421697	671.298
0.424131	672.598
0.42658	673.902
0.429042	675.211
0.431519	676.523
0.43401	677.841
0.436516	679.162
0.439036	680.488
0.44157	681.819
0.44412	683.153
0.446684	684.493
0.449262	685.836
0.451856	687.184
0.454465	688.537
0.457088	689.894
0.459727	691.255
0.462381	692.621
0.46505	693.991
0.467735	695.366
0.470435	696.745
0.473151	698.128
0.475883	699.516
0.47863	700.909
0.481393	702.306
0.484172	703.707
0.486968	705.113
0.489779	706.523
0.492606	707.938
0.49545	709.357
0.49831	710.781
0.501187	712.209
0.504081	713.642
0.506991	715.079
0.509918	716.52
0.512861	717.967
0.515822	719.417
0.5188	720.872
0.521795	722.331
0.524807	723.795
0.527837	725.264
0.530884	726.737
0.533949	728.214
0.537032	729.696
0.540132	731.182
0.54325	732.673
0.546387	734.169
0.549541	735.668
0.552713	737.173
0.555904	738.681
0.559114	740.195
0.562341	741.712
0.565588	743.234
0.568853	744.761
0.572137	746.292
0.57544	747.827
0.578762	749.367
0.582103	750.912
0.585464	752.46
0.588844	754.014
0.592243	755.645
0.595662	757.354
0.599101	759.068
0.60256	760.789
0.606038	762.516
0.609537	764.25
0.613056	765.989
0.616595	767.735
0.620155	769.487
0.623735	771.245
0.627336	773.01
0.630957	774.781
0.6346	776.558
0.638263	778.342
0.641948	780.131
0.645654	781.928
0.649382	783.73
0.653131	785.539
0.656901	787.354
0.660693	789.176
0.664508	791.004
0.668344	792.839
0.672202	794.68
0.676083	796.527
0.679986	798.381
0.683912	800.241
0.68786	802.108
0.691831	804.044
0.695825	806.096
0.699842	808.157
0.703882	810.21
0.707946	812.232
0.712033	814.262
0.716143	816.3
0.720278	818.346
0.724436	820.399
0.728618	822.46
0.732825	824.528
0.737055	826.605
0.74131	828.689
0.74559	830.781
0.749894	832.88
0.754223	835.168
0.758578	837.485
0.762957	839.811
0.767361	842.148
0.771792	844.496
0.776247	846.854
0.780728	849.186
0.785236	851.506
0.789769	853.834
0.794328	856.173
0.798914	858.52
0.803526	860.871
0.808165	863.175
0.812831	865.487
0.817523	867.808
0.822243	870.137
0.82699	872.474
0.831764	874.819
0.836566	877.173
0.841395	879.535
0.846253	881.905
0.851138	884.284
0.856052	886.671
0.860994	889.067
0.865964	891.671
0.870964	894.315
0.875992	896.97
0.881049	899.6
0.886135	902.211
0.891251	904.831
0.896396	907.461
0.901571	910.102
0.906776	912.752
0.912011	915.412
0.917276	918.082
0.922571	920.763
0.927897	923.453
0.933254	926.153
0.938642	928.863
0.944061	931.583
0.949511	934.313
0.954993	937.053
0.960506	939.803
0.966051	942.563
0.971628	945.333
0.977237	948.113
0.982879	950.903
0.988553	953.703
0.99426	956.513
1	959.333
1.00577	962.163
1.01158	965.003
1.01742	967.853
1.02329	970.713
1.0292	973.582
1.03514	976.462
1.04112	979.351
1.04713	982.415
1.05317	985.513
1.05925	988.627
1.06537	991.75
1.07152	994.884
1.07771	998.031
1.08393	1001.33
1.09018	1004.72
1.09648	1008.12
1.10281	1011.53
1.10917	1014.96
1.11558	1018.4
1.12202	1021.85
1.1285	1025.32
1.13501	1028.8
1.14156	1032.3
1.14815	1035.81
1.15478	1039.33
1.16145	1042.87
1.16815	1046.42
1.1749	1050.02
1.18168	1053.84
1.1885	1057.68
1.19536	1061.53
1.20226	1065.39
1.20921	1069.28
1.21619	1073.18
1.22321	1077.09
1.23027	1081.03
1.23737	1084.97
1.24451	1088.94
1.2517	1092.92
1.25893	1096.91
1.26619	1100.92
1.2735	1104.95
1.28086	1108.99
1.28825	1113.06
1.29569	1117.13
1.30317	1121.23
1.31069	1125.33
1.31826	1129.46
1.32587	1133.6
1.33352	1137.75
1.34122	1141.93
1.34896	1146.12
1.35675	1150.32
1.36458	1154.54
1.37246	1158.78
1.38038	1163.03
1.38835	1167.3
1.39637	1171.59
1.40443	1176.15
1.41254	1180.74
1.42069	1185.35
1.42889	1189.97
1.43714	1194.62
1.44544	1199.27
1.45378	1203.95
1.46218	1208.65
1.47062	1213.37
1.47911	1218.1
1.48765	1222.85
1.49624	1227.62
1.50487	1232.41
1.51356	1237.21
1.5223	1242.04
1.53109	1246.88
1.53993	1251.74
1.54882	1256.62
1.55776	1261.52
1.56675	1266.43
1.5758	1271.53
1.58489	1276.78
1.59404	1282.05
1.60325	1287.34
1.6125	1292.65
1.62181	1297.98
1.63117	1303.33
1.64059	1308.71
1.65006	1314.1
1.65959	1319.51
1.66917	1324.95
1.6788	1330.4
1.6885	1335.88
1.69824	1341.37
1.70805	1346.88
1.71791	1352.42
1.72783	1357.97
1.7378	1363.55
1.74783	1369.14
1.75792	1374.79
1.76807	1380.76
1.77828	1386.74
1.78855	1392.75
1.79887	1398.78
1.80926	1404.84
1.8197	1410.92
1.83021	1417.02
1.84077	1423.14
1.8514	1429.28
1.86209	1435.45
1.87284	1441.64
1.88365	1447.91
1.89452	1454.5
1.90546	1461.12
1.91646	1467.77
1.92752	1474.43
1.93865	1481.13
1.94984	1487.85
1.9611	1494.6
1.97242	1501.37
1.98381	1508.16
1.99526	1514.98
2.00678	1521.83
2.01837	1528.69
2.03002	1535.59
2.04174	1542.51
2.05353	1549.45
2.06538	1556.41
2.0773	1563.4
2.0893	1570.42
2.10136	1577.46
2.11349	1584.52
2.12569	1591.61
2.13796	1598.72
2.1503	1605.85
2.16272	1613.01
2.1752	1620.19
2.18776	1627.39
2.20039	1634.51
2.21309	1641.76
2.22587	1649.03
2.23872	1656.32
2.25165	1663.64
2.26464	1670.98
2.27772	1678.34
2.29087	1685.72
2.30409	1693.13
2.31739	1700.55
2.33077	1708
2.34423	1715.47
2.35776	1722.96
2.37137	1730.48
2.38506	1738.01
2.39883	1745.56
2.41268	1753.14
2.42661	1760.74
2.44062	1768.35
2.45471	1775.99
2.46888	1783.64
2.48313	1791.32
2.49747	1799.01
2.51189	1806.73
2.52639	1814.46
2.54097	1822.22
2.55564	1829.99
2.5704	1837.78
2.58523	1845.59
2.60016	1853.42
2.61517	1861.26
2.63027	1869.13
2.64545	1877
2.66073	1884.9
2.67609	1892.82
2.69153	1900.75
2.70707	1908.58
2.7227	1916.54
2.73842	1924.52
2.75423	1932.52
2.77013	1940.53
2.78612	1948.56
2.80221	1956.6
2.81838	1964.65
2.83465	1972.73
2.85102	1980.81
2.86748	1988.91
2.88403	1997.02
2.90068	2005.15
2.91743	2013.29
2.93427	2021.44
2.95121	2029.61
2.96825	2037.79
2.98538	2045.98
3.00262	2054.18
3.01995	2062.39
3.03739	2070.61
3.05492	2078.85
3.07256	2086.97
3.0903	2095.23
3.10814	2103.49
3.12608	2111.76
3.14413	2120.05
3.16228	2128.34
3.18053	2136.64
3.1989	2144.95
3.21736	2153.27
3.23594	2161.59
3.25462	2169.93
3.27341	2178.27
3.2923	2186.61
3.31131	2194.97
3.33043	2203.32
3.34965	2211.69
3.36899	2220.06
3.38844	2228.43
3.408	2236.81
3.42768	2245.2
3.44747	2253.58
3.46737	2261.97
3.48739	2270.37
3.50752	2278.76
3.52777	2287.16
3.54813	2295.56
3.56862	2303.96
3.58922	2312.37
3.60994	2320.77
3.63078	2329.18
3.65174	2337.58
3.67282	2345.85
3.69403	2354.25
3.71535	2362.65
3.7368	2371.05
3.75837	2379.45
3.78007	2387.84
3.80189	2396.23
3.82384	2404.62
3.84592	2413
3.86812	2421.38
3.89045	2429.76
3.91291	2438.13
3.9355	2446.5
3.95822	2454.86
3.98107	2463.21
4.00405	2471.56
4.02717	2479.91
4.05042	2488.24
4.0738	2496.56
4.09732	2504.88
4.12098	2513.19
4.14477	2521.49
4.16869	2529.78
4.19276	2538.06
4.21697	2546.33
4.24131	2554.59
4.2658	2562.84
4.29042	2571.08
4.31519	2579.3
4.3401	2587.52
4.36516	2595.71
4.39036	2603.9
4.4157	2612.07
4.4412	2620.23
4.46684	2628.37
4.49262	2636.5
4.51856	2644.61
4.54465	2652.71
4.57088	2660.64
4.59727	2668.7
4.62381	2676.75
4.6505	2684.77
4.67735	2692.78
4.70435	2700.77
4.73151	2708.74
4.75883	2716.69
4.7863	2724.62
4.81393	2732.37
4.84172	2740.26
4.86968	2748.13
4.89779	2755.97
4.92606	2763.79
4.9545	2771.59
4.9831	2779.37
5.01187	2787.12
5.04081	2794.85
5.06991	2802.55
5.09918	2810.23
5.12861	2817.88
5.15822	2825.51
5.188	2833.11
5.21795	2840.69
5.24807	2848.24
5.27837	2855.76
5.30884	2863.09
5.33949	2870.55
5.37032	2877.99
5.40132	2885.39
5.4325	2892.77
5.46387	2900.12
5.49541	2907.43
5.52713	2914.72
5.55904	2921.97
5.59114	2929.2
5.62341	2936.39
5.65588	2943.55
5.68853	2950.67
5.72137	2957.77
5.7544	2964.83
5.78762	2971.85
5.82103	2978.84
5.85464	2985.8
5.88844	2992.72
5.92243	2999.61
5.95662	3006.46
5.99101	3013.28
6.0256	3020.06
6.06038	3026.8
6.09537	3033.5
6.13056	3040.17
6.16595	3046.8
6.20155	3053.39
6.23735	3059.95
6.27336	3066.46
6.30957	3072.93
6.346	3079.37
6.38263	3085.77
6.41948	3091.95
6.45654	3098.26
6.49382	3104.53
6.53131	3110.76
6.56901	3116.95
6.60693	3123.1
6.64508	3129.21
6.68344	3135.27
6.72202	3141.29
6.76083	3147.27
6.79986	3153.2
6.83912	3159.1
6.8786	3164.94
6.91831	3170.75
6.95825	3176.51
6.99842	3182.22
7.03882	3187.89
7.07946	3193.51
7.12033	3199.09
7.16143	3204.63
7.20278	3210.12
7.24436	3215.56
7.28618	3220.78
7.32825	3226.13
7.37055	3231.43
7.4131	3236.68
7.4559	3241.89
7.49894	3247.05
7.54223	3252.16
7.58578	3257.23
7.62957	3262.25
7.67361	3267.22
7.71792	3272.14
7.76247	3277.01
7.80728	3281.84
7.85236	3286.62
7.89769	3291.34
7.94328	3296.02
7.98914	3300.65
8.03526	3305.23
8.08165	3309.76
8.12831	3314.25
8.17523	3318.68
8.22243	3323.07
8.2699	3327.21
8.31764	3331.49
8.36566	3335.72
8.41395	3339.91
8.46253	3344.04
8.51138	3348.12
8.56052	3352.15
8.60994	3356.13
8.65964	3360.06
8.70964	3363.95
8.75992	3367.78
8.81049	3371.56
8.86135	3375.28
8.91251	3378.96
8.96396	3382.4
9.01571	3385.97
9.06776	3389.5
9.12011	3392.97
9.17276	3396.4
9.22571	3399.77
9.27897	3403.09
9.33254	3406.36
9.38642	3409.58
9.44061	3412.75
9.49511	3415.87
9.54993	3418.29
9.60506	3421.32
9.66051	3424.3
9.71628	3427.22
9.77237	3430.1
9.82879	3432.92
9.88553	3435.7
9.9426	3438.42
10	3441.1
10.0577	3443.72
10.1158	3446.3
10.1742	3448.82
10.2329	3451.3
10.292	3453.73
10.3514	3456.1
10.4112	3458.43
10.4713	3460.71
10.5317	3462.19
10.5925	3464.38
10.6537	3466.52
10.7152	3468.61
10.7771	3469.8
10.8393	3471.8
10.9018	3473.76
10.9648	3475.66
11.0281	3477.52
11.0917	3479.33
11.1558	3481.09
11.2202	3482.8
11.285	3484.47
11.3501	3486.09
11.4156	3487.67
11.4815	3489.19
11.5478	3490.67
11.6145	3492.1
11.6815	3492.53
11.749	3493.88
11.8168	3495.18
11.885	3496.44
11.9536	3497.65
12.0226	3498.82
12.0921	3499.95
12.1619	3501.02
12.2321	3502.06
12.3027	3503.05
12.3737	3503.99
12.4451	3504.89
12.517	3505.75
12.5893	3506.56
12.6619	3506.13
12.735	3506.87
12.8086	3506.25
12.8825	3506.91
12.9569	3507.54
13.0317	3508.12
13.1069	3508.66
13.1826	3508.09
13.2587	3508.56
13.3352	3508.99
13.4122	3509.37
13.4896	3509.72
13.5675	3510.03
13.6458	3510.29
13.7246	3510.52
13.8038	3510.71
13.8835	3510.86
13.9637	3510.97
14.0443	3511.04
14.1254	3509.61
14.2069	3509.63
14.2889	3509.6
14.3714	3509.53
14.4544	3509.43
14.5378	3509.29
14.6218	3509.11
14.7062	3507.29
14.7911	3507.06
14.8765	3506.79
14.9624	3506.49
15.0487	3506.15
15.1356	3505.77
15.223	3503.46
15.3109	3501.28
15.3993	3500.83
15.4882	3500.36
15.5776	3499.84
15.6675	3499.3
15.758	3498.72
15.8489	3498.11
15.9404	3497.48
16.0325	3496.8
16.125	3496.1
16.2181	3495.37
16.3117	3494.6
16.4059	3493.81
16.5006	3492.98
16.5959	3492.13
16.6917	3491.24
16.788	3490.33
16.885	3489.39
16.9824	3488.41
17.0805	3487.42
17.1791	3486.39
17.2783	3485.34
17.378	3484.25
17.4783	3483.15
17.5792	3482.01
17.6807	3480.85
17.7828	3479.67
17.8855	3478.45
17.9887	3477.22
18.0926	3475.96
18.197	3474.67
18.3021	3473.36
18.4077	3472.03
18.514	3470.67
18.6209	3469.28
18.7284	3467.88
18.8365	3466.45
18.9452	3465
19.0546	3463.53
19.1646	3462.03
19.2752	3460.52
19.3865	3458.98
19.4984	3457.42
19.611	3455.84
19.7242	3454.25
19.8381	3452.62
19.9526	3450.99
20.0678	3449.33
20.1837	3447.65
20.3002	3445.95
20.4174	3444.24
20.5353	3442.5
20.6538	3440.75
20.773	3438.98
20.893	3437.19
21.0136	3435.39
21.1349	3433.57
21.2569	3431.73
21.3796	3429.87
21.503	3428
21.6272	3426.11
21.752	3424.21
21.8776	3422.29
22.0039	3420.36
22.1309	3418.41
22.2587	3416.44
22.3872	3414.46
22.5165	3412.47
22.6464	3410.46
22.7772	3408.44
22.9087	3406.41
23.0409	3404.36
23.1739	3402.3
23.3077	3400.23
23.4423	3398.14
23.5776	3396.04
23.7137	3393.93
23.8506	3391.81
23.9883	3389.68
24.1268	3387.53
24.2661	3385.37
24.4062	3383.2
24.5471	3381.02
24.6888	3378.83
24.8313	3376.63
24.9747	3374.42
25.1189	3372.2
25.2639	3369.97
25.4097	3367.72
25.5564	3365.47
25.704	3363.21
25.8523	3360.94
26.0016	3358.66
26.1517	3356.38
26.3027	3354.08
26.4545	3351.77
26.6073	3349.46
26.7609	3347.14
26.9153	3344.81
27.0707	3342.47
27.227	3340.12
27.3842	3337.77
27.5423	3335.41
27.7013	3333.04
27.8612	3330.66
28.0221	3328.28
28.1838	3325.89
28.3465	3323.49
28.5102	3321.08
28.6748	3318.67
28.8403	3316.26
29.0068	3313.84
29.1743	3311.41
29.3427	3308.97
29.5121	3306.53
29.6825	3304.08
29.8538	3301.62
30.0262	3299.16
30.1995	3296.7
30.3739	3294.23
30.5492	3291.75
30.7256	3289.27
30.903	3286.79
31.0814	3284.29
31.2608	3281.8
31.4413	3279.29
31.6228	3276.79
31.8053	3274.28
31.989	3271.76
32.1736	3269.24
32.3594	3266.71
32.5462	3264.18
32.7341	3261.65
32.923	3259.11
33.1131	3256.56
33.3043	3254.01
33.4965	3251.46
33.6899	3248.91
33.8844	3246.35
34.08	3243.78
34.2768	3241.21
34.4747	3238.64
34.6737	3236.06
34.8739	3233.48
35.0752	3230.9
35.2777	3228.31
35.4813	3225.72
35.6862	3223.12
35.8922	3220.52
36.0994	3217.92
36.3078	3215.31
36.5174	3212.7
36.7282	3210.08
36.9403	3207.46
37.1535	3204.84
37.368	3202.22
37.5837	3199.59
37.8007	3196.95
38.0189	3194.32
38.2384	3191.68
38.4592	3189.03
38.6812	3186.39
38.9045	3183.74
39.1291	3181.08
39.355	3178.42
39.5822	3175.76
39.8107	3173.1
40.0405	3170.43
40.2717	3167.76
40.5042	3165.08
40.738	3162.4
40.9732	3159.72
41.2098	3157.03
41.4477	3154.34
41.6869	3151.65
41.9276	3148.95
42.1697	3146.25
42.4131	3143.54
42.658	3140.84
42.9042	3138.13
43.1519	3135.41
43.401	3132.69
43.6516	3129.97
43.9036	3127.24
44.157	3124.51
44.412	3121.77
44.6684	3119.03
44.9262	3116.29
45.1856	3113.55
45.4465	3110.8
45.7088	3108.04
45.9727	3105.28
46.2381	3102.52
46.505	3099.76
46.7735	3096.98
47.0435	3094.21
47.3151	3091.43
47.5883	3088.65
47.863	3085.86
48.1393	3083.07
48.4172	3080.27
48.6968	3077.47
48.9779	3074.67
49.2606	3071.86
49.545	3069.05
49.831	3066.23
50.1187	3063.41
50.4081	3060.58
50.6991	3057.75
50.9918	3054.91
51.2861	3052.07
51.5822	3049.22
51.88	3046.37
52.1795	3043.52
52.4807	3040.66
52.7837	3037.79
53.0884	3034.92
53.3949	3032.05
53.7032	3029.17
54.0132	3026.28
54.325	3023.39
54.6387	3020.49
54.9541	3017.59
55.2713	3014.69
55.5904	3011.76
55.9114	3008.77
56.2341	3005.77
56.5588	3002.77
56.8853	2999.76
57.2137	2996.75
57.544	2993.73
57.8762	2990.72
58.2103	2987.69
58.5464	2984.65
58.8844	2981.61
59.2243	2978.57
59.5662	2975.52
59.9101	2972.46
60.256	2969.4
60.6038	2966.34
60.9537	2963.26
61.3056	2960.19
61.6595	2957.06
62.0155	2953.9
62.3735	2950.71
62.7336	2947.52
63.0957	2944.33
63.46	2941.13
63.8263	2937.81
64.1948	2934.5
64.5654	2931.17
64.9382	2927.83
65.3131	2924.49
65.6901	2921.15
66.0693	2917.82
66.4508	2914.46
66.8344	2911.11
67.2202	2907.74
67.6083	2904.37
67.9986	2901.09
68.3912	2897.71
68.786	2894.35
69.1831	2890.96
69.5825	2887.21
69.9842	2883.67
70.3882	2880.16
70.7946	2876.64
71.2033	2873.08
71.6143	2869.54
72.0278	2865.98
72.4436	2862.42
72.8618	2858.86
73.2825	2855.28
73.7055	2851.7
74.131	2848.12
74.559	2844.52
74.9894	2840.93
75.4223	2837.43
75.8578	2833.82
76.2957	2830.21
76.7361	2826.59
77.1792	2822.62
77.6247	2819.03
78.0728	2815.24
78.5236	2811.43
78.9769	2807.61
79.4328	2803.72
79.8914	2799.15
80.3526	2795
80.8165	2790.82
81.2831	2786.63
81.7523	2782.44
82.2243	2778.25
82.699	2774.17
83.1764	2769.97
83.6566	2765.77
84.1395	2761.57
84.6253	2757.36
85.1138	2753.27
85.6052	2749.05
86.0994	2744.84
86.5964	2740.65
87.0964	2736.02
87.5992	2731.79
88.1049	2727.59
88.6135	2723.41
89.1251	2719.17
89.6396	2714.78
90.1571	2710.3
90.6776	2705.83
91.2011	2701.36
91.7276	2696.98
92.2571	2692.51
92.7897	2688.03
93.3254	2683.56
93.8642	2679.08
94.4061	2674.6
94.9511	2670.36
95.4993	2666.18
96.0506	2661.43
96.6051	2656.69
97.1628	2651.75
97.7237	2647
98.2879	2642.3
98.8553	2637.55
99.426	2631.87
100	2627.14
100.577	2622.48
101.158	2617.71
101.742	2612.67
102.329	2607.63
102.92	2602.6
103.514	2597.5
104.112	2592.17
104.713	2586.85
105.317	2581.54
105.925	2576.22
106.537	2570.94
107.152	2565.64
107.771	2560.35
108.393	2555.05
109.018	2549.75
109.648	2544.62
110.281	2539.33
110.917	2534.04
111.558	2528.75
112.202	2522.92
112.85	2517.73
113.501	2512.49
114.156	2507.22
114.815	2501.94
115.478	2496.85
116.145	2492.04
116.815	2486.93
117.49	2481.66
118.168	2476.67
118.85	2471.4
119.536	2465.54
120.226	2460.25
120.921	2455.02
121.619	2449.74
122.321	2444.46
123.027	2439.2
123.737	2434.13
124.451	2428.95
125.17	2423.68
125.893	2418.46
126.619	2413.39
127.35	2407.5
128.086	2402.28
128.825	2397.01
129.569	2391.08
130.317	2385.84
131.069	2380.63
131.826	2375.34
132.587	2370.06
133.352	2364.95
134.122	2359.67
134.896	2354.41
135.675	2349.14
136.458	2343.88
137.246	2338.62
138.038	2333.46
138.835	2328.21
139.637	2323.41
140.443	2318.2
141.254	2312.99
142.069	2308.1
142.889	2302.89
143.714	2297.68
144.544	2292.46
145.378	2287.24
146.218	2282.03
147.062	2276.81
147.911	2271.6
148.765	2266.39
149.624	2261.17
150.487	2255.96
151.356	2250.94
152.23	2245.72
153.109	2240.51
153.993	2235.49
154.882	2230.28
155.776	2225.18
156.675	2219.96
157.58	2214.77
158.489	2209.64
159.404	2204.92
160.325	2199.73
161.25	2194.56
162.181	2189.48
163.117	2184.29
164.059	2179.1
165.006	2173.91
165.959	2168.72
166.917	2163.53
167.88	2158.37
168.85	2153.21
169.824	2148.06
170.805	2142.9
171.791	2137.76
172.783	2132.61
173.78	2127.59
174.783	2122.46
175.792	2117.31
176.807	2112.19
177.828	2107.31
178.855	2102.2
179.887	2097.08
180.926	2091.97
181.97	2086.91
183.021	2081.89
184.077	2076.81
185.14	2071.79
186.209	2066.71
187.284	2061.63
188.365	2056.56
189.452	2051.49
190.546	2046.42
191.646	2041.35
192.752	2036.28
193.865	2031.22
194.984	2026.23
196.11	2021.17
197.242	2016.11
198.381	2011.06
199.526	2006.04
200.678	2001.14
201.837	1996.09
203.002	1991.04
204.174	1986
205.353	1980.96
206.538	1975.92
207.73	1970.96
208.93	1965.95
210.136	1960.92
211.349	1955.97
212.569	1950.94
213.796	1946.08
215.03	1941.06
216.272	1936.05
217.52	1931.03
218.776	1926.02
220.039	1921.02
221.309	1916.02
222.587	1911.05
223.872	1906.05
225.165	1901.07
226.464	1896.26
227.772	1891.35
229.087	1886.36
230.409	1881.42
231.739	1876.63
233.077	1871.66
234.423	1866.68
235.776	1861.72
237.137	1856.76
238.506	1851.89
239.883	1846.94
241.268	1841.99
242.661	1837.04
244.062	1832.1
245.471	1827.17
246.888	1822.23
248.313	1817.31
249.747	1812.39
251.189	1807.47
252.639	1802.56
254.097	1797.65
255.564	1792.74
257.04	1787.89
258.523	1782.99
260.016	1778.1
261.517	1773.26
263.027	1768.37
264.545	1763.49
266.073	1758.62
267.609	1753.75
269.153	1748.89
270.707	1744.03
272.27	1739.18
273.842	1734.38
275.423	1729.54
277.013	1724.7
278.612	1719.86
280.221	1715.03
281.838	1710.21
283.465	1705.44
285.102	1700.62
286.748	1695.82
288.403	1691.01
290.068	1686.31
291.743	1681.52
293.427	1676.74
295.121	1671.96
296.825	1667.23
298.538	1662.55
300.262	1657.77
301.995	1653
303.739	1648.24
305.492	1643.48
307.256	1638.73
309.03	1633.98
310.814	1629.23
312.608	1624.5
314.413	1619.76
316.228	1615.04
318.053	1610.32
319.89	1605.6
321.736	1600.89
323.594	1596.18
325.462	1591.5
327.341	1586.8
329.23	1582.11
331.131	1577.43
333.043	1572.75
334.965	1568.15
336.899	1563.48
338.844	1558.82
340.8	1554.16
342.768	1549.5
344.747	1544.86
346.737	1540.21
348.739	1535.58
350.752	1530.94
352.777	1526.32
354.813	1521.75
356.862	1517.2
358.922	1512.59
360.994	1507.99
363.078	1503.39
365.174	1498.79
367.282	1494.24
369.403	1489.65
371.535	1485.08
373.68	1480.51
375.837	1475.95
378.007	1471.39
380.189	1466.91
382.384	1462.36
384.592	1457.82
386.812	1453.35
389.045	1448.82
391.291	1444.3
393.55	1439.78
395.822	1435.27
398.107	1430.77
400.405	1426.27
402.717	1421.77
405.042	1417.29
407.38	1412.81
409.732	1408.37
412.098	1403.9
414.477	1399.44
416.869	1394.98
419.276	1390.6
421.697	1386.15
424.131	1381.71
426.58	1377.29
429.042	1372.86
431.519	1368.44
434.01	1364.03
436.516	1359.63
439.036	1355.23
441.57	1350.84
444.12	1346.46
446.684	1342.08
449.262	1337.71
451.856	1333.34
454.465	1328.99
457.088	1324.64
459.727	1320.35
462.381	1316.01
465.05	1311.68
467.735	1307.36
470.435	1303.04
473.151	1298.77
475.883	1294.47
478.63	1290.17
481.393	1285.88
484.172	1281.6
486.968	1277.33
489.779	1273.07
492.606	1268.8
495.45	1264.55
498.31	1260.31
501.187	1256.07
504.081	1251.94
506.991	1247.71
509.918	1243.5
512.861	1239.29
515.822	1235.09
518.8	1230.9
521.795	1226.71
524.807	1222.53
527.837	1218.36
530.884	1214.2
533.949	1210.09
537.032	1205.95
540.132	1201.81
543.25	1197.67
546.387	1193.6
549.541	1189.48
552.713	1185.37
555.904	1181.27
559.114	1177.18
562.341	1173.09
565.588	1169.02
568.853	1164.95
572.137	1160.89
575.44	1156.84
578.762	1152.85
582.103	1148.81
585.464	1144.78
588.844	1140.76
592.243	1136.75
595.662	1132.75
599.101	1128.75
602.56	1124.77
606.038	1120.79
609.537	1116.82
613.056	1112.86
616.595	1108.9
620.155	1104.96
623.735	1101.03
627.336	1097.1
630.957	1093.18
634.6	1089.27
638.263	1085.37
641.948	1081.48
645.654	1077.59
649.382	1073.72
653.131	1069.85
656.901	1065.99
660.693	1062.14
664.508	1058.31
668.344	1054.47
672.202	1050.65
676.083	1046.84
679.986	1043.03
683.912	1039.24
687.86	1035.45
691.831	1031.67
695.825	1027.9
699.842	1024.14
703.882	1020.39
707.946	1016.64
712.033	1012.91
716.143	1009.18
720.278	1005.47
724.436	1001.81
728.618	998.117
732.825	994.427
737.055	990.746
741.31	987.075
745.59	983.412
749.894	979.759
754.223	976.116
758.578	972.482
762.957	968.856
767.361	965.239
771.792	961.632
776.247	958.033
780.728	954.445
785.236	950.866
789.769	947.294
794.328	943.734
798.914	940.183
803.526	936.64
808.165	933.106
812.831	929.581
817.523	926.067
822.243	922.561
826.99	919.064
831.764	915.578
836.566	912.099
841.395	908.631
846.253	905.172
851.138	901.723
856.052	898.334
860.994	894.902
865.964	891.48
870.964	888.067
875.992	884.663
881.049	881.269
886.135	877.884
891.251	874.508
896.396	871.143
901.571	867.785
906.776	864.438
912.011	861.1
917.276	857.771
922.571	854.45
927.897	851.142
933.254	847.841
938.642	844.55
944.061	841.268
949.511	837.996
954.993	834.732
960.506	831.479
966.051	828.235
971.628	825
977.237	821.775
982.879	818.559
988.553	815.352
994.26	812.156
1000	809.021
1005.77	805.841
1011.58	802.672
1017.42	799.512
1023.29	796.362
1029.2	793.222
1035.14	790.088
1041.12	786.967
1047.13	783.855
1053.17	780.75
1059.25	777.658
1065.37	774.573
1071.52	771.498
1077.71	768.433
1083.93	765.377
1090.18	762.33
1096.48	759.293
1102.81	756.266
1109.17	753.248
1115.58	750.239
1122.02	747.292
1128.5	744.302
1135.01	741.32
1141.56	738.349
1148.15	735.387
1154.78	732.434
1161.45	729.49
1168.15	726.557
1174.9	723.631
1181.68	720.716
1188.5	717.81
1195.36	714.914
1202.26	712.027
1209.21	709.149
1216.19	706.28
1223.21	703.422
1230.27	700.572
1237.37	697.733
1244.51	694.901
1251.7	692.08
1258.93	689.269
1266.19	686.465
1273.5	683.672
1280.86	680.887
1288.25	678.113
1295.69	675.347
1303.17	672.592
1310.69	669.844
1318.26	667.107
1325.87	664.379
1333.52	661.659
1341.22	658.949
1348.96	656.25
1356.75	653.559
1364.58	650.877
1372.46	648.204
1380.38	645.54
1388.35	642.887
1396.37	640.241
1404.43	637.605
1412.54	634.978
1420.69	632.361
1428.89	629.753
1437.14	627.154
1445.44	624.564
1453.78	621.982
1462.18	619.411
1470.62	616.848
1479.11	614.295
1487.65	611.75
1496.24	609.215
1504.87	606.688
1513.56	604.171
1522.3	601.663
1531.09	599.163
1539.93	596.673
1548.82	594.192
1557.76	591.719
1566.75	589.256
1575.8	586.802
1584.89	584.357
1594.04	581.92
1603.25	579.492
1612.5	577.074
1621.81	574.665
1631.17	572.264
1640.59	569.872
1650.06	567.488
1659.59	565.114
1669.17	562.749
1678.8	560.392
1688.5	558.044
1698.24	555.705
1708.05	553.375
1717.91	551.053
1727.83	548.74
1737.8	546.437
1747.83	544.141
1757.92	541.854
1768.07	539.576
1778.28	537.307
1788.55	535.046
1798.87	532.794
1809.26	530.551
1819.7	528.316
1830.21	526.09
1840.77	523.872
1851.4	521.662
1862.09	519.462
1872.84	517.27
1883.65	515.086
1894.52	512.911
1905.46	510.744
1916.46	508.586
1927.52	506.436
1938.65	504.294
1949.84	502.161
1961.1	500.036
1972.42	497.92
1983.81	495.812
1995.26	493.712
2006.78	491.621
2018.37	489.538
2030.02	487.463
2041.74	485.396
2053.53	483.338
2065.38	481.288
2077.3	479.246
2089.3	477.212
2101.36	475.186
2113.49	473.169
2125.69	471.159
2137.96	469.158
2150.3	467.165
2162.72	465.18
2175.2	463.203
2187.76	461.233
2200.39	459.272
2213.09	457.319
2225.87	455.374
2238.72	453.437
2251.65	451.508
2264.64	449.587
2277.72	447.673
2290.87	445.768
2304.09	443.87
2317.39	441.98
2330.77	440.098
2344.23	438.224
2357.76	436.358
2371.37	434.499
2385.06	432.648
2398.83	430.804
2412.68	428.969
2426.61	427.141
2440.62	425.321
2454.71	423.508
2468.88	421.703
2483.13	419.906
2497.47	418.116
2511.89	416.334
2526.39	414.559
2540.97	412.792
2555.64	411.032
2570.4	409.28
2585.23	407.535
2600.16	405.798
2615.17	404.068
2630.27	402.345
2645.45	400.63
2660.73	398.922
2676.09	397.222
2691.53	395.528
2707.07	393.842
2722.7	392.164
2738.42	390.492
2754.23	388.828
2770.13	387.171
2786.12	385.521
2802.21	383.879
2818.38	382.243
2834.65	380.615
2851.02	378.994
2867.48	377.379
2884.03	375.772
2900.68	374.172
2917.43	372.579
2934.27	370.993
2951.21	369.413
2968.25	367.841
2985.38	366.276
3002.62	364.718
3019.95	363.166
3037.39	361.622
3054.92	360.084
3072.56	358.553
3090.3	357.028
3108.14	355.511
3126.08	354
3144.13	352.497
3162.28	350.999
3180.53	349.509
3198.9	348.025
3217.36	346.548
3235.94	345.077
3254.62	343.613
3273.41	342.156
3292.3	340.705
3311.31	339.261
3330.43	337.823
3349.65	336.392
3368.99	334.967
3388.44	333.549
3408	332.137
3427.68	330.732
3447.47	329.332
3467.37	327.94
3487.39	326.554
3507.52	325.174
3527.77	323.8
3548.13	322.432
3568.62	321.071
3589.22	319.716
3609.94	318.367
3630.78	317.025
3651.74	315.689
3672.82	314.358
3694.03	313.034
3715.35	311.716
3736.8	310.405
3758.37	309.099
3780.07	307.799
3801.89	306.505
3823.84	305.218
3845.92	303.936
3868.12	302.66
3890.45	301.39
3912.91	300.127
3935.5	298.868
3958.22	297.616
3981.07	296.37
4004.05	295.13
4027.17	293.895
4050.42	292.666
4073.8	291.443
4097.32	290.226
4120.98	289.014
4144.77	287.808
4168.69	286.608
4192.76	285.414
4216.97	284.225
4241.31	283.042
4265.8	281.864
4290.42	280.692
4315.19	279.525
4340.1	278.365
4365.16	277.209
4390.36	276.059
4415.7	274.915
4441.2	273.776
4466.84	272.642
4492.62	271.514
4518.56	270.391
4544.65	269.274
4570.88	268.162
4597.27	267.055
4623.81	265.954
4650.5	264.858
4677.35	263.767
4704.35	262.682
4731.51	261.601
4758.83	260.526
4786.3	259.456
4813.93	258.391
4841.72	257.332
4869.68	256.277
4897.79	255.228
4926.06	254.184
4954.5	253.145
4983.1	252.11
5011.87	251.081
5040.81	250.057
5069.91	249.038
5099.18	248.024
5128.61	247.015
5158.22	246.011
5188	245.011
5217.95	244.017
5248.07	243.027
5278.37	242.043
5308.84	241.063
5339.49	240.088
5370.32	239.117
5401.32	238.152
5432.5	237.191
5463.87	236.235
5495.41	235.284
5527.13	234.338
5559.04	233.396
5591.14	232.459
5623.41	231.526
5655.88	230.598
5688.53	229.674
5721.37	228.756
5754.4	227.842
5787.62	226.932
5821.03	226.027
5854.64	225.126
5888.44	224.23
5922.43	223.339
5956.62	222.451
5991.01	221.569
6025.6	220.691
6060.38	219.816
6095.37	218.947
6130.56	218.082
6165.95	217.221
6201.55	216.364
6237.35	215.512
6273.36	214.664
6309.57	213.821
6346	212.981
6382.63	212.146
6419.48	211.316
6456.54	210.489
6493.82	209.666
6531.31	208.848
6569.01	208.033
6606.93	207.223
6645.08	206.417
6683.44	205.616
6722.02	204.818
6760.83	204.024
6799.86	203.234
6839.12	202.449
6878.6	201.667
6918.31	200.889
6958.25	200.115
6998.42	199.346
7038.82	198.58
7079.46	197.818
7120.33	197.06
7161.43	196.306
7202.78	195.556
7244.36	194.81
7286.18	194.067
7328.25	193.328
7370.55	192.594
7413.1	191.862
7455.9	191.135
7498.94	190.411
7542.23	189.692
7585.78	188.976
7629.57	188.263
7673.61	187.554
7717.92	186.85
7762.47	186.148
7807.28	185.451
7852.36	184.757
7897.69	184.066
7943.28	183.379
7989.14	182.696
8035.26	182.016
8081.65	181.34
8128.31	180.667
8175.23	179.998
8222.43	179.333
8269.9	178.671
8317.64	178.012
8365.66	177.356
8413.95	176.705
8462.53	176.056
8511.38	175.411
8560.52	174.77
8609.94	174.132
8659.64	173.497
8709.64	172.866
8759.92	172.238
8810.49	171.613
8861.35	170.992
8912.51	170.373
8963.96	169.758
9015.71	169.147
9067.76	168.539
9120.11	167.933
9172.76	167.332
9225.71	166.733
9278.97	166.137
9332.54	165.545
9386.42	164.956
9440.61	164.37
9495.11	163.787
9549.93	163.207
9605.06	162.631
9660.51	162.057
9716.28	161.487
9772.37	160.919
9828.79	160.355
9885.53	159.794
9942.6	159.235
10000	158.68
10057.7	158.128
10115.8	157.578
10174.2	157.032
10232.9	156.489
10292	155.948
10351.4	155.411
10411.2	154.876
10471.3	154.345
10531.7	153.816
10592.5	153.29
10653.7	152.767
10715.2	152.247
10777.1	151.729
10839.3	151.215
10901.8	150.703
10964.8	150.194
11028.1	149.688
11091.7	149.185
11155.8	148.685
11220.2	148.187
11285	147.692
11350.1	147.2
11415.6	146.71
11481.5	146.223
11547.8	145.739
11614.5	145.257
11681.5	144.778
11749	144.302
11816.8	143.829
11885	143.358
11953.6	142.889
12022.6	142.424
12092.1	141.961
12161.9	141.5
12232.1	141.042
12302.7	140.587
12373.7	140.134
12445.1	139.684
12517	139.236
12589.3	138.791
12661.9	138.348
12735	137.908
12808.6	137.47
12882.5	137.035
12956.9	136.602
13031.7	136.171
13106.9	135.744
13182.6	135.318
13258.7	134.895
13335.2	134.474
13412.2	134.056
13489.6	133.64
13567.5	133.226
13645.8	132.815
13724.6	132.406
13803.8	132
13883.5	131.596
13963.7	131.194
14044.3	130.794
14125.4	130.397
14206.9	130.002
14288.9	129.609
14371.4	129.219
14454.4	128.831
14537.8	128.445
14621.8	128.061
14706.2	127.68
14791.1	127.3
14876.5	126.923
14962.4	126.548
15048.7	126.176
15135.6	125.805
15223	125.437
15310.9	125.071
15399.3	124.707
15488.2	124.345
15577.6	123.985
15667.5	123.628
15758	123.272
15848.9	122.919
15940.4	122.567
16032.5	122.218
16125	121.871
16218.1	121.526
16311.7	121.183
16405.9	120.842
16500.6	120.503
16595.9	120.166
16691.7	119.831
16788	119.498
16885	119.167
16982.4	118.838
17080.5	118.511
17179.1	118.186
17278.3	117.863
17378	117.542
17478.3	117.222
17579.2	116.905
17680.7	116.59
17782.8	116.277
17885.5	115.965
17988.7	115.655
18092.6	115.348
18197	115.042
18302.1	114.738
18407.7	114.436
18514	114.136
18620.9	113.837
18728.4	113.541
18836.5	113.246
18945.2	112.953
19054.6	112.662
19164.6	112.373
19275.2	112.086
19386.5	111.8
19498.4	111.516
19611	111.234
19724.2	110.954
19838.1	110.675
19952.6	110.398
20067.8	110.123
20183.7	109.85
20300.2	109.578
20417.4	109.308
20535.3	109.04
20653.8	108.774
20773	108.509
20893	108.246
21013.6	107.984
21134.9	107.725
21256.9	107.466
21379.6	107.21
21503	106.955
21627.2	106.702
21752	106.451
21877.6	106.201
22003.9	105.953
22130.9	105.706
22258.7	105.461
22387.2	105.217
22516.5	104.976
22646.4	104.735
22777.2	104.497
22908.7	104.26
23040.9	104.024
23173.9	103.79
23307.7	103.558
23442.3	103.327
23577.6	103.098
23713.7	102.87
23850.6	102.644
23988.3	102.419
24126.8	102.196
24266.1	101.974
24406.2	101.754
24547.1	101.535
24688.8	101.317
24831.3	101.102
24974.7	100.887
25118.9	100.674
25263.9	100.463
25409.7	100.253
25556.4	100.044
25704	99.8374
25852.3	99.6317
26001.6	99.4275
26151.7	99.2247
26302.7	99.0233
26454.5	98.8232
26607.3	98.6247
26760.9	98.4274
26915.3	98.2316
27070.7	98.0368
27227	97.8433
27384.2	97.6512
27542.3	97.4605
27701.3	97.2708
27861.2	97.0828
28022.1	96.8961
28183.8	96.7106
28346.5	96.5265
28510.2	96.3437
28674.8	96.1622
28840.3	95.9822
29006.8	95.8033
29174.3	95.6258
29342.7	95.4495
29512.1	95.2746
29682.5	95.1009
29853.8	94.9286
30026.2	94.757
30199.5	94.5867
30373.9	94.4176
30549.2	94.2497
30725.6	94.0831
30903	93.9175
31081.4	93.7529
31260.8	93.5894
31441.3	93.4272
31622.8	93.2661
31805.3	93.1063
31989	92.9477
32173.6	92.7903
32359.4	92.6341
32546.2	92.479
32734.1	92.3252
32923	92.1726
33113.1	92.0212
33304.3	91.8708
33496.5	91.7217
33689.9	91.5736
33884.4	91.4264
34080	91.28
34276.8	91.1349
34474.7	90.9908
34673.7	90.8479
34873.9	90.7061
35075.2	90.5655
35277.7	90.4259
35481.3	90.2876
35686.2	90.1501
35892.2	90.0139
36099.4	89.8788
36307.8	89.7448
36517.4	89.6119
36728.2	89.4799
36940.3	89.349
37153.5	89.2194
37368	89.0906
37583.7	88.9631
37800.7	88.8358
38018.9	88.7096
38238.4	88.5844
38459.2	88.4601
38681.2	88.3361
38904.5	88.2124
39129.1	88.0897
39355	87.9679
39582.2	87.8471
39810.7	87.7275
40040.5	87.6087
40271.7	87.4912
40504.2	87.3743
40738	87.2587
40973.2	87.144
41209.8	87.0302
41447.7	86.9175
41686.9	86.8057
41927.6	86.6949
42169.7	86.585
42413.1	86.4762
42658	86.3682
42904.2	86.2613
43151.9	86.1552
43401	86.05
43651.6	85.9449
43903.6	85.8407
44157	85.7374
44412	85.635
44668.4	85.5336
44926.2	85.433
45185.6	85.3334
45446.5	85.2347
45708.8	85.137
45972.7	85.0401
46238.1	84.9439
46505	84.8479
46773.5	84.7525
47043.5	84.6581
47315.1	84.5645
47588.3	84.4718
47863	84.3798
48139.3	84.289
48417.2	84.1988
48696.8	84.1097
48977.9	84.021
49260.6	83.9332
49545	83.8452
49831	83.758
50118.7	83.6718
50408.1	83.5851
50699.1	83.4993
50991.8	83.4142
51286.1	83.3299
51582.2	83.2464
51880	83.1637
52179.5	83.0818
52480.7	83.0007
52783.7	82.9204
53088.4	82.841
53394.9	82.7621
53703.2	82.6842
54013.2	82.6072
54325	82.5307
54638.7	82.4551
54954.1	82.3802
55271.3	82.3061
55590.4	82.2329
55911.4	82.1603
56234.1	82.0884
56558.8	82.0174
56885.3	81.947
57213.7	81.8774
57544	81.8086
57876.2	81.7404
58210.3	81.673
58546.4	81.6064
58884.4	81.5404
59224.3	81.4751
59566.2	81.4105
59910.1	81.3468
60256	81.2838
60603.8	81.2213
60953.7	81.1595
61305.6	81.0986
61659.5	81.0382
62015.5	80.9786
62373.5	80.9196
62733.6	80.8614
63095.7	80.8037
63460	80.7469
63826.3	80.6906
64194.8	80.6351
64565.4	80.5801
64938.2	80.5259
65313.1	80.4723
65690.1	80.4193
66069.3	80.367
66450.8	80.3154
66834.4	80.2643
67220.2	80.2139
67608.3	80.1642
67998.6	80.1151
68391.2	80.0667
68786	80.0188
69183.1	79.9714
69582.5	79.9249
69984.2	79.8789
70388.2	79.8335
70794.6	79.7888
71203.3	79.7446
71614.3	79.7011
72027.8	79.658
72443.6	79.6157
72861.8	79.5738
73282.5	79.5328
73705.5	79.4922
74131	79.4521
74559	79.4127
74989.4	79.3738
75422.3	79.3355
75857.8	79.2977
76295.7	79.2606
76736.1	79.224
77179.2	79.188
77624.7	79.1526
78072.8	79.1176
78523.6	79.0833
78976.9	79.0494
79432.8	79.0162
79891.4	78.9834
80352.6	78.9512
80816.5	78.9196
81283.1	78.8884
81752.3	78.8579
82224.3	78.8278
82699	78.7983
83176.4	78.7692
83656.6	78.7407
84139.5	78.7127
84625.3	78.6852
85113.8	78.6583
85605.2	78.6318
86099.4	78.6059
86596.4	78.5804
87096.4	78.5554
87599.2	78.531
88104.9	78.5071
88613.5	78.4836
89125.1	78.4606
89639.6	78.4381
90157.1	78.4162
90677.6	78.3946
91201.1	78.3736
91727.6	78.3529
92257.1	78.3329
92789.7	78.3132
93325.4	78.294
93864.2	78.2753
94406.1	78.2571
94951.1	78.2391
95499.3	78.2218
96050.6	78.2049
96605.1	78.1884
97162.8	78.1724
97723.7	78.1569
98287.9	78.1417
98855.3	78.127
99426	78.1128
100000	78.0989
100577	78.0854
101158	78.0725
101742	78.06
102329	78.0479
102920	78.0362
103514	78.0249
104112	78.014
104713	78.0035
105317	77.9935
105925	77.9839
106537	77.9746
107152	77.9658
107771	77.9573
108393	77.9493
109018	77.9416
109648	77.9343
110281	77.9275
110917	77.9211
111558	77.9149
112202	77.9092
112850	77.9039
113501	77.8988
114156	77.8944
114815	77.8902
115478	77.8862
116145	77.8828
116815	77.8798
117490	77.8769
118168	77.8746
118850	77.8725
119536	77.8709
120226	77.8695
120921	77.8686
121619	77.8679
122321	77.8677
123027	77.8678
123737	77.8681
124451	77.869
125170	77.8701
125893	77.8714
126619	77.8733
127350	77.8754
128086	77.8778
128825	77.8805
129569	77.8836
130317	77.887
131069	77.8907
131826	77.8947
132587	77.8991
133352	77.9037
134122	77.9088
134896	77.914
135675	77.9197
136458	77.9255
137246	77.9317
138038	77.9382
138835	77.9451
139637	77.9522
140443	77.9596
141254	77.9674
142069	77.9753
142889	77.9835
143714	77.9921
144544	78.001
145378	78.0101
146218	78.0195
147062	78.0291
147911	78.0391
148765	78.0494
149624	78.0598
150487	78.0708
151356	78.0817
152230	78.0931
153109	78.1046
153993	78.1165
154882	78.1287
155776	78.1411
156675	78.1536
157580	78.1665
158489	78.1796
159404	78.193
160325	78.2068
161250	78.2206
162181	78.2346
163117	78.2491
164059	78.2637
165006	78.2787
165959	78.2937
166917	78.3091
167880	78.3247
168850	78.3405
169824	78.3566
170805	78.3728
171791	78.3895
172783	78.4062
173780	78.4232
174783	78.4402
175792	78.4576
176807	78.4754
177828	78.4932
178855	78.5113
179887	78.5296
180926	78.5481
181970	78.5667
183021	78.5857
184077	78.6049
185140	78.6242
186209	78.6438
187284	78.6636
188365	78.6835
189452	78.7037
190546	78.724
191646	78.7446
192752	78.7654
193865	78.7864
194984	78.8075
196110	78.8288
197242	78.8504
198381	78.8719
199526	78.894
200678	78.916
201837	78.9383
203002	78.9607
204174	78.9833
205353	79.0062
206538	79.0292
207730	79.0525
208930	79.0758
210136	79.0994
211349	79.123
212569	79.1469
213796	79.1709
215030	79.1951
216272	79.2196
217520	79.2441
218776	79.2688
220039	79.2937
221309	79.3186
222587	79.3439
223872	79.3692
225165	79.3948
226464	79.4204
227772	79.4462
229087	79.4722
230409	79.4984
231739	79.5246
233077	79.5511
234423	79.5776
235776	79.6044
237137	79.6312
238506	79.6582
239883	79.6854
241268	79.7127
242661	79.7402
244062	79.7677
245471	79.7954
246888	79.8233
248313	79.8514
249747	79.8795
251189	79.9078
252639	79.9362
254097	79.9647
255564	79.9934
257040	80.0222
258523	80.0511
260016	80.0801
261517	80.1092
263027	80.1386
264545	80.168
266073	80.1974
267609	80.2272
269153	80.2569
270707	80.2869
272270	80.3168
273842	80.347
275423	80.3772
277013	80.4077
278612	80.4381
280221	80.4687
281838	80.4993
283465	80.5302
285102	80.5612
286748	80.5923
288403	80.6233
290068	80.6547
291743	80.6859
293427	80.7174
295121	80.749
296825	80.7806
298538	80.8124
300262	80.8443
301995	80.8762
303739	80.9083
305492	80.9404
307256	80.9727
309030	81.0051
310814	81.0375
312608	81.07
314413	81.1026
316228	81.1354
318053	81.1682
319890	81.2011
321736	81.2341
323594	81.2672
325462	81.3003
327341	81.3337
329230	81.3669
331131	81.4004
333043	81.4338
334965	81.4674
336899	81.5011
338844	81.5349
340800	81.5687
342768	81.6026
344747	81.6366
346737	81.6707
348739	81.7048
350752	81.739
352777	81.7734
354813	81.8078
356862	81.8422
358922	81.8767
360994	81.9114
363078	81.9459
365174	81.9808
367282	82.0155
369403	82.0505
371535	82.0853
373680	82.1205
375837	82.1555
378007	82.1906
380189	82.2259
382384	82.261
384592	82.2964
386812	82.3318
389045	82.3673
391291	82.4027
393550	82.4384
395822	82.474
398107	82.5097
400405	82.5455
402717	82.5814
405042	82.6172
407380	82.6532
409732	82.6891
412098	82.7252
414477	82.7614
416869	82.7975
419276	82.8338
421697	82.87
424131	82.9063
426580	82.9427
429042	82.9791
431519	83.0155
434010	83.0522
436516	83.0886
439036	83.1253
441570	83.1619
444120	83.1986
446684	83.2355
449262	83.2722
451856	83.309
454465	83.3459
457088	83.3829
459727	83.42
462381	83.4569
465050	83.494
467735	83.5312
470435	83.5684
473151	83.6055
475883	83.6427
478630	83.6801
481393	83.7174
484172	83.7547
486968	83.7922
489779	83.8296
492606	83.867
495450	83.9046
498310	83.9421
501187	83.9797
504081	84.0173
506991	84.055
509918	84.0926
512861	84.1305
515822	84.1681
518800	84.206
521795	84.2437
524807	84.2817
527837	84.3194
530884	84.3574
533949	84.3954
537032	84.4333
540132	84.4714
543250	84.5094
546387	84.5474
549541	84.5855
552713	84.6237
555904	84.6619
559114	84.7
562341	84.7382
565588	84.7764
568853	84.8147
572137	84.853
575440	84.8913
578762	84.9297
582103	84.968
585464	85.0064
588844	85.0447
592243	85.0832
595662	85.1216
599101	85.16
602560	85.1987
606038	85.237
609537	85.2756
613056	85.3142
616595	85.3528
620155	85.3913
623735	85.4299
627336	85.4685
630957	85.5073
634600	85.5459
638263	85.5846
641948	85.6234
645654	85.662
649382	85.7007
653131	85.7396
656901	85.7784
660693	85.8171
664508	85.8559
668344	85.8947
672202	85.9336
676083	85.9724
679986	86.0111
683912	86.0502
687860	86.089
691831	86.128
695825	86.1668
699842	86.2058
703882	86.2447
707946	86.2837
712033	86.3226
716143	86.3617
720278	86.4006
724436	86.4396
728618	86.4787
732825	86.5177
737055	86.5567
741310	86.5957
745590	86.6348
749894	86.6739
754223	86.7129
758578	86.7521
762957	86.791
767361	86.8302
771792	86.8693
776247	86.9084
780728	86.9474
785236	86.9867
789769	87.0257
794328	87.0649
798914	87.104
803526	87.1432
808165	87.1824
812831	87.2214
817523	87.2607
822243	87.2997
826990	87.339
831764	87.3782
836566	87.4173
841395	87.4565
846253	87.4958
851138	87.5348
856052	87.5741
860994	87.6134
865964	87.6525
870964	87.6918
875992	87.731
881049	87.7701
886135	87.8093
891251	87.8487
896396	87.8879
901571	87.9271
906776	87.9663
912011	88.0054
917276	88.0447
922571	88.084
927897	88.1232
933254	88.1624
938642	88.2017
944061	88.241
949511	88.2801
954993	88.3192
960506	88.3586
966051	88.3978
971628	88.437
977237	88.4762
982879	88.5155
988553	88.5547
994260	88.5939
1e+06	88.6331
1.00577e+06	88.6724
1.01158e+06	88.7116
1.01742e+06	88.7509
1.02329e+06	88.79
1.0292e+06	88.8292
1.03514e+06	88.8684
1.04112e+06	88.9077
1.04713e+06	88.9468
1.05317e+06	88.9859
1.05925e+06	89.0252
1.06537e+06	89.0643
1.07152e+06	89.1035
1.07771e+06	89.1428
1.08393e+06	89.182
1.09018e+06	89.2211
1.09648e+06	89.2602
1.10281e+06	89.2996
1.10917e+06	89.3386
1.11558e+06	89.3778
1.12202e+06	89.417
1.1285e+06	89.456
1.13501e+06	89.4952
1.14156e+06	89.5343
1.14815e+06	89.5734
1.15478e+06	89.6126
1.16145e+06	89.6518
1.16815e+06	89.6909
1.1749e+06	89.73
1.18168e+06	89.7691
1.1885e+06	89.8081
1.19536e+06	89.8473
1.20226e+06	89.8864
1.20921e+06	89.9254
1.21619e+06	89.9645
1.22321e+06	90.0035
1.23027e+06	90.0427
1.23737e+06	90.0817
1.24451e+06	90.1207
1.2517e+06	90.1597
1.25893e+06	90.1987
1.26619e+06	90.2378
1.2735e+06	90.2768
1.28086e+06	90.3158
1.28825e+06	90.3547
1.29569e+06	90.3938
1.30317e+06	90.4327
1.31069e+06	90.4718
1.31826e+06	90.5107
1.32587e+06	90.5497
1.33352e+06	90.5886
1.34122e+06	90.6276
1.34896e+06	90.6665
1.35675e+06	90.7054
1.36458e+06	90.7443
1.37246e+06	90.7832
1.38038e+06	90.8221
1.38835e+06	90.8612
1.39637e+06	90.8999
1.40443e+06	90.9388
1.41254e+06	90.9777
1.42069e+06	91.0166
1.42889e+06	91.0554
1.43714e+06	91.0942
1.44544e+06	91.133
1.45378e+06	91.1718
1.46218e+06	91.2107
1.47062e+06	91.2495
1.47911e+06	91.2881
1.48765e+06	91.327
1.49624e+06	91.3657
1.50487e+06	91.4044
1.51356e+06	91.4432
1.5223e+06	91.482
1.53109e+06	91.5207
1.53993e+06	91.5594
1.54882e+06	91.5981
1.55776e+06	91.6368
1.56675e+06	91.6755
1.5758e+06	91.7142
1.58489e+06	91.7528
1.59404e+06	91.7915
1.60325e+06	91.83
1.6125e+06	91.8687
1.62181e+06	91.9073
1.63117e+06	91.946
1.64059e+06	91.9845
1.65006e+06	92.0231
1.65959e+06	92.0617
1.66917e+06	92.1002
1.6788e+06	92.1388
1.6885e+06	92.1774
1.69824e+06	92.2159
1.70805e+06	92.2543
1.71791e+06	92.2929
1.72783e+06	92.3313
1.7378e+06	92.3698
1.74783e+06	92.4083
1.75792e+06	92.4467
1.76807e+06	92.4851
1.77828e+06	92.5235
1.78855e+06	92.562
1.79887e+06	92.6003
1.80926e+06	92.6388
1.8197e+06	92.6772
1.83021e+06	92.7156
1.84077e+06	92.7538
1.8514e+06	92.7921
1.86209e+06	92.8306
1.87284e+06	92.8688
1.88365e+06	92.9071
1.89452e+06	92.9453
1.90546e+06	92.9837
1.91646e+06	93.0221
1.92752e+06	93.0602
1.93865e+06	93.0984
1.94984e+06	93.1367
1.9611e+06	93.1748
1.97242e+06	93.2131
1.98381e+06	93.2512
1.99526e+06	93.2895
2.00678e+06	93.3276
2.01837e+06	93.3657
2.03002e+06	93.4038
2.04174e+06	93.4419
2.05353e+06	93.4801
2.06538e+06	93.5182
2.0773e+06	93.5563
2.0893e+06	93.5944
2.10136e+06	93.6325
2.11349e+06	93.6705
2.12569e+06	93.7085
2.13796e+06	93.7463
2.1503e+06	93.7843
2.16272e+06	93.8224
2.1752e+06	93.8604
2.18776e+06	93.8983
2.20039e+06	93.9362
2.21309e+06	93.9742
2.22587e+06	94.0121
2.23872e+06	94.0501
2.25165e+06	94.0879
2.26464e+06	94.1257
2.27772e+06	94.1636
2.29087e+06	94.2015
2.30409e+06	94.2393
2.31739e+06	94.2772
2.33077e+06	94.3148
2.34423e+06	94.3526
2.35776e+06	94.3904
2.37137e+06	94.4282
2.38506e+06	94.4659
2.39883e+06	94.5038
2.41268e+06	94.5414
2.42661e+06	94.5791
2.44062e+06	94.6168
2.45471e+06	94.6544
2.46888e+06	94.692
2.48313e+06	94.7299
2.49747e+06	94.7674
2.51189e+06	94.805
2.52639e+06	94.8426
2.54097e+06	94.8801
2.55564e+06	94.9177
2.5704e+06	94.9553
2.58523e+06	94.9927
2.60016e+06	95.0304
2.61517e+06	95.0678
2.63027e+06	95.1051
2.64545e+06	95.1428
2.66073e+06	95.1803
2.67609e+06	95.2177
2.69153e+06	95.2551
2.70707e+06	95.2925
2.7227e+06	95.3299
2.73842e+06	95.3673
2.75423e+06	95.4046
2.77013e+06	95.442
2.78612e+06	95.4793
2.80221e+06	95.5167
2.81838e+06	95.554
2.83465e+06	95.5913
2.85102e+06	95.6286
2.86748e+06	95.6659
2.88403e+06	95.7032
2.90068e+06	95.7402
2.91743e+06	95.7775
2.93427e+06	95.8148
2.95121e+06	95.852
2.96825e+06	95.8892
2.98538e+06	95.9263
3.00262e+06	95.9634
3.01995e+06	96.0006
3.03739e+06	96.0377
3.05492e+06	96.0748
3.07256e+06	96.1117
3.0903e+06	96.1489
3.10814e+06	96.186
3.12608e+06	96.223
3.14413e+06	96.26
3.16228e+06	96.297
3.18053e+06	96.334
3.1989e+06	96.371
3.21736e+06	96.408
3.23594e+06	96.4447
3.25462e+06	96.4818
3.27341e+06	96.5188
3.2923e+06	96.5556
3.31131e+06	96.5925
3.33043e+06	96.6292
3.34965e+06	96.6663
3.36899e+06	96.703
3.38844e+06	96.7398
3.408e+06	96.7767
3.42768e+06	96.8134
3.44747e+06	96.8502
3.46737e+06	96.8869
3.48739e+06	96.9237
3.50752e+06	96.9604
3.52777e+06	96.9971
3.54813e+06	97.0338
3.56862e+06	97.0705
3.58922e+06	97.1071
3.60994e+06	97.1437
3.63078e+06	97.1804
3.65174e+06	97.217
3.67282e+06	97.2535
3.69403e+06	97.2902
3.71535e+06	97.3267
3.7368e+06	97.3631
3.75837e+06	97.3997
3.78007e+06	97.4363
3.80189e+06	97.4727
3.82384e+06	97.5092
3.84592e+06	97.5456
3.86812e+06	97.582
3.89045e+06	97.6185
3.91291e+06	97.655
3.9355e+06	97.6912
3.95822e+06	97.7277
3.98107e+06	97.7641
4.00405e+06	97.8004
4.02717e+06	97.8368
4.05042e+06	97.8731
4.0738e+06	97.9094
4.09732e+06	97.9457
4.12098e+06	97.982
4.14477e+06	98.0182
4.16869e+06	98.0544
4.19276e+06	98.0908
4.21697e+06	98.1269
4.24131e+06	98.163
4.2658e+06	98.1992
4.29042e+06	98.2353
4.31519e+06	98.2714
4.3401e+06	98.3076
4.36516e+06	98.3437
4.39036e+06	98.3796
4.4157e+06	98.4158
4.4412e+06	98.4519
4.46684e+06	98.488
4.49262e+06	98.5239
4.51856e+06	98.56
4.54465e+06	98.596
4.57088e+06	98.6319
4.59727e+06	98.6678
4.62381e+06	98.7039
4.6505e+06	98.7398
4.67735e+06	98.7757
4.70435e+06	98.8116
4.73151e+06	98.8475
4.75883e+06	98.8832
4.7863e+06	98.9191
4.81393e+06	98.9549
4.84172e+06	98.9907
4.86968e+06	99.0265
4.89779e+06	99.0623
4.92606e+06	99.0981
4.9545e+06	99.1337
4.9831e+06	99.1696
5.01187e+06	99.2051
5.04081e+06	99.241
5.06991e+06	99.2766
5.09918e+06	99.3121
5.12861e+06	99.3479
5.15822e+06	99.3835
5.188e+06	99.4191
5.21795e+06	99.4546
5.24807e+06	99.4902
5.27837e+06	99.5258
5.30884e+06	99.5614
5.33949e+06	99.5969
5.37032e+06	99.6324
5.40132e+06	99.6678
5.4325e+06	99.7033
5.46387e+06	99.7386
5.49541e+06	99.7741
5.52713e+06	99.8095
5.55904e+06	99.845
5.59114e+06	99.8803
5.62341e+06	99.9156
5.65588e+06	99.951
5.68853e+06	99.9865
5.72137e+06	100.022
5.7544e+06	100.057
5.78762e+06	100.092
5.82103e+06	100.128
5.85464e+06	100.163
5.88844e+06	100.198
5.92243e+06	100.233
5.95662e+06	100.268
5.99101e+06	100.304
6.0256e+06	100.339
6.06038e+06	100.374
6.09537e+06	100.409
6.13056e+06	100.444
6.16595e+06	100.479
6.20155e+06	100.514
6.23735e+06	100.549
6.27336e+06	100.584
6.30957e+06	100.619
6.346e+06	100.654
6.38263e+06	100.69
6.41948e+06	100.724
6.45654e+06	100.759
6.49382e+06	100.794
6.53131e+06	100.829
6.56901e+06	100.864
6.60693e+06	100.899
6.64508e+06	100.934
6.68344e+06	100.969
6.72202e+06	101.004
6.76083e+06	101.038
6.79986e+06	101.073
6.83912e+06	101.108
6.8786e+06	101.143
6.91831e+06	101.177
6.95825e+06	101.212
6.99842e+06	101.247
7.03882e+06	101.282
7.07946e+06	101.316
7.12033e+06	101.351
7.16143e+06	101.386
7.20278e+06	101.42
7.24436e+06	101.455
7.28618e+06	101.489
7.32825e+06	101.524
7.37055e+06	101.559
7.4131e+06	101.593
7.4559e+06	101.628
7.49894e+06	101.662
7.54223e+06	101.696
7.58578e+06	101.731
7.62957e+06	101.765
7.67361e+06	101.8
7.71792e+06	101.834
7.76247e+06	101.869
7.80728e+06	101.903
7.85236e+06	101.937
7.89769e+06	101.972
7.94328e+06	102.006
7.98914e+06	102.04
8.03526e+06	102.075
8.08165e+06	102.109
8.12831e+06	102.143
8.17523e+06	102.177
8.22243e+06	102.212
8.2699e+06	102.246
8.31764e+06	102.28
8.36566e+06	102.314
8.41395e+06	102.348
8.46253e+06	102.382
8.51138e+06	102.416
8.56052e+06	102.451
8.60994e+06	102.485
8.65964e+06	102.519
8.70964e+06	102.553
8.75992e+06	102.587
8.81049e+06	102.621
8.86135e+06	102.655
8.91251e+06	102.689
8.96396e+06	102.723
9.01571e+06	102.757
9.06776e+06	102.79
9.12011e+06	102.824
9.17276e+06	102.858
9.22571e+06	102.892
9.27897e+06	102.926
9.33254e+06	102.96
9.38642e+06	102.994
9.44061e+06	103.027
9.49511e+06	103.061
9.54993e+06	103.095
9.60506e+06	103.129
9.66051e+06	103.162
9.71628e+06	103.196
9.77237e+06	103.23
9.82879e+06	103.263
9.88553e+06	103.297
9.9426e+06	103.331
1e+07	103.364
