E [MeV]	dEdx [keV/microm]
0.001	22.7993
0.00100577	22.8654
0.00101158	22.9317
0.00101742	22.9981
0.00102329	23.0648
0.0010292	23.1317
0.00103514	23.1987
0.00104112	23.266
0.00104713	23.3334
0.00105317	23.4011
0.00105925	23.4689
0.00106537	23.5369
0.00107152	23.6051
0.00107771	23.6735
0.00108393	23.7422
0.00109018	23.811
0.00109648	23.88
0.00110281	23.9492
0.00110917	24.0186
0.00111558	24.0882
0.00112202	24.158
0.0011285	24.228
0.00113501	24.2982
0.00114156	24.3687
0.00114815	24.4393
0.00115478	24.5101
0.00116145	24.5811
0.00116815	24.6524
0.0011749	24.7238
0.00118168	24.7954
0.0011885	24.8673
0.00119536	24.9393
0.00120226	25.0116
0.00120921	25.0841
0.00121619	25.1567
0.00122321	25.2297
0.00123027	25.3028
0.00123737	25.3761
0.00124451	25.4496
0.0012517	25.5233
0.00125893	25.5972
0.00126619	25.6714
0.0012735	25.7458
0.00128086	25.8204
0.00128825	25.8952
0.00129569	25.9702
0.00130317	26.0454
0.00131069	26.1209
0.00131826	26.1966
0.00132587	26.2724
0.00133352	26.3486
0.00134122	26.4249
0.00134896	26.5014
0.00135675	26.5782
0.00136458	26.6552
0.00137246	26.7324
0.00138038	26.8098
0.00138835	26.8875
0.00139637	26.9654
0.00140443	27.0434
0.00141254	27.1218
0.00142069	27.2003
0.00142889	27.2791
0.00143714	27.3581
0.00144544	27.4374
0.00145378	27.5168
0.00146218	27.5965
0.00147062	27.6765
0.00147911	27.7566
0.00148765	27.837
0.00149624	27.9176
0.00150487	27.9985
0.00151356	28.0795
0.0015223	28.1608
0.00153109	28.2424
0.00153993	28.3242
0.00154882	28.4062
0.00155776	28.4885
0.00156675	28.5709
0.0015758	28.6537
0.00158489	28.7367
0.00159404	28.8199
0.00160325	28.9033
0.0016125	28.987
0.00162181	29.0709
0.00163117	29.1551
0.00164059	29.2395
0.00165006	29.3242
0.00165959	29.4091
0.00166917	29.4942
0.0016788	29.5796
0.0016885	29.6653
0.00169824	29.7511
0.00170805	29.8373
0.00171791	29.9237
0.00172783	30.0103
0.0017378	30.0972
0.00174783	30.1843
0.00175792	30.2717
0.00176807	30.3593
0.00177828	30.4472
0.00178855	30.5353
0.00179887	30.6237
0.00180926	30.7124
0.0018197	30.8013
0.00183021	30.8904
0.00184077	30.9799
0.0018514	31.0695
0.00186209	31.1595
0.00187284	31.2497
0.00188365	31.3401
0.00189452	31.4308
0.00190546	31.5218
0.00191646	31.613
0.00192752	31.7045
0.00193865	31.7963
0.00194984	31.8883
0.0019611	31.9806
0.00197242	32.0732
0.00198381	32.166
0.00199526	32.2591
0.00200678	32.3525
0.00201837	32.4461
0.00203002	32.54
0.00204174	32.6342
0.00205353	32.7286
0.00206538	32.8233
0.0020773	32.9183
0.0020893	33.0136
0.00210136	33.1091
0.00211349	33.2049
0.00212569	33.301
0.00213796	33.3974
0.0021503	33.494
0.00216272	33.5909
0.0021752	33.6881
0.00218776	33.7856
0.00220039	33.8834
0.00221309	33.9814
0.00222587	34.0797
0.00223872	34.1784
0.00225165	34.2772
0.00226464	34.3764
0.00227772	34.4759
0.00229087	34.5757
0.00230409	34.6757
0.00231739	34.776
0.00233077	34.8766
0.00234423	34.9776
0.00235776	35.0787
0.00237137	35.1802
0.00238506	35.282
0.00239883	35.3841
0.00241268	35.4865
0.00242661	35.5891
0.00244062	35.6921
0.00245471	35.7953
0.00246888	35.8989
0.00248313	36.0027
0.00249747	36.1069
0.00251189	36.2113
0.00252639	36.3161
0.00254097	36.4212
0.00255564	36.5265
0.0025704	36.6322
0.00258523	36.7381
0.00260016	36.8444
0.00261517	36.951
0.00263027	37.0579
0.00264545	37.1651
0.00266073	37.2726
0.00267609	37.3804
0.00269153	37.4885
0.00270707	37.597
0.0027227	37.7057
0.00273842	37.8148
0.00275423	37.9241
0.00277013	38.0338
0.00278612	38.1438
0.00280221	38.2542
0.00281838	38.3648
0.00283465	38.4758
0.00285102	38.587
0.00286748	38.6986
0.00288403	38.8106
0.00290068	38.9228
0.00291743	39.0354
0.00293427	39.1483
0.00295121	39.2615
0.00296825	39.375
0.00298538	39.4889
0.00300262	39.6031
0.00301995	39.7177
0.00303739	39.8325
0.00305492	39.9477
0.00307256	40.0632
0.0030903	40.1791
0.00310814	40.2953
0.00312608	40.4118
0.00314413	40.5287
0.00316228	40.6459
0.00318053	40.7634
0.0031989	40.8813
0.00321736	40.9995
0.00323594	41.118
0.00325462	41.2369
0.00327341	41.3562
0.0032923	41.4757
0.00331131	41.5957
0.00333043	41.716
0.00334965	41.8366
0.00336899	41.9576
0.00338844	42.0789
0.003408	42.2005
0.00342768	42.3225
0.00344747	42.4449
0.00346737	42.5676
0.00348739	42.6907
0.00350752	42.8142
0.00352777	42.9379
0.00354813	43.0621
0.00356862	43.1866
0.00358922	43.3114
0.00360994	43.4367
0.00363078	43.5622
0.00365174	43.6882
0.00367282	43.8145
0.00369403	43.9411
0.00371535	44.0682
0.0037368	44.1956
0.00375837	44.3233
0.00378007	44.4515
0.00380189	44.58
0.00382384	44.7089
0.00384592	44.8381
0.00386812	44.9677
0.00389045	45.0977
0.00391291	45.2281
0.0039355	45.3588
0.00395822	45.4899
0.00398107	45.6214
0.00400405	45.7533
0.00402717	45.8856
0.00405042	46.0182
0.0040738	46.1512
0.00409732	46.2846
0.00412098	46.4184
0.00414477	46.5526
0.00416869	46.6872
0.00419276	46.8221
0.00421697	46.9574
0.00424131	47.0932
0.0042658	47.2293
0.00429042	47.3658
0.00431519	47.5027
0.0043401	47.64
0.00436516	47.7777
0.00439036	47.9158
0.0044157	48.0543
0.0044412	48.1932
0.00446684	48.3325
0.00449262	48.4722
0.00451856	48.6123
0.00454465	48.7528
0.00457088	48.8937
0.00459727	49.035
0.00462381	49.1767
0.0046505	49.3188
0.00467735	49.4613
0.00470435	49.6043
0.00473151	49.7584
0.00475883	49.9022
0.0047863	50.0463
0.00481393	50.1909
0.00484172	50.336
0.00486968	50.4814
0.00489779	50.6272
0.00492606	50.7735
0.0049545	50.9202
0.0049831	51.0673
0.00501187	51.2149
0.00504081	51.3629
0.00506991	51.5112
0.00509918	51.6601
0.00512861	51.8209
0.00515822	51.8214
0.005188	51.9336
0.00521795	52.0733
0.00524807	52.2355
0.00527837	52.3982
0.00530884	52.5493
0.00533949	52.7009
0.00537032	52.7513
0.00540132	52.9034
0.0054325	53.056
0.00546387	53.1773
0.00549541	53.3306
0.00552713	53.4845
0.00555904	53.6387
0.00559114	53.7934
0.00562341	53.9486
0.00565588	54.1041
0.00568853	54.2602
0.00572137	54.4167
0.0057544	54.5736
0.00578762	54.731
0.00582103	54.8889
0.00585464	55.0472
0.00588844	55.2059
0.00592243	55.3652
0.00595662	55.5248
0.00599101	55.685
0.0060256	55.8456
0.00606038	56.0067
0.00609537	56.1682
0.00613056	56.3302
0.00616595	56.4927
0.00620155	56.6556
0.00623735	56.819
0.00627336	56.9829
0.00630957	57.1472
0.006346	57.312
0.00638263	57.4774
0.00641948	57.6431
0.00645654	57.8094
0.00649382	57.9761
0.00653131	58.1433
0.00656901	58.311
0.00660693	58.4792
0.00664508	58.6479
0.00668344	58.8171
0.00672202	58.9867
0.00676083	59.1568
0.00679986	59.3274
0.00683912	59.4986
0.0068786	59.6702
0.00691831	59.8423
0.00695825	60.0149
0.00699842	60.188
0.00703882	60.3616
0.00707946	60.5357
0.00712033	60.7103
0.00716143	60.8854
0.00720278	61.061
0.00724436	61.2371
0.00728618	61.4138
0.00732825	61.5909
0.00737055	61.7685
0.0074131	61.9467
0.0074559	62.1254
0.00749894	62.3046
0.00754223	62.4843
0.00758578	62.6645
0.00762957	62.8452
0.00767361	63.0265
0.00771792	63.2083
0.00776247	63.3906
0.00780728	63.5735
0.00785236	63.7569
0.00789769	63.9408
0.00794328	64.1252
0.00798914	64.3101
0.00803526	64.4957
0.00808165	64.6817
0.00812831	64.8683
0.00817523	65.0554
0.00822243	65.243
0.0082699	65.4312
0.00831764	65.62
0.00836566	65.8092
0.00841395	65.9991
0.00846253	66.1894
0.00851138	66.3803
0.00856052	66.5718
0.00860994	66.7638
0.00865964	66.9564
0.00870964	67.1496
0.00875992	67.3433
0.00881049	67.5375
0.00886135	67.7323
0.00891251	67.9277
0.00896396	68.1236
0.00901571	68.3202
0.00906776	68.5172
0.00912011	68.7149
0.00917276	68.9131
0.00922571	69.1119
0.00927897	69.3112
0.00933254	69.5112
0.00938642	69.7117
0.00944061	69.9128
0.00949511	70.1144
0.00954993	70.3167
0.00960506	70.5195
0.00966051	70.7229
0.00971628	70.927
0.00977237	71.1315
0.00982879	71.3367
0.00988553	71.5425
0.0099426	71.7489
0.01	71.9559
0.0100577	72.1634
0.0101158	72.3716
0.0101742	72.5804
0.0102329	72.7898
0.010292	72.9997
0.0103514	73.2103
0.0104112	73.4215
0.0104713	73.6333
0.0105317	73.8457
0.0105925	74.0587
0.0106537	74.2724
0.0107152	74.4866
0.0107771	74.7015
0.0108393	74.917
0.0109018	75.1331
0.0109648	75.3499
0.0110281	75.5672
0.0110917	75.7852
0.0111558	76.0039
0.0112202	76.2231
0.011285	76.443
0.0113501	76.6635
0.0114156	76.8847
0.0114815	77.1065
0.0115478	77.3289
0.0116145	77.552
0.0116815	77.7757
0.011749	78.0001
0.0118168	78.2251
0.011885	78.4508
0.0119536	78.6771
0.0120226	78.9041
0.0120921	79.1317
0.0121619	79.36
0.0122321	79.589
0.0123027	79.8186
0.0123737	80.0488
0.0124451	80.2798
0.012517	80.5114
0.0125893	80.7437
0.0126619	80.9766
0.012735	81.2102
0.0128086	81.4445
0.0128825	81.6795
0.0129569	81.9151
0.0130317	82.1514
0.0131069	82.3884
0.0131826	82.6261
0.0132587	82.8645
0.0133352	83.1036
0.0134122	83.3433
0.0134896	83.5838
0.0135675	83.8249
0.0136458	84.0668
0.0137246	84.3093
0.0138038	84.5525
0.0138835	84.7965
0.0139637	85.0411
0.0140443	85.2865
0.0141254	85.5325
0.0142069	85.7793
0.0142889	86.0268
0.0143714	86.275
0.0144544	86.5239
0.0145378	86.7735
0.0146218	87.0239
0.0147062	87.275
0.0147911	87.5268
0.0148765	87.7793
0.0149624	88.0326
0.0150487	88.2865
0.0151356	88.5413
0.015223	88.7967
0.0153109	89.0529
0.0153993	89.3099
0.0154882	89.5675
0.0155776	89.826
0.0156675	90.0851
0.015758	90.3451
0.0158489	90.6057
0.0159404	90.8671
0.0160325	91.1293
0.016125	91.3923
0.0162181	91.6559
0.0163117	91.9204
0.0164059	92.1856
0.0165006	92.4516
0.0165959	92.7183
0.0166917	92.9859
0.016788	93.2542
0.016885	93.5233
0.0169824	93.7931
0.0170805	94.0637
0.0171791	94.3351
0.0172783	94.6073
0.017378	94.8803
0.0174783	95.1541
0.0175792	95.4286
0.0176807	95.704
0.0177828	95.9801
0.0178855	96.2571
0.0179887	96.5348
0.0180926	96.8134
0.018197	97.0927
0.0183021	97.3729
0.0184077	97.6539
0.018514	97.9356
0.0186209	98.2183
0.0187284	98.5016
0.0188365	98.7858
0.0189452	99.0709
0.0190546	99.3568
0.0191646	99.6435
0.0192752	99.931
0.0193865	100.219
0.0194984	100.509
0.019611	100.798
0.0197242	101.089
0.0198381	101.381
0.0199526	101.674
0.0200678	101.967
0.0201837	102.261
0.0203002	102.557
0.0204174	102.852
0.0205353	103.149
0.0206538	103.447
0.020773	103.745
0.020893	104.045
0.0210136	104.345
0.0211349	104.646
0.0212569	104.948
0.0213796	105.251
0.021503	105.555
0.0216272	105.859
0.021752	106.165
0.0218776	106.471
0.0220039	106.778
0.0221309	107.086
0.0222587	107.396
0.0223872	107.705
0.0225165	108.016
0.0226464	108.328
0.0227772	108.641
0.0229087	108.954
0.0230409	109.269
0.0231739	109.584
0.0233077	109.9
0.0234423	110.217
0.0235776	110.535
0.0237137	110.854
0.0238506	111.174
0.0239883	111.495
0.0241268	111.817
0.0242661	112.139
0.0244062	112.463
0.0245471	112.788
0.0246888	113.113
0.0248313	113.44
0.0249747	113.767
0.0251189	114.095
0.0252639	114.425
0.0254097	114.755
0.0255564	115.086
0.025704	115.418
0.0258523	115.751
0.0260016	116.085
0.0261517	116.42
0.0263027	116.756
0.0264545	117.093
0.0266073	117.431
0.0267609	117.77
0.0269153	118.11
0.0270707	118.451
0.027227	118.793
0.0273842	119.136
0.0275423	119.48
0.0277013	119.824
0.0278612	120.17
0.0280221	120.517
0.0281838	120.865
0.0283465	121.214
0.0285102	121.564
0.0286748	121.915
0.0288403	122.266
0.0290068	122.619
0.0291743	122.973
0.0293427	123.328
0.0295121	123.684
0.0296825	124.041
0.0298538	124.399
0.0300262	124.758
0.0301995	125.118
0.0303739	125.479
0.0305492	125.841
0.0307256	126.205
0.030903	126.569
0.0310814	126.934
0.0312608	127.301
0.0314413	127.668
0.0316228	128.037
0.0318053	128.406
0.031989	128.777
0.0321736	129.149
0.0323594	129.521
0.0325462	129.895
0.0327341	130.27
0.032923	130.646
0.0331131	131.023
0.0333043	131.402
0.0334965	131.781
0.0336899	132.161
0.0338844	132.543
0.03408	132.925
0.0342768	133.309
0.0344747	133.694
0.0346737	134.08
0.0348739	134.467
0.0350752	134.855
0.0352777	135.244
0.0354813	135.635
0.0356862	136.026
0.0358922	136.419
0.0360994	136.813
0.0363078	137.208
0.0365174	137.604
0.0367282	138.001
0.0369403	138.399
0.0371535	138.799
0.037368	139.2
0.0375837	139.601
0.0378007	140.004
0.0380189	140.409
0.0382384	140.814
0.0384592	141.221
0.0386812	141.628
0.0389045	142.037
0.0391291	142.447
0.039355	142.858
0.0395822	143.271
0.0398107	143.684
0.0400405	144.099
0.0402717	144.515
0.0405042	144.932
0.040738	145.351
0.0409732	145.77
0.0412098	146.191
0.0414477	146.613
0.0416869	147.037
0.0419276	147.461
0.0421697	147.887
0.0424131	148.314
0.042658	148.742
0.0429042	149.171
0.0431519	149.602
0.043401	150.034
0.0436516	150.467
0.0439036	150.901
0.044157	151.337
0.044412	151.774
0.0446684	152.212
0.0449262	152.652
0.0451856	153.093
0.0454465	153.535
0.0457088	153.978
0.0459727	154.423
0.0462381	154.868
0.046505	155.315
0.0467735	155.764
0.0470435	156.214
0.0473151	156.665
0.0475883	157.117
0.047863	157.571
0.0481393	158.026
0.0484172	158.482
0.0486968	158.94
0.0489779	159.398
0.0492606	159.859
0.049545	160.32
0.049831	160.783
0.0501187	161.247
0.0504081	161.713
0.0506991	162.18
0.0509918	162.648
0.0512861	163.118
0.0515822	163.589
0.05188	164.061
0.0521795	164.535
0.0524807	165.01
0.0527837	165.487
0.0530884	165.965
0.0533949	166.444
0.0537032	166.925
0.0540132	167.407
0.054325	167.89
0.0546387	168.375
0.0549541	168.861
0.0552713	169.349
0.0555904	169.838
0.0559114	170.328
0.0562341	170.82
0.0565588	171.313
0.0568853	171.808
0.0572137	172.304
0.057544	172.802
0.0578762	173.301
0.0582103	173.801
0.0585464	174.303
0.0588844	174.807
0.0592243	175.311
0.0595662	175.818
0.0599101	176.326
0.060256	176.835
0.0606038	177.345
0.0609537	177.858
0.0613056	178.371
0.0616595	178.887
0.0620155	179.403
0.0623735	179.921
0.0627336	180.441
0.0630957	180.962
0.06346	181.484
0.0638263	182.009
0.0641948	182.534
0.0645654	183.062
0.0649382	183.59
0.0653131	184.121
0.0656901	184.652
0.0660693	185.186
0.0664508	185.72
0.0668344	186.257
0.0672202	186.795
0.0676083	187.334
0.0679986	187.875
0.0683912	188.418
0.068786	188.962
0.0691831	189.508
0.0695825	190.055
0.0699842	190.604
0.0703882	191.155
0.0707946	191.707
0.0712033	192.261
0.0716143	192.816
0.0720278	193.373
0.0724436	193.932
0.0728618	194.492
0.0732825	195.054
0.0737055	195.617
0.074131	196.182
0.074559	196.749
0.0749894	197.317
0.0754223	197.887
0.0758578	198.459
0.0762957	199.032
0.0767361	199.607
0.0771792	200.184
0.0776247	200.762
0.0780728	201.342
0.0785236	201.923
0.0789769	202.507
0.0794328	203.092
0.0798914	203.679
0.0803526	204.267
0.0808165	204.857
0.0812831	205.449
0.0817523	206.042
0.0822243	206.637
0.082699	207.234
0.0831764	207.833
0.0836566	208.434
0.0841395	209.036
0.0846253	209.64
0.0851138	210.245
0.0856052	210.853
0.0860994	211.462
0.0865964	212.073
0.0870964	212.685
0.0875992	213.3
0.0881049	213.916
0.0886135	214.534
0.0891251	215.154
0.0896396	215.776
0.0901571	216.399
0.0906776	217.024
0.0912011	217.651
0.0917276	218.28
0.0922571	218.911
0.0927897	219.543
0.0933254	220.178
0.0938642	220.814
0.0944061	221.452
0.0949511	222.092
0.0954993	222.733
0.0960506	223.377
0.0966051	224.022
0.0971628	224.67
0.0977237	225.319
0.0982879	225.97
0.0988553	226.623
0.099426	227.278
0.1	227.935
0.100577	228.593
0.101158	229.254
0.101742	229.916
0.102329	230.581
0.10292	231.247
0.103514	231.915
0.104112	232.585
0.104713	233.257
0.105317	233.932
0.105925	234.607
0.106537	235.285
0.107152	235.965
0.107771	236.647
0.108393	237.331
0.109018	238.017
0.109648	238.705
0.110281	239.395
0.110917	240.087
0.111558	240.781
0.112202	241.476
0.11285	242.174
0.113501	242.874
0.114156	243.576
0.114815	244.28
0.115478	244.986
0.116145	245.694
0.116815	246.404
0.11749	247.116
0.118168	247.83
0.11885	248.547
0.119536	249.265
0.120226	249.985
0.120921	250.708
0.121619	251.433
0.122321	252.159
0.123027	252.888
0.123737	253.619
0.124451	254.352
0.12517	255.087
0.125893	255.825
0.126619	256.564
0.12735	257.306
0.128086	258.049
0.128825	258.795
0.129569	259.543
0.130317	260.294
0.131069	261.046
0.131826	261.801
0.132587	262.558
0.133352	263.316
0.134122	264.078
0.134896	264.841
0.135675	265.606
0.136458	266.374
0.137246	267.145
0.138038	267.917
0.138835	268.691
0.139637	269.468
0.140443	270.247
0.141254	271.028
0.142069	271.812
0.142889	272.597
0.143714	273.386
0.144544	274.176
0.145378	274.969
0.146218	275.764
0.147062	276.561
0.147911	277.36
0.148765	278.162
0.149624	278.966
0.150487	279.773
0.151356	280.582
0.15223	281.393
0.153109	282.207
0.153993	283.023
0.154882	283.841
0.155776	284.662
0.156675	285.485
0.15758	286.31
0.158489	287.138
0.159404	287.968
0.160325	288.801
0.16125	289.636
0.162181	290.473
0.163117	291.313
0.164059	292.156
0.165006	293
0.165959	293.848
0.166917	294.697
0.16788	295.55
0.16885	296.404
0.169824	297.261
0.170805	298.121
0.171791	298.983
0.172783	299.848
0.17378	300.715
0.174783	301.584
0.175792	302.457
0.176807	303.331
0.177828	304.209
0.178855	305.088
0.179887	305.97
0.180926	306.855
0.18197	307.743
0.183021	308.633
0.184077	309.525
0.18514	310.42
0.186209	311.318
0.187284	312.219
0.188365	313.122
0.189452	314.027
0.190546	314.936
0.191646	315.846
0.192752	316.76
0.193865	317.676
0.194984	318.595
0.19611	319.517
0.197242	320.441
0.198381	321.368
0.199526	322.297
0.200678	323.23
0.201837	324.164
0.203002	325.102
0.204174	326.042
0.205353	326.986
0.206538	327.931
0.20773	328.88
0.20893	329.831
0.210136	330.785
0.211349	331.743
0.212569	332.702
0.213796	333.665
0.21503	334.63
0.216272	335.598
0.21752	336.569
0.218776	337.542
0.220039	338.519
0.221309	339.498
0.222587	340.48
0.223872	341.466
0.225165	342.453
0.226464	343.444
0.227772	344.438
0.229087	345.434
0.230409	346.434
0.231739	347.436
0.233077	348.441
0.234423	349.449
0.235776	350.46
0.237137	351.475
0.238506	352.492
0.239883	353.511
0.241268	354.534
0.242661	355.56
0.244062	356.589
0.245471	357.621
0.246888	358.656
0.248313	359.693
0.249747	360.734
0.251189	361.778
0.252639	362.825
0.254097	363.875
0.255564	364.928
0.25704	365.984
0.258523	367.043
0.260016	368.105
0.261517	369.171
0.263027	370.239
0.264545	371.31
0.266073	372.385
0.267609	373.463
0.269153	374.544
0.270707	375.628
0.27227	376.715
0.273842	377.805
0.275423	378.898
0.277013	379.995
0.278612	381.095
0.280221	382.198
0.281838	383.304
0.283465	384.414
0.285102	385.526
0.286748	386.642
0.288403	387.761
0.290068	388.884
0.291743	390.009
0.293427	391.138
0.295121	392.27
0.296825	393.406
0.298538	394.545
0.300262	395.687
0.301995	396.832
0.303739	397.981
0.305492	399.133
0.307256	400.288
0.30903	401.447
0.310814	402.61
0.312608	403.775
0.314413	404.944
0.316228	406.116
0.318053	407.292
0.31989	408.471
0.321736	409.654
0.323594	410.84
0.325462	412.029
0.327341	413.222
0.32923	414.419
0.331131	415.618
0.333043	416.822
0.334965	418.029
0.336899	419.239
0.338844	420.453
0.3408	421.671
0.342768	422.892
0.344747	424.116
0.346737	425.344
0.348739	426.576
0.350752	427.811
0.352777	429.05
0.354813	430.292
0.356862	431.538
0.358922	432.788
0.360994	434.041
0.363078	435.299
0.365174	436.559
0.367282	437.823
0.369403	439.091
0.371535	440.363
0.37368	441.638
0.375837	442.918
0.378007	444.2
0.380189	445.487
0.382384	446.777
0.384592	448.071
0.386812	449.369
0.389045	450.67
0.391291	451.976
0.39355	453.285
0.395822	454.598
0.398107	455.915
0.400405	457.235
0.402717	458.56
0.405042	459.888
0.40738	461.22
0.409732	462.556
0.412098	463.896
0.414477	465.24
0.416869	466.588
0.419276	467.939
0.421697	469.295
0.424131	470.655
0.42658	472.018
0.429042	473.386
0.431519	474.757
0.43401	476.133
0.436516	477.512
0.439036	478.895
0.44157	480.283
0.44412	481.675
0.446684	483.07
0.449262	484.47
0.451856	485.874
0.454465	487.281
0.457088	488.693
0.459727	490.109
0.462381	491.529
0.46505	492.954
0.467735	494.382
0.470435	495.815
0.473151	497.252
0.475883	498.693
0.47863	500.138
0.481393	501.587
0.484172	503.041
0.486968	504.499
0.489779	505.961
0.492606	507.427
0.49545	508.898
0.49831	510.373
0.501187	511.852
0.504081	513.335
0.506991	514.823
0.509918	516.315
0.512861	517.812
0.515822	519.313
0.5188	520.818
0.521795	522.328
0.524807	523.842
0.527837	525.36
0.530884	526.883
0.533949	528.41
0.537032	529.942
0.540132	531.478
0.54325	533.019
0.546387	534.564
0.549541	536.114
0.552713	537.668
0.555904	539.227
0.559114	540.79
0.562341	542.358
0.565588	543.93
0.568853	545.507
0.572137	547.089
0.57544	548.675
0.578762	550.266
0.582103	551.861
0.585464	553.462
0.588844	555.067
0.592243	556.676
0.595662	558.29
0.599101	559.909
0.60256	561.533
0.606038	563.161
0.609537	564.794
0.613056	566.432
0.616595	568.074
0.620155	569.722
0.623735	571.374
0.627336	573.031
0.630957	574.693
0.6346	576.36
0.638263	578.031
0.641948	579.708
0.645654	581.389
0.649382	583.075
0.653131	584.767
0.656901	586.463
0.660693	588.164
0.664508	589.87
0.668344	591.581
0.672202	593.297
0.676083	595.018
0.679986	596.744
0.683912	598.475
0.68786	600.211
0.691831	601.952
0.695825	603.699
0.699842	605.45
0.703882	607.222
0.707946	609
0.712033	610.784
0.716143	612.574
0.720278	614.369
0.724436	616.17
0.728618	617.977
0.732825	619.79
0.737055	621.608
0.74131	623.432
0.74559	625.261
0.749894	627.097
0.754223	628.938
0.758578	630.785
0.762957	632.639
0.767361	634.498
0.771792	636.363
0.776247	638.237
0.780728	640.127
0.785236	642.024
0.789769	643.927
0.794328	645.836
0.798914	647.752
0.803526	649.685
0.808165	651.627
0.812831	653.577
0.817523	655.533
0.822243	657.497
0.82699	659.468
0.831764	661.446
0.836566	663.43
0.841395	665.421
0.846253	667.414
0.851138	669.415
0.856052	671.423
0.860994	673.438
0.865964	675.46
0.870964	677.489
0.875992	679.528
0.881049	681.581
0.886135	683.643
0.891251	685.712
0.896396	687.789
0.901571	689.874
0.906776	691.967
0.912011	694.068
0.917276	696.177
0.922571	698.293
0.927897	700.418
0.933254	702.547
0.938642	704.681
0.944061	706.824
0.949511	708.974
0.954993	711.133
0.960506	713.299
0.966051	715.467
0.971628	717.644
0.977237	719.831
0.982879	722.033
0.988553	724.244
0.99426	726.463
1	728.691
1.00577	730.946
1.01158	733.21
1.01742	735.484
1.02329	737.769
1.0292	740.063
1.03514	742.367
1.04112	744.681
1.04713	747.004
1.05317	749.334
1.05925	751.671
1.06537	754.017
1.07152	756.374
1.07771	758.74
1.08393	761.117
1.09018	763.503
1.09648	765.9
1.10281	768.307
1.10917	770.724
1.11558	773.151
1.12202	775.588
1.1285	778.04
1.13501	780.506
1.14156	782.983
1.14815	785.471
1.15478	787.97
1.16145	790.48
1.16815	793.001
1.1749	795.527
1.18168	798.062
1.1885	800.608
1.19536	803.165
1.20226	805.731
1.20921	808.305
1.21619	810.89
1.22321	813.487
1.23027	816.096
1.23737	818.715
1.24451	821.346
1.2517	823.988
1.25893	826.641
1.26619	829.307
1.2735	831.984
1.28086	834.681
1.28825	837.391
1.29569	840.114
1.30317	842.854
1.31069	845.612
1.31826	848.384
1.32587	851.169
1.33352	853.967
1.34122	856.779
1.34896	859.604
1.35675	862.435
1.36458	865.278
1.37246	868.134
1.38038	871.004
1.38835	873.888
1.39637	876.785
1.40443	879.695
1.41254	882.617
1.42069	885.553
1.42889	888.502
1.43714	891.466
1.44544	894.437
1.45378	897.419
1.46218	900.415
1.47062	903.424
1.47911	906.448
1.48765	909.485
1.49624	912.537
1.50487	915.602
1.51356	918.682
1.5223	921.775
1.53109	924.882
1.53993	927.994
1.54882	931.121
1.55776	934.261
1.56675	937.407
1.5758	940.565
1.58489	943.736
1.59404	946.922
1.60325	950.121
1.6125	953.331
1.62181	956.556
1.63117	959.794
1.64059	963.048
1.65006	966.315
1.65959	969.597
1.66917	972.893
1.6788	976.204
1.6885	979.529
1.69824	982.87
1.70805	986.224
1.71791	989.594
1.72783	992.978
1.7378	996.377
1.74783	999.791
1.75792	1003.22
1.76807	1006.66
1.77828	1010.12
1.78855	1013.59
1.79887	1017.08
1.80926	1020.58
1.8197	1024.1
1.83021	1027.63
1.84077	1031.18
1.8514	1034.74
1.86209	1038.31
1.87284	1041.9
1.88365	1045.51
1.89452	1049.13
1.90546	1052.77
1.91646	1056.42
1.92752	1060.09
1.93865	1063.77
1.94984	1067.47
1.9611	1071.18
1.97242	1074.91
1.98381	1078.65
1.99526	1082.41
2.00678	1086.18
2.01837	1089.97
2.03002	1093.78
2.04174	1097.6
2.05353	1101.43
2.06538	1105.28
2.0773	1109.15
2.0893	1113.03
2.10136	1116.93
2.11349	1120.84
2.12569	1124.77
2.13796	1128.71
2.1503	1132.67
2.16272	1136.64
2.1752	1140.63
2.18776	1144.64
2.20039	1148.67
2.21309	1152.71
2.22587	1156.76
2.23872	1160.83
2.25165	1164.92
2.26464	1169.03
2.27772	1173.15
2.29087	1177.28
2.30409	1181.44
2.31739	1185.61
2.33077	1189.79
2.34423	1194
2.35776	1198.22
2.37137	1202.45
2.38506	1206.7
2.39883	1210.97
2.41268	1215.26
2.42661	1219.56
2.44062	1223.88
2.45471	1228.21
2.46888	1232.56
2.48313	1236.93
2.49747	1241.32
2.51189	1245.72
2.52639	1250.13
2.54097	1254.57
2.55564	1259.02
2.5704	1263.49
2.58523	1267.97
2.60016	1272.47
2.61517	1276.99
2.63027	1281.52
2.64545	1286.07
2.66073	1290.64
2.67609	1295.22
2.69153	1299.82
2.70707	1304.44
2.7227	1309.08
2.73842	1313.73
2.75423	1318.39
2.77013	1323.08
2.78612	1327.77
2.80221	1332.49
2.81838	1337.22
2.83465	1341.97
2.85102	1346.74
2.86748	1351.52
2.88403	1356.32
2.90068	1361.14
2.91743	1365.97
2.93427	1370.81
2.95121	1375.68
2.96825	1380.56
2.98538	1385.45
3.00262	1390.37
3.01995	1395.29
3.03739	1400.24
3.05492	1405.2
3.07256	1410.18
3.0903	1415.17
3.10814	1420.18
3.12608	1425.21
3.14413	1430.24
3.16228	1435.3
3.18053	1440.37
3.1989	1445.46
3.21736	1450.57
3.23594	1455.69
3.25462	1460.82
3.27341	1465.97
3.2923	1471.14
3.31131	1476.32
3.33043	1481.52
3.34965	1486.73
3.36899	1491.96
3.38844	1497.2
3.408	1502.46
3.42768	1507.73
3.44747	1513.02
3.46737	1518.32
3.48739	1523.64
3.50752	1528.97
3.52777	1534.32
3.54813	1539.68
3.56862	1545.05
3.58922	1550.44
3.60994	1555.85
3.63078	1561.27
3.65174	1566.7
3.67282	1572.15
3.69403	1577.61
3.71535	1583.09
3.7368	1588.57
3.75837	1594.08
3.78007	1599.59
3.80189	1605.12
3.82384	1610.67
3.84592	1616.22
3.86812	1621.8
3.89045	1627.38
3.91291	1632.98
3.9355	1638.59
3.95822	1644.21
3.98107	1649.85
4.00405	1655.49
4.02717	1661.15
4.05042	1666.83
4.0738	1672.51
4.09732	1678.21
4.12098	1683.92
4.14477	1689.64
4.16869	1695.38
4.19276	1701.13
4.21697	1706.88
4.24131	1712.65
4.2658	1718.43
4.29042	1724.21
4.31519	1730.01
4.3401	1735.82
4.36516	1741.64
4.39036	1747.47
4.4157	1753.32
4.4412	1759.17
4.46684	1765.03
4.49262	1770.91
4.51856	1776.79
4.54465	1782.69
4.57088	1788.59
4.59727	1794.51
4.62381	1800.43
4.6505	1806.36
4.67735	1812.3
4.70435	1818.25
4.73151	1824.2
4.75883	1830.17
4.7863	1836.14
4.81393	1842.12
4.84172	1848.11
4.86968	1854.1
4.89779	1860.1
4.92606	1866.11
4.9545	1872.13
4.9831	1878.15
5.01187	1884.18
5.04081	1890.22
5.06991	1896.27
5.09918	1902.32
5.12861	1908.38
5.15822	1914.45
5.188	1920.52
5.21795	1926.6
5.24807	1932.68
5.27837	1938.76
5.30884	1944.85
5.33949	1950.95
5.37032	1957.05
5.40132	1963.16
5.4325	1969.27
5.46387	1975.38
5.49541	1981.5
5.52713	1987.62
5.55904	1993.74
5.59114	1999.87
5.62341	2006.01
5.65588	2012.14
5.68853	2018.28
5.72137	2024.42
5.7544	2030.57
5.78762	2036.71
5.82103	2042.86
5.85464	2049.01
5.88844	2055.16
5.92243	2061.3
5.95662	2067.45
5.99101	2073.6
6.0256	2079.75
6.06038	2085.89
6.09537	2092.03
6.13056	2098.17
6.16595	2104.31
6.20155	2110.45
6.23735	2116.59
6.27336	2122.73
6.30957	2128.86
6.346	2135
6.38263	2141.13
6.41948	2147.26
6.45654	2153.39
6.49382	2159.52
6.53131	2165.64
6.56901	2171.76
6.60693	2177.88
6.64508	2183.99
6.68344	2190.1
6.72202	2196.2
6.76083	2202.3
6.79986	2208.39
6.83912	2214.47
6.8786	2220.55
6.91831	2226.62
6.95825	2232.69
6.99842	2238.75
7.03882	2244.8
7.07946	2250.85
7.12033	2256.9
7.16143	2262.93
7.20278	2268.96
7.24436	2274.97
7.28618	2280.98
7.32825	2286.97
7.37055	2292.96
7.4131	2298.94
7.4559	2304.91
7.49894	2310.87
7.54223	2316.82
7.58578	2322.76
7.62957	2328.69
7.67361	2334.61
7.71792	2340.51
7.76247	2346.4
7.80728	2352.28
7.85236	2358.14
7.89769	2364
7.94328	2369.83
7.98914	2375.66
8.03526	2381.47
8.08165	2387.28
8.12831	2393.07
8.17523	2398.84
8.22243	2404.6
8.2699	2410.35
8.31764	2416.08
8.36566	2421.8
8.41395	2427.5
8.46253	2433.18
8.51138	2438.85
8.56052	2444.5
8.60994	2450.14
8.65964	2455.76
8.70964	2461.36
8.75992	2466.95
8.81049	2472.51
8.86135	2478.06
8.91251	2483.59
8.96396	2489.1
9.01571	2494.59
9.06776	2500.07
9.12011	2505.52
9.17276	2510.96
9.22571	2516.37
9.27897	2521.76
9.33254	2527.14
9.38642	2532.49
9.44061	2537.82
9.49511	2543.13
9.54993	2548.42
9.60506	2553.69
9.66051	2558.93
9.71628	2564.16
9.77237	2569.36
9.82879	2574.53
9.88553	2579.69
9.9426	2584.82
10	2589.93
10.0577	2595.01
10.1158	2600.07
10.1742	2605.1
10.2329	2610.11
10.292	2615.09
10.3514	2620.05
10.4112	2624.99
10.4713	2629.9
10.5317	2634.78
10.5925	2639.64
10.6537	2644.47
10.7152	2649.28
10.7771	2654.06
10.8393	2658.81
10.9018	2663.53
10.9648	2668.23
11.0281	2672.9
11.0917	2677.54
11.1558	2682.15
11.2202	2686.73
11.285	2691.29
11.3501	2695.82
11.4156	2700.32
11.4815	2704.78
11.5478	2709.23
11.6145	2713.64
11.6815	2718.02
11.749	2722.38
11.8168	2726.7
11.885	2731
11.9536	2735.26
12.0226	2739.5
12.0921	2743.72
12.1619	2747.9
12.2321	2752.05
12.3027	2756.17
12.3737	2760.26
12.4451	2764.32
12.517	2768.35
12.5893	2772.35
12.6619	2776.32
12.735	2780.25
12.8086	2784.16
12.8825	2788.03
12.9569	2791.88
13.0317	2795.69
13.1069	2799.47
13.1826	2803.22
13.2587	2806.94
13.3352	2810.63
13.4122	2814.29
13.4896	2817.91
13.5675	2821.5
13.6458	2825.07
13.7246	2828.6
13.8038	2832.1
13.8835	2835.56
13.9637	2839
14.0443	2842.4
14.1254	2845.77
14.2069	2849.11
14.2889	2852.41
14.3714	2855.68
14.4544	2858.93
14.5378	2862.14
14.6218	2865.31
14.7062	2868.46
14.7911	2871.57
14.8765	2874.65
14.9624	2877.7
15.0487	2880.72
15.1356	2883.7
15.223	2886.66
15.3109	2889.57
15.3993	2892.47
15.4882	2895.32
15.5776	2898.15
15.6675	2900.94
15.758	2903.7
15.8489	2906.44
15.9404	2909.14
16.0325	2911.8
16.125	2914.43
16.2181	2917.03
16.3117	2919.6
16.4059	2922.13
16.5006	2924.64
16.5959	2927.11
16.6917	2929.55
16.788	2931.96
16.885	2934.33
16.9824	2936.68
17.0805	2938.99
17.1791	2941.27
17.2783	2943.52
17.378	2945.74
17.4783	2947.93
17.5792	2950.08
17.6807	2952.21
17.7828	2954.3
17.8855	2956.36
17.9887	2958.39
18.0926	2960.39
18.197	2962.35
18.3021	2964.29
18.4077	2966.19
18.514	2968.06
18.6209	2969.9
18.7284	2971.72
18.8365	2973.5
18.9452	2975.25
19.0546	2976.97
19.1646	2978.66
19.2752	2980.32
19.3865	2981.94
19.4984	2983.54
19.611	2985.11
19.7242	2986.65
19.8381	2988.16
19.9526	2989.65
20.0678	2991.1
20.1837	2992.53
20.3002	2993.93
20.4174	2995.3
20.5353	2996.63
20.6538	2997.94
20.773	2999.22
20.893	3000.47
21.0136	3001.69
21.1349	3002.88
21.2569	3004.04
21.3796	3005.17
21.503	3006.28
21.6272	3007.35
21.752	3008.4
21.8776	3009.42
22.0039	3010.42
22.1309	3011.38
22.2587	3012.32
22.3872	3013.22
22.5165	3014.1
22.6464	3014.95
22.7772	3015.78
22.9087	3016.58
23.0409	3017.34
23.1739	3018.08
23.3077	3018.79
23.4423	3019.48
23.5776	3020.14
23.7137	3020.77
23.8506	3021.37
23.9883	3021.94
24.1268	3022.49
24.2661	3023.01
24.4062	3023.51
24.5471	3023.98
24.6888	3024.42
24.8313	3024.83
24.9747	3025.22
25.1189	3025.57
25.2639	3025.91
25.4097	3026.21
25.5564	3026.49
25.704	3026.75
25.8523	3026.98
26.0016	3027.18
26.1517	3027.35
26.3027	3027.5
26.4545	3027.63
26.6073	3027.72
26.7609	3027.79
26.9153	3027.84
27.0707	3027.86
27.227	3027.85
27.3842	3027.82
27.5423	3027.76
27.7013	3027.68
27.8612	3027.57
28.0221	3027.44
28.1838	3027.28
28.3465	3027.1
28.5102	3026.89
28.6748	3026.65
28.8403	3026.4
29.0068	3026.11
29.1743	3025.8
29.3427	3025.47
29.5121	3025.11
29.6825	3024.73
29.8538	3024.33
30.0262	3023.89
30.1995	3023.44
30.3739	3022.96
30.5492	3022.46
30.7256	3021.93
30.903	3021.38
31.0814	3020.81
31.2608	3020.21
31.4413	3019.59
31.6228	3018.94
31.8053	3018.27
31.989	3017.58
32.1736	3016.87
32.3594	3016.13
32.5462	3015.37
32.7341	3014.59
32.923	3013.78
33.1131	3012.95
33.3043	3012.1
33.4965	3011.23
33.6899	3010.33
33.8844	3009.4
34.08	3008.46
34.2768	3007.49
34.4747	3006.51
34.6737	3005.49
34.8739	3004.46
35.0752	3003.4
35.2777	3002.32
35.4813	3001.22
35.6862	3000.1
35.8922	2998.96
36.0994	2997.79
36.3078	2996.6
36.5174	2995.39
36.7282	2994.16
36.9403	2992.9
37.1535	2991.62
37.368	2990.33
37.5837	2989.01
37.8007	2987.66
38.0189	2986.3
38.2384	2984.92
38.4592	2983.51
38.6812	2982.09
38.9045	2980.64
39.1291	2979.17
39.355	2977.68
39.5822	2976.17
39.8107	2974.64
40.0405	2973.09
40.2717	2971.52
40.5042	2969.93
40.738	2968.32
40.9732	2966.68
41.2098	2965.03
41.4477	2963.36
41.6869	2961.66
41.9276	2959.95
42.1697	2958.21
42.4131	2956.46
42.658	2954.69
42.9042	2952.89
43.1519	2951.08
43.401	2949.25
43.6516	2947.39
43.9036	2945.52
44.157	2943.62
44.412	2941.71
44.6684	2939.78
44.9262	2937.83
45.1856	2935.85
45.4465	2933.86
45.7088	2931.85
45.9727	2929.82
46.2381	2927.78
46.505	2925.71
46.7735	2923.62
47.0435	2921.52
47.3151	2919.39
47.5883	2917.25
47.863	2915.09
48.1393	2912.91
48.4172	2910.71
48.6968	2908.49
48.9779	2906.26
49.2606	2904
49.545	2901.73
49.831	2899.44
50.1187	2897.13
50.4081	2894.81
50.6991	2892.47
50.9918	2890.1
51.2861	2887.73
51.5822	2885.33
51.88	2882.91
52.1795	2880.48
52.4807	2878.04
52.7837	2875.57
53.0884	2873.09
53.3949	2870.58
53.7032	2868.07
54.0132	2865.53
54.325	2862.98
54.6387	2860.41
54.9541	2857.82
55.2713	2855.21
55.5904	2852.59
55.9114	2849.95
56.2341	2847.3
56.5588	2844.63
56.8853	2841.94
57.2137	2839.23
57.544	2836.51
57.8762	2833.77
58.2103	2831.01
58.5464	2828.24
58.8844	2825.45
59.2243	2822.65
59.5662	2819.82
59.9101	2816.99
60.256	2814.13
60.6038	2811.26
60.9537	2808.37
61.3056	2805.47
61.6595	2802.55
62.0155	2799.62
62.3735	2796.67
62.7336	2793.7
63.0957	2790.72
63.46	2787.72
63.8263	2784.71
64.1948	2781.68
64.5654	2778.63
64.9382	2775.58
65.3131	2772.5
65.6901	2769.41
66.0693	2766.31
66.4508	2763.19
66.8344	2760.06
67.2202	2756.91
67.6083	2753.74
67.9986	2750.56
68.3912	2747.37
68.786	2744.16
69.1831	2740.94
69.5825	2737.7
69.9842	2734.45
70.3882	2731.19
70.7946	2727.91
71.2033	2724.62
71.6143	2721.31
72.0278	2717.99
72.4436	2714.65
72.8618	2711.31
73.2825	2707.94
73.7055	2704.57
74.131	2701.18
74.559	2697.78
74.9894	2694.36
75.4223	2690.94
75.8578	2687.5
76.2957	2684.04
76.7361	2680.58
77.1792	2677.1
77.6247	2673.61
78.0728	2670.1
78.5236	2666.58
78.9769	2663.05
79.4328	2659.51
79.8914	2655.95
80.3526	2652.38
80.8165	2648.8
81.2831	2645.21
81.7523	2641.6
82.2243	2637.99
82.699	2634.36
83.1764	2630.72
83.6566	2627.06
84.1395	2623.4
84.6253	2619.72
85.1138	2616.03
85.6052	2612.33
86.0994	2608.62
86.5964	2604.89
87.0964	2601.16
87.5992	2597.41
88.1049	2593.65
88.6135	2589.88
89.1251	2586.1
89.6396	2582.31
90.1571	2578.5
90.6776	2574.68
91.2011	2570.85
91.7276	2567.02
92.2571	2563.17
92.7897	2559.3
93.3254	2555.43
93.8642	2551.55
94.4061	2547.65
94.9511	2543.75
95.4993	2539.83
96.0506	2535.9
96.6051	2531.96
97.1628	2528.01
97.7237	2524.05
98.2879	2520.08
98.8553	2516.1
99.426	2512.11
100	2508.1
100.577	2504.09
101.158	2500.07
101.742	2496.03
102.329	2491.99
102.92	2487.94
103.514	2483.87
104.112	2479.8
104.713	2475.72
105.317	2471.62
105.925	2467.52
106.537	2463.41
107.152	2459.29
107.771	2455.15
108.393	2451.01
109.018	2446.86
109.648	2442.7
110.281	2438.53
110.917	2434.35
111.558	2430.16
112.202	2425.96
112.85	2421.76
113.501	2417.54
114.156	2413.32
114.815	2409.09
115.478	2404.85
116.145	2400.6
116.815	2396.34
117.49	2392.07
118.168	2387.8
118.85	2383.51
119.536	2379.22
120.226	2374.92
120.921	2370.61
121.619	2366.3
122.321	2361.97
123.027	2357.64
123.737	2353.3
124.451	2348.95
125.17	2344.59
125.893	2340.23
126.619	2335.86
127.35	2331.48
128.086	2327.1
128.825	2322.7
129.569	2318.31
130.317	2313.9
131.069	2309.49
131.826	2305.07
132.587	2300.64
133.352	2296.21
134.122	2291.77
134.896	2287.32
135.675	2282.87
136.458	2278.41
137.246	2273.94
138.038	2269.47
138.835	2264.99
139.637	2260.5
140.443	2256.01
141.254	2251.51
142.069	2247.01
142.889	2242.5
143.714	2237.98
144.544	2233.46
145.378	2228.93
146.218	2224.4
147.062	2219.86
147.911	2215.32
148.765	2210.77
149.624	2206.21
150.487	2201.65
151.356	2197.08
152.23	2192.51
153.109	2187.94
153.993	2183.35
154.882	2178.76
155.776	2174.17
156.675	2169.58
157.58	2164.97
158.489	2160.37
159.404	2155.75
160.325	2151.14
161.25	2146.52
162.181	2141.9
163.117	2137.27
164.059	2132.63
165.006	2128
165.959	2123.36
166.917	2118.71
167.88	2114.06
168.85	2109.41
169.824	2104.75
170.805	2100.09
171.791	2095.42
172.783	2090.75
173.78	2086.08
174.783	2081.4
175.792	2076.72
176.807	2072.03
177.828	2067.34
178.855	2062.65
179.887	2057.96
180.926	2053.26
181.97	2048.56
183.021	2043.86
184.077	2039.15
185.14	2034.44
186.209	2029.73
187.284	2025.01
188.365	2020.3
189.452	2015.57
190.546	2010.85
191.646	2006.13
192.752	2001.4
193.865	1996.67
194.984	1991.93
196.11	1987.2
197.242	1982.46
198.381	1977.72
199.526	1972.98
200.678	1968.24
201.837	1963.49
203.002	1958.74
204.174	1954
205.353	1949.24
206.538	1944.49
207.73	1939.74
208.93	1934.98
210.136	1930.23
211.349	1925.48
212.569	1920.72
213.796	1915.96
215.03	1911.2
216.272	1906.44
217.52	1901.68
218.776	1896.92
220.039	1892.15
221.309	1887.39
222.587	1882.62
223.872	1877.86
225.165	1873.09
226.464	1868.33
227.772	1863.56
229.087	1858.79
230.409	1854.02
231.739	1849.26
233.077	1844.49
234.423	1839.72
235.776	1834.95
237.137	1830.18
238.506	1825.42
239.883	1820.65
241.268	1815.88
242.661	1811.12
244.062	1806.35
245.471	1801.58
246.888	1796.82
248.313	1792.05
249.747	1787.29
251.189	1782.53
252.639	1777.77
254.097	1773.01
255.564	1768.24
257.04	1763.48
258.523	1758.73
260.016	1753.97
261.517	1749.21
263.027	1744.46
264.545	1739.71
266.073	1734.96
267.609	1730.21
269.153	1725.46
270.707	1720.71
272.27	1715.97
273.842	1711.23
275.423	1706.49
277.013	1701.75
278.612	1697.01
280.221	1692.28
281.838	1687.55
283.465	1682.82
285.102	1678.09
286.748	1673.37
288.403	1668.64
290.068	1663.92
291.743	1659.2
293.427	1654.49
295.121	1649.78
296.825	1645.07
298.538	1640.36
300.262	1635.65
301.995	1630.95
303.739	1626.25
305.492	1621.56
307.256	1616.86
309.03	1612.17
310.814	1607.48
312.608	1602.8
314.413	1598.12
316.228	1593.43
318.053	1588.76
319.89	1584.08
321.736	1579.41
323.594	1574.75
325.462	1570.08
327.341	1565.42
329.23	1560.76
331.131	1556.11
333.043	1551.46
334.965	1546.81
336.899	1542.17
338.844	1537.53
340.8	1532.9
342.768	1528.27
344.747	1523.65
346.737	1519.02
348.739	1514.41
350.752	1509.8
352.777	1505.19
354.813	1500.58
356.862	1495.98
358.922	1491.39
360.994	1486.8
363.078	1482.21
365.174	1477.64
367.282	1473.06
369.403	1468.49
371.535	1463.92
373.68	1459.37
375.837	1454.81
378.007	1450.26
380.189	1445.72
382.384	1441.18
384.592	1436.64
386.812	1432.11
389.045	1427.59
391.291	1423.07
393.55	1418.56
395.822	1414.05
398.107	1409.55
400.405	1405.05
402.717	1400.55
405.042	1396.07
407.38	1391.58
409.732	1387.11
412.098	1382.64
414.477	1378.17
416.869	1373.71
419.276	1369.25
421.697	1364.81
424.131	1360.37
426.58	1355.94
429.042	1351.51
431.519	1347.09
434.01	1342.67
436.516	1338.26
439.036	1333.86
441.57	1329.47
444.12	1325.08
446.684	1320.69
449.262	1316.32
451.856	1311.95
454.465	1307.58
457.088	1303.22
459.727	1298.87
462.381	1294.52
465.05	1290.18
467.735	1285.85
470.435	1281.53
473.151	1277.22
475.883	1272.91
478.63	1268.61
481.393	1264.31
484.172	1260.03
486.968	1255.75
489.779	1251.48
492.606	1247.21
495.45	1242.96
498.31	1238.7
501.187	1234.46
504.081	1230.22
506.991	1225.99
509.918	1221.77
512.861	1217.55
515.822	1213.34
518.8	1209.13
521.795	1204.93
524.807	1200.74
527.837	1196.57
530.884	1192.4
533.949	1188.23
537.032	1184.07
540.132	1179.92
543.25	1175.78
546.387	1171.65
549.541	1167.52
552.713	1163.4
555.904	1159.29
559.114	1155.18
562.341	1151.09
565.588	1147
568.853	1142.91
572.137	1138.84
575.44	1134.77
578.762	1130.71
582.103	1126.66
585.464	1122.62
588.844	1118.59
592.243	1114.57
595.662	1110.55
599.101	1106.55
602.56	1102.56
606.038	1098.58
609.537	1094.61
613.056	1090.65
616.595	1086.7
620.155	1082.75
623.735	1078.82
627.336	1074.89
630.957	1070.97
634.6	1067.05
638.263	1063.15
641.948	1059.25
645.654	1055.36
649.382	1051.49
653.131	1047.61
656.901	1043.75
660.693	1039.89
664.508	1036.05
668.344	1032.21
672.202	1028.38
676.083	1024.56
679.986	1020.76
683.912	1016.96
687.86	1013.17
691.831	1009.39
695.825	1005.62
699.842	1001.86
703.882	998.106
707.946	994.359
712.033	990.619
716.143	986.888
720.278	983.166
724.436	979.461
728.618	975.765
732.825	972.076
737.055	968.396
741.31	964.724
745.59	961.06
749.894	957.405
754.223	953.757
758.578	950.117
762.957	946.486
767.361	942.869
771.792	939.262
776.247	935.665
780.728	932.078
785.236	928.506
789.769	924.941
794.328	921.386
798.914	917.839
803.526	914.298
808.165	910.763
812.831	907.239
817.523	903.722
822.243	900.214
826.99	896.715
831.764	893.226
836.566	889.745
841.395	886.273
846.253	882.811
851.138	879.357
856.052	875.913
860.994	872.477
865.964	869.053
870.964	865.637
875.992	862.232
881.049	858.836
886.135	855.448
891.251	852.071
896.396	848.704
901.571	845.347
906.776	841.997
912.011	838.658
917.276	835.33
922.571	832.011
927.897	828.701
933.254	825.402
938.642	822.114
944.061	818.835
949.511	815.566
954.993	812.307
960.506	809.058
966.051	805.818
971.628	802.587
977.237	799.367
982.879	796.157
988.553	792.956
994.26	789.765
1000	786.585
1005.77	783.415
1011.58	780.255
1017.42	777.105
1023.29	773.964
1029.2	770.833
1035.14	767.71
1041.12	764.599
1047.13	761.497
1053.17	758.403
1059.25	755.32
1065.37	752.248
1071.52	749.186
1077.71	746.134
1083.93	743.093
1090.18	740.062
1096.48	737.042
1102.81	734.032
1109.17	731.033
1115.58	728.044
1122.02	725.065
1128.5	722.097
1135.01	719.14
1141.56	716.192
1148.15	713.254
1154.78	710.327
1161.45	707.41
1168.15	704.504
1174.9	701.605
1181.68	698.718
1188.5	695.84
1195.36	692.972
1202.26	690.114
1209.21	687.265
1216.19	684.425
1223.21	681.595
1230.27	678.774
1237.37	675.963
1244.51	673.162
1251.7	670.371
1258.93	667.59
1266.19	664.819
1273.5	662.056
1280.86	659.303
1288.25	656.559
1295.69	653.826
1303.17	651.102
1310.69	648.386
1318.26	645.681
1325.87	642.984
1333.52	640.298
1341.22	637.62
1348.96	634.952
1356.75	632.293
1364.58	629.644
1372.46	627.003
1380.38	624.373
1388.35	621.752
1396.37	619.141
1404.43	616.539
1412.54	613.947
1420.69	611.365
1428.89	608.793
1437.14	606.23
1445.44	603.676
1453.78	601.131
1462.18	598.596
1470.62	596.071
1479.11	593.555
1487.65	591.048
1496.24	588.552
1504.87	586.064
1513.56	583.586
1522.3	581.117
1531.09	578.657
1539.93	576.206
1548.82	573.764
1557.76	571.331
1566.75	568.907
1575.8	566.492
1584.89	564.087
1594.04	561.691
1603.25	559.305
1612.5	556.929
1621.81	554.562
1631.17	552.205
1640.59	549.856
1650.06	547.517
1659.59	545.187
1669.17	542.865
1678.8	540.553
1688.5	538.25
1698.24	535.957
1708.05	533.672
1717.91	531.396
1727.83	529.13
1737.8	526.873
1747.83	524.625
1757.92	522.386
1768.07	520.156
1778.28	517.934
1788.55	515.722
1798.87	513.519
1809.26	511.327
1819.7	509.143
1830.21	506.968
1840.77	504.803
1851.4	502.646
1862.09	500.497
1872.84	498.357
1883.65	496.226
1894.52	494.104
1905.46	491.99
1916.46	489.884
1927.52	487.788
1938.65	485.701
1949.84	483.623
1961.1	481.552
1972.42	479.489
1983.81	477.435
1995.26	475.389
2006.78	473.35
2018.37	471.319
2030.02	469.295
2041.74	467.28
2053.53	465.275
2065.38	463.278
2077.3	461.288
2089.3	459.309
2101.36	457.337
2113.49	455.373
2125.69	453.417
2137.96	451.47
2150.3	449.529
2162.72	447.597
2175.2	445.673
2187.76	443.756
2200.39	441.848
2213.09	439.947
2225.87	438.055
2238.72	436.17
2251.65	434.294
2264.64	432.425
2277.72	430.563
2290.87	428.71
2304.09	426.865
2317.39	425.027
2330.77	423.197
2344.23	421.376
2357.76	419.562
2371.37	417.756
2385.06	415.958
2398.83	414.167
2412.68	412.384
2426.61	410.609
2440.62	408.841
2454.71	407.081
2468.88	405.329
2483.13	403.584
2497.47	401.848
2511.89	400.119
2526.39	398.397
2540.97	396.684
2555.64	394.978
2570.4	393.28
2585.23	391.589
2600.16	389.906
2615.17	388.229
2630.27	386.561
2645.45	384.9
2660.73	383.246
2676.09	381.6
2691.53	379.962
2707.07	378.329
2722.7	376.702
2738.42	375.081
2754.23	373.468
2770.13	371.863
2786.12	370.264
2802.21	368.674
2818.38	367.09
2834.65	365.513
2851.02	363.944
2867.48	362.381
2884.03	360.826
2900.68	359.278
2917.43	357.737
2934.27	356.203
2951.21	354.676
2968.25	353.156
2985.38	351.643
3002.62	350.133
3019.95	348.629
3037.39	347.132
3054.92	345.641
3072.56	344.157
3090.3	342.679
3108.14	341.203
3126.08	339.733
3144.13	338.27
3162.28	336.814
3180.53	335.364
3198.9	333.921
3217.36	332.484
3235.94	331.054
3254.62	329.63
3273.41	328.212
3292.3	326.802
3311.31	325.398
3330.43	324
3349.65	322.609
3368.99	321.225
3388.44	319.842
3408	318.465
3427.68	317.094
3447.47	315.729
3467.37	314.372
3487.39	313.02
3507.52	311.676
3527.77	310.337
3548.13	309.005
3568.62	307.679
3589.22	306.36
3609.94	305.047
3630.78	303.74
3651.74	302.44
3672.82	301.146
3694.03	299.858
3715.35	298.576
3736.8	297.301
3758.37	296.032
3780.07	294.762
3801.89	293.497
3823.84	292.239
3845.92	290.987
3868.12	289.733
3890.45	288.478
3912.91	287.229
3935.5	285.986
3958.22	284.749
3981.07	283.518
4004.05	282.293
4027.17	281.073
4050.42	279.86
4073.8	278.652
4097.32	277.451
4120.98	276.255
4144.77	275.065
4168.69	273.881
4192.76	272.703
4216.97	271.531
4241.31	270.366
4265.8	269.206
4290.42	268.052
4315.19	266.904
4340.1	265.761
4365.16	264.615
4390.36	263.475
4415.7	262.34
4441.2	261.212
4466.84	260.089
4492.62	258.971
4518.56	257.86
4544.65	256.753
4570.88	255.652
4597.27	254.557
4623.81	253.467
4650.5	252.374
4677.35	251.287
4704.35	250.204
4731.51	249.128
4758.83	248.057
4786.3	246.99
4813.93	245.931
4841.72	244.877
4869.68	243.828
4897.79	242.784
4926.06	241.743
4954.5	240.699
4983.1	239.66
5011.87	238.626
5040.81	237.586
5069.91	236.551
5099.18	235.521
5128.61	234.496
5158.22	233.476
5188	232.462
5217.95	231.452
5248.07	230.447
5278.37	229.45
5308.84	228.457
5339.49	227.47
5370.32	226.487
5401.32	225.51
5432.5	224.538
5463.87	223.571
5495.41	222.609
5527.13	221.653
5559.04	220.701
5591.14	219.755
5623.41	218.813
5655.88	217.877
5688.53	216.945
5721.37	216.018
5754.4	215.096
5787.62	214.179
5821.03	213.267
5854.64	212.36
5888.44	211.459
5922.43	210.564
5956.62	209.673
5991.01	208.786
6025.6	207.907
6060.38	207.035
6095.37	206.167
6130.56	205.303
6165.95	204.444
6201.55	203.59
6237.35	202.739
6273.36	201.894
6309.57	201.053
6346	200.217
6382.63	199.385
6419.48	198.558
6456.54	197.734
6493.82	196.916
6531.31	196.101
6569.01	195.291
6606.93	194.486
6645.08	193.684
6683.44	192.887
6722.02	192.095
6760.83	191.307
6799.86	190.525
6839.12	189.747
6878.6	188.974
6918.31	188.204
6958.25	187.438
6998.42	186.676
7038.82	185.918
7079.46	185.164
7120.33	184.414
7161.43	183.667
7202.78	182.924
7244.36	182.187
7286.18	181.455
7328.25	180.725
7370.55	180
7413.1	179.278
7455.9	178.559
7498.94	177.844
7542.23	177.132
7585.78	176.424
7629.57	175.719
7673.61	175.019
7717.92	174.324
7762.47	173.631
7807.28	172.943
7852.36	172.261
7897.69	171.581
7943.28	170.905
7989.14	170.232
8035.26	169.562
8081.65	168.894
8128.31	168.23
8175.23	167.57
8222.43	166.912
8269.9	166.258
8317.64	165.607
8365.66	164.96
8413.95	164.315
8462.53	163.674
8511.38	163.036
8560.52	162.402
8609.94	161.771
8659.64	161.144
8709.64	160.519
8759.92	159.898
8810.49	159.281
8861.35	158.666
8912.51	158.055
8963.96	157.448
9015.71	156.844
9067.76	156.243
9120.11	155.645
9172.76	155.05
9225.71	154.459
9278.97	153.872
9332.54	153.287
9386.42	152.706
9440.61	152.128
9495.11	151.554
9549.93	150.983
9605.06	150.415
9660.51	149.85
9716.28	149.288
9772.37	148.729
9828.79	148.173
9885.53	147.621
9942.6	147.072
10000	146.526
10057.7	145.983
10115.8	145.444
10174.2	144.907
10232.9	144.373
10292	143.843
10351.4	143.315
10411.2	142.79
10471.3	142.268
10531.7	141.75
10592.5	141.234
10653.7	140.721
10715.2	140.211
10777.1	139.705
10839.3	139.201
10901.8	138.701
10964.8	138.204
11028.1	137.709
11091.7	137.218
11155.8	136.729
11220.2	136.244
11285	135.761
11350.1	135.281
11415.6	134.804
11481.5	134.331
11547.8	133.859
11614.5	133.391
11681.5	132.925
11749	132.462
11816.8	132.002
11885	131.544
11953.6	131.089
12022.6	130.637
12092.1	130.187
12161.9	129.74
12232.1	129.295
12302.7	128.852
12373.7	128.413
12445.1	127.975
12517	127.541
12589.3	127.108
12661.9	126.679
12735	126.251
12808.6	125.826
12882.5	125.403
12956.9	124.983
13031.7	124.565
13106.9	124.149
13182.6	123.736
13258.7	123.325
13335.2	122.916
13412.2	122.509
13489.6	122.105
13567.5	121.703
13645.8	121.303
13724.6	120.905
13803.8	120.51
13883.5	120.117
13963.7	119.727
14044.3	119.338
14125.4	118.952
14206.9	118.568
14288.9	118.187
14371.4	117.808
14454.4	117.43
14537.8	117.055
14621.8	116.682
14706.2	116.312
14791.1	115.943
14876.5	115.577
14962.4	115.213
15048.7	114.851
15135.6	114.491
15223	114.133
15310.9	113.778
15399.3	113.424
15488.2	113.073
15577.6	112.723
15667.5	112.376
15758	112.03
15848.9	111.687
15940.4	111.345
16032.5	111.006
16125	110.669
16218.1	110.334
16311.7	110.001
16405.9	109.67
16500.6	109.341
16595.9	109.014
16691.7	108.689
16788	108.366
16885	108.045
16982.4	107.726
17080.5	107.409
17179.1	107.093
17278.3	106.78
17378	106.469
17478.3	106.159
17579.2	105.852
17680.7	105.546
17782.8	105.242
17885.5	104.941
17988.7	104.64
18092.6	104.343
18197	104.047
18302.1	103.753
18407.7	103.46
18514	103.17
18620.9	102.881
18728.4	102.594
18836.5	102.309
18945.2	102.025
19054.6	101.744
19164.6	101.464
19275.2	101.186
19386.5	100.909
19498.4	100.635
19611	100.361
19724.2	100.09
19838.1	99.8203
19952.6	99.5519
20067.8	99.2853
20183.7	99.0201
20300.2	98.7564
20417.4	98.4943
20535.3	98.2341
20653.8	97.9754
20773	97.7182
20893	97.4629
21013.6	97.2091
21134.9	96.9568
21256.9	96.7061
21379.6	96.4567
21503	96.209
21627.2	95.9627
21752	95.7179
21877.6	95.4747
22003.9	95.2329
22130.9	94.9926
22258.7	94.7539
22387.2	94.5166
22516.5	94.2807
22646.4	94.0463
22777.2	93.8133
22908.7	93.5819
23040.9	93.3519
23173.9	93.1234
23307.7	92.8964
23442.3	92.6708
23577.6	92.4466
23713.7	92.2241
23850.6	92.0027
23988.3	91.7829
24126.8	91.5643
24266.1	91.3473
24406.2	91.1316
24547.1	90.9175
24688.8	90.7045
24831.3	90.4932
24974.7	90.2833
25118.9	90.0745
25263.9	89.8675
25409.7	89.6616
25556.4	89.4572
25704	89.254
25852.3	89.0523
26001.6	88.8519
26151.7	88.6529
26302.7	88.4551
26454.5	88.2586
26607.3	88.0636
26760.9	87.8698
26915.3	87.6775
27070.7	87.4862
27227	87.2966
27384.2	87.1079
27542.3	86.9206
27701.3	86.7346
27861.2	86.55
28022.1	86.3664
28183.8	86.1839
28346.5	86.0025
28510.2	85.8226
28674.8	85.6437
28840.3	85.4663
29006.8	85.2899
29174.3	85.1147
29342.7	84.9408
29512.1	84.7679
29682.5	84.5964
29853.8	84.4259
30026.2	84.2565
30199.5	84.0886
30373.9	83.9215
30549.2	83.7557
30725.6	83.591
30903	83.4272
31081.4	83.2645
31260.8	83.1027
31441.3	82.9419
31622.8	82.7821
31805.3	82.6235
31989	82.466
32173.6	82.3091
32359.4	82.1533
32546.2	81.9987
32734.1	81.8451
32923	81.6926
33113.1	81.5412
33304.3	81.3908
33496.5	81.2415
33689.9	81.0932
33884.4	80.946
34080	80.7998
34276.8	80.6546
34474.7	80.5104
34673.7	80.3673
34873.9	80.2252
35075.2	80.0838
35277.7	79.9432
35481.3	79.8035
35686.2	79.6649
35892.2	79.5272
36099.4	79.3904
36307.8	79.2547
36517.4	79.1198
36728.2	78.9859
36940.3	78.853
37153.5	78.721
37368	78.5898
37583.7	78.4597
37800.7	78.3304
38018.9	78.2019
38238.4	78.0744
38459.2	77.9477
38681.2	77.8219
38904.5	77.6969
39129.1	77.5724
39355	77.4487
39582.2	77.3258
39810.7	77.2037
40040.5	77.0823
40271.7	76.9611
40504.2	76.8409
40738	76.7215
40973.2	76.603
41209.8	76.4854
41447.7	76.3687
41686.9	76.2529
41927.6	76.1378
42169.7	76.0237
42413.1	75.9105
42658	75.7979
42904.2	75.6862
43151.9	75.5754
43401	75.4655
43651.6	75.3562
43903.6	75.2478
44157	75.1402
44412	75.0332
44668.4	74.9271
44926.2	74.8217
45185.6	74.7167
45446.5	74.6126
45708.8	74.509
45972.7	74.4062
46238.1	74.3042
46505	74.2028
46773.5	74.1023
47043.5	74.0024
47315.1	73.9034
47588.3	73.8048
47863	73.707
48139.3	73.6096
48417.2	73.5127
48696.8	73.4165
48977.9	73.321
49260.6	73.2262
49545	73.1322
49831	73.0386
50118.7	72.9457
50408.1	72.8535
50699.1	72.7618
50991.8	72.6709
51286.1	72.58
51582.2	72.4899
51880	72.4004
52179.5	72.3114
52480.7	72.2228
52783.7	72.1349
53088.4	72.0479
53394.9	71.9613
53703.2	71.8756
54013.2	71.7905
54325	71.706
54638.7	71.6224
54954.1	71.5393
55271.3	71.4569
55590.4	71.3751
55911.4	71.2941
56234.1	71.2136
56558.8	71.1339
56885.3	71.0547
57213.7	70.9763
57544	70.8983
57876.2	70.8211
58210.3	70.7446
58546.4	70.6686
58884.4	70.5933
59224.3	70.5185
59566.2	70.4445
59910.1	70.371
60256	70.2981
60603.8	70.2258
60953.7	70.1543
61305.6	70.0831
61659.5	70.0127
62015.5	69.9427
62373.5	69.8735
62733.6	69.8048
63095.7	69.7366
63460	69.6691
63826.3	69.6021
64194.8	69.5357
64565.4	69.4698
64938.2	69.4045
65313.1	69.3399
65690.1	69.2756
66069.3	69.2122
66450.8	69.1491
66834.4	69.0865
67220.2	69.0246
67608.3	68.9632
67998.6	68.9023
68391.2	68.8419
68786	68.7821
69183.1	68.7228
69582.5	68.6639
69984.2	68.6058
70388.2	68.5481
70794.6	68.4909
71203.3	68.4341
71614.3	68.3779
72027.8	68.3221
72443.6	68.2669
72861.8	68.2123
73282.5	68.158
73705.5	68.1043
74131	68.0511
74559	67.9984
74989.4	67.9461
75422.3	67.8943
75857.8	67.843
76295.7	67.7921
76736.1	67.7418
77179.2	67.692
77624.7	67.6425
78072.8	67.5935
78523.6	67.545
78976.9	67.4969
79432.8	67.4493
79891.4	67.4022
80352.6	67.3555
80816.5	67.3092
81283.1	67.2633
81752.3	67.218
82224.3	67.1731
82699	67.1285
83176.4	67.0844
83656.6	67.0408
84139.5	66.9975
84625.3	66.9547
85113.8	66.9123
85605.2	66.8704
86099.4	66.8287
86596.4	66.7876
87096.4	66.7468
87599.2	66.7065
88104.9	66.6665
88613.5	66.627
89125.1	66.5878
89639.6	66.549
90157.1	66.5107
90677.6	66.4727
91201.1	66.435
91727.6	66.3979
92257.1	66.361
92789.7	66.3246
93325.4	66.2885
93864.2	66.2528
94406.1	66.2174
94951.1	66.1825
95499.3	66.1478
96050.6	66.1136
96605.1	66.0797
97162.8	66.0462
97723.7	66.013
98287.9	65.9802
98855.3	65.9478
99426	65.9156
100000	65.8838
100577	65.8524
101158	65.8213
101742	65.7905
102329	65.7601
102920	65.73
103514	65.7002
104112	65.6707
104713	65.6417
105317	65.6129
105925	65.5845
106537	65.5562
107152	65.5284
107771	65.5009
108393	65.4737
109018	65.4468
109648	65.4202
110281	65.3939
110917	65.3679
111558	65.3423
112202	65.3168
112850	65.2918
113501	65.267
114156	65.2425
114815	65.2183
115478	65.1943
116145	65.1707
116815	65.1473
117490	65.1242
118168	65.1015
118850	65.0789
119536	65.0567
120226	65.0347
120921	65.013
121619	64.9916
122321	64.9704
123027	64.9494
123737	64.9288
124451	64.9084
125170	64.8883
125893	64.8684
126619	64.8487
127350	64.8294
128086	64.8103
128825	64.7914
129569	64.7728
130317	64.7543
131069	64.7362
131826	64.7184
132587	64.7006
133352	64.6833
134122	64.6661
134896	64.6491
135675	64.6324
136458	64.6159
137246	64.5995
138038	64.5834
138835	64.5677
139637	64.552
140443	64.5367
141254	64.5214
142069	64.5065
142889	64.4918
143714	64.4773
144544	64.4629
145378	64.4487
146218	64.4349
147062	64.4212
147911	64.4077
148765	64.3944
149624	64.3813
150487	64.3684
151356	64.3557
152230	64.3432
153109	64.3309
153993	64.3187
154882	64.3067
155776	64.295
156675	64.2835
157580	64.272
158489	64.2608
159404	64.2498
160325	64.239
161250	64.2284
162181	64.2178
163117	64.2075
164059	64.1973
165006	64.1874
165959	64.1776
166917	64.168
167880	64.1586
168850	64.1493
169824	64.1401
170805	64.1311
171791	64.1223
172783	64.1138
173780	64.1052
174783	64.0969
175792	64.0887
176807	64.0807
177828	64.0728
178855	64.0651
179887	64.0575
180926	64.0501
181970	64.0429
183021	64.0357
184077	64.0287
185140	64.0218
186209	64.0152
187284	64.0086
188365	64.0022
189452	63.9958
190546	63.9897
191646	63.9837
192752	63.9778
193865	63.972
194984	63.9664
196110	63.9609
197242	63.9555
198381	63.9503
199526	63.9452
200678	63.9401
201837	63.9353
203002	63.9305
204174	63.9259
205353	63.9214
206538	63.917
207730	63.9127
208930	63.9085
210136	63.9045
211349	63.9005
212569	63.8967
213796	63.893
215030	63.8894
216272	63.8858
217520	63.8824
218776	63.8792
220039	63.876
221309	63.8729
222587	63.8699
223872	63.867
225165	63.8642
226464	63.8616
227772	63.859
229087	63.8565
230409	63.8541
231739	63.8518
233077	63.8496
234423	63.8475
235776	63.8454
237137	63.8435
238506	63.8417
239883	63.8399
241268	63.8382
242661	63.8366
244062	63.8351
245471	63.8337
246888	63.8324
248313	63.8311
249747	63.83
251189	63.8289
252639	63.8279
254097	63.8269
255564	63.8261
257040	63.8253
258523	63.8246
260016	63.8239
261517	63.8234
263027	63.8229
264545	63.8225
266073	63.8221
267609	63.8219
269153	63.8217
270707	63.8215
272270	63.8215
273842	63.8215
275423	63.8215
277013	63.8216
278612	63.8218
280221	63.8221
281838	63.8224
283465	63.8228
285102	63.8232
286748	63.8237
288403	63.8243
290068	63.8249
291743	63.8255
293427	63.8263
295121	63.827
296825	63.8279
298538	63.8288
300262	63.8297
301995	63.8307
303739	63.8317
305492	63.8328
307256	63.8339
309030	63.8352
310814	63.8364
312608	63.8377
314413	63.839
316228	63.8404
318053	63.8418
319890	63.8433
321736	63.8448
323594	63.8464
325462	63.848
327341	63.8496
329230	63.8513
331131	63.853
333043	63.8548
334965	63.8566
336899	63.8585
338844	63.8604
340800	63.8623
342768	63.8642
344747	63.8662
346737	63.8683
348739	63.8703
350752	63.8724
352777	63.8746
354813	63.8767
356862	63.8789
358922	63.8812
360994	63.8834
363078	63.8857
365174	63.888
367282	63.8904
369403	63.8928
371535	63.8952
373680	63.8976
375837	63.9001
378007	63.9026
380189	63.9051
382384	63.9076
384592	63.9102
386812	63.9128
389045	63.9154
391291	63.9181
393550	63.9207
395822	63.9234
398107	63.9261
400405	63.9289
402717	63.9316
405042	63.9344
407380	63.9372
409732	63.94
412098	63.9428
414477	63.9457
416869	63.9485
419276	63.9514
421697	63.9543
424131	63.9573
426580	63.9602
429042	63.9631
431519	63.9661
434010	63.9691
436516	63.9721
439036	63.9751
441570	63.9781
444120	63.9812
446684	63.9842
449262	63.9873
451856	63.9904
454465	63.9934
457088	63.9965
459727	63.9997
462381	64.0028
465050	64.0059
467735	64.0091
470435	64.0122
473151	64.0154
475883	64.0185
478630	64.0217
481393	64.0249
484172	64.0281
486968	64.0313
489779	64.0345
492606	64.0377
495450	64.0409
498310	64.0441
501187	64.0474
504081	64.0506
506991	64.0538
509918	64.0571
512861	64.0603
515822	64.0636
518800	64.0668
521795	64.0701
524807	64.0734
527837	64.0766
530884	64.0799
533949	64.0832
537032	64.0864
540132	64.0897
543250	64.093
546387	64.0962
549541	64.0995
552713	64.1028
555904	64.1061
559114	64.1093
562341	64.1126
565588	64.1159
568853	64.1192
572137	64.1224
575440	64.1257
578762	64.1289
582103	64.1322
585464	64.1355
588844	64.1387
592243	64.142
595662	64.1452
599101	64.1485
602560	64.1518
606038	64.155
609537	64.1582
613056	64.1615
616595	64.1647
620155	64.1679
623735	64.1711
627336	64.1744
630957	64.1776
634600	64.1808
638263	64.184
641948	64.1872
645654	64.1904
649382	64.1935
653131	64.1967
656901	64.1999
660693	64.203
664508	64.2062
668344	64.2093
672202	64.2125
676083	64.2156
679986	64.2187
683912	64.2218
687860	64.225
691831	64.2281
695825	64.2311
699842	64.2342
703882	64.2373
707946	64.2404
712033	64.2434
716143	64.2465
720278	64.2495
724436	64.2525
728618	64.2556
732825	64.2586
737055	64.2616
741310	64.2646
745590	64.2675
749894	64.2705
754223	64.2735
758578	64.2764
762957	64.2794
767361	64.2823
771792	64.2852
776247	64.2881
780728	64.291
785236	64.2939
789769	64.2968
794328	64.2996
798914	64.3025
803526	64.3053
808165	64.3082
812831	64.3109
817523	64.3137
822243	64.3165
826990	64.3193
831764	64.322
836566	64.3248
841395	64.3275
846253	64.3303
851138	64.3331
856052	64.3357
860994	64.3384
865964	64.3411
870964	64.3437
875992	64.3463
881049	64.349
886135	64.3516
891251	64.3542
896396	64.3568
901571	64.3594
906776	64.362
912011	64.3646
917276	64.3671
922571	64.3696
927897	64.3722
933254	64.3747
938642	64.3772
944061	64.3796
949511	64.3821
954993	64.3845
960506	64.3869
966051	64.3894
971628	64.3918
977237	64.3941
982879	64.3965
988553	64.3989
994260	64.4012
1e+06	64.4036
1.00577e+06	64.4059
1.01158e+06	64.4082
1.01742e+06	64.4105
1.02329e+06	64.4127
1.0292e+06	64.415
1.03514e+06	64.4172
1.04112e+06	64.4195
1.04713e+06	64.4217
1.05317e+06	64.4239
1.05925e+06	64.4261
1.06537e+06	64.4283
1.07152e+06	64.4304
1.07771e+06	64.4325
1.08393e+06	64.4347
1.09018e+06	64.4368
1.09648e+06	64.4389
1.10281e+06	64.441
1.10917e+06	64.443
1.11558e+06	64.4451
1.12202e+06	64.4472
1.1285e+06	64.4492
1.13501e+06	64.4512
1.14156e+06	64.4532
1.14815e+06	64.4552
1.15478e+06	64.4571
1.16145e+06	64.4591
1.16815e+06	64.461
1.1749e+06	64.463
1.18168e+06	64.4648
1.1885e+06	64.4667
1.19536e+06	64.4686
1.20226e+06	64.4705
1.20921e+06	64.4723
1.21619e+06	64.4742
1.22321e+06	64.4759
1.23027e+06	64.4777
1.23737e+06	64.4796
1.24451e+06	64.4813
1.2517e+06	64.483
1.25893e+06	64.4848
1.26619e+06	64.4865
1.2735e+06	64.4882
1.28086e+06	64.4899
1.28825e+06	64.4916
1.29569e+06	64.4933
1.30317e+06	64.4949
1.31069e+06	64.4966
1.31826e+06	64.4982
1.32587e+06	64.4998
1.33352e+06	64.5014
1.34122e+06	64.5029
1.34896e+06	64.5045
1.35675e+06	64.5061
1.36458e+06	64.5076
1.37246e+06	64.5091
1.38038e+06	64.5107
1.38835e+06	64.5121
1.39637e+06	64.5136
1.40443e+06	64.515
1.41254e+06	64.5165
1.42069e+06	64.5179
1.42889e+06	64.5194
1.43714e+06	64.5208
1.44544e+06	64.5222
1.45378e+06	64.5235
1.46218e+06	64.5249
1.47062e+06	64.5263
1.47911e+06	64.5276
1.48765e+06	64.5289
1.49624e+06	64.5302
1.50487e+06	64.5314
1.51356e+06	64.5327
1.5223e+06	64.534
1.53109e+06	64.5353
1.53993e+06	64.5365
1.54882e+06	64.5377
1.55776e+06	64.5389
1.56675e+06	64.5401
1.5758e+06	64.5413
1.58489e+06	64.5424
1.59404e+06	64.5436
1.60325e+06	64.5448
1.6125e+06	64.5459
1.62181e+06	64.547
1.63117e+06	64.5481
1.64059e+06	64.5492
1.65006e+06	64.5502
1.65959e+06	64.5513
1.66917e+06	64.5523
1.6788e+06	64.5534
1.6885e+06	64.5544
1.69824e+06	64.5554
1.70805e+06	64.5564
1.71791e+06	64.5574
1.72783e+06	64.5583
1.7378e+06	64.5594
1.74783e+06	64.5603
1.75792e+06	64.5612
1.76807e+06	64.5621
1.77828e+06	64.563
1.78855e+06	64.5639
1.79887e+06	64.5648
1.80926e+06	64.5656
1.8197e+06	64.5665
1.83021e+06	64.5673
1.84077e+06	64.5681
1.8514e+06	64.569
1.86209e+06	64.5698
1.87284e+06	64.5706
1.88365e+06	64.5713
1.89452e+06	64.5721
1.90546e+06	64.5729
1.91646e+06	64.5736
1.92752e+06	64.5744
1.93865e+06	64.5751
1.94984e+06	64.5758
1.9611e+06	64.5766
1.97242e+06	64.5772
1.98381e+06	64.5779
1.99526e+06	64.5786
2.00678e+06	64.5792
2.01837e+06	64.5798
2.03002e+06	64.5805
2.04174e+06	64.5811
2.05353e+06	64.5817
2.06538e+06	64.5823
2.0773e+06	64.5829
2.0893e+06	64.5835
2.10136e+06	64.5841
2.11349e+06	64.5846
2.12569e+06	64.5852
2.13796e+06	64.5857
2.1503e+06	64.5863
2.16272e+06	64.5868
2.1752e+06	64.5872
2.18776e+06	64.5878
2.20039e+06	64.5882
2.21309e+06	64.5887
2.22587e+06	64.5892
2.23872e+06	64.5896
2.25165e+06	64.5901
2.26464e+06	64.5905
2.27772e+06	64.5909
2.29087e+06	64.5913
2.30409e+06	64.5918
2.31739e+06	64.5922
2.33077e+06	64.5926
2.34423e+06	64.5929
2.35776e+06	64.5933
2.37137e+06	64.5937
2.38506e+06	64.5941
2.39883e+06	64.5944
2.41268e+06	64.5947
2.42661e+06	64.5951
2.44062e+06	64.5954
2.45471e+06	64.5957
2.46888e+06	64.596
2.48313e+06	64.5963
2.49747e+06	64.5966
2.51189e+06	64.5969
2.52639e+06	64.5971
2.54097e+06	64.5974
2.55564e+06	64.5977
2.5704e+06	64.5979
2.58523e+06	64.5981
2.60016e+06	64.5984
2.61517e+06	64.5986
2.63027e+06	64.5988
2.64545e+06	64.5991
2.66073e+06	64.5993
2.67609e+06	64.5994
2.69153e+06	64.5996
2.70707e+06	64.5998
2.7227e+06	64.5999
2.73842e+06	64.6001
2.75423e+06	64.6003
2.77013e+06	64.6005
2.78612e+06	64.6006
2.80221e+06	64.6008
2.81838e+06	64.6009
2.83465e+06	64.601
2.85102e+06	64.6012
2.86748e+06	64.6013
2.88403e+06	64.6014
2.90068e+06	64.6015
2.91743e+06	64.6016
2.93427e+06	64.6017
2.95121e+06	64.6018
2.96825e+06	64.6019
2.98538e+06	64.602
3.00262e+06	64.602
3.01995e+06	64.6021
3.03739e+06	64.6022
3.05492e+06	64.6023
3.07256e+06	64.6023
3.0903e+06	64.6024
3.10814e+06	64.6024
3.12608e+06	64.6024
3.14413e+06	64.6025
3.16228e+06	64.6025
3.18053e+06	64.6025
3.1989e+06	64.6026
3.21736e+06	64.6026
3.23594e+06	64.6026
3.25462e+06	64.6027
3.27341e+06	64.6027
3.2923e+06	64.6026
3.31131e+06	64.6026
3.33043e+06	64.6027
3.34965e+06	64.6027
3.36899e+06	64.6026
3.38844e+06	64.6026
3.408e+06	64.6026
3.42768e+06	64.6026
3.44747e+06	64.6026
3.46737e+06	64.6025
3.48739e+06	64.6025
3.50752e+06	64.6025
3.52777e+06	64.6024
3.54813e+06	64.6025
3.56862e+06	64.6024
3.58922e+06	64.6024
3.60994e+06	64.6023
3.63078e+06	64.6022
3.65174e+06	64.6022
3.67282e+06	64.6021
3.69403e+06	64.6021
3.71535e+06	64.602
3.7368e+06	64.602
3.75837e+06	64.6019
3.78007e+06	64.6018
3.80189e+06	64.6018
3.82384e+06	64.6017
3.84592e+06	64.6017
3.86812e+06	64.6016
3.89045e+06	64.6016
3.91291e+06	64.6015
3.9355e+06	64.6013
3.95822e+06	64.6013
3.98107e+06	64.6012
4.00405e+06	64.6011
4.02717e+06	64.6011
4.05042e+06	64.601
4.0738e+06	64.6009
4.09732e+06	64.6008
4.12098e+06	64.6008
4.14477e+06	64.6007
4.16869e+06	64.6006
4.19276e+06	64.6006
4.21697e+06	64.6005
4.24131e+06	64.6004
4.2658e+06	64.6003
4.29042e+06	64.6003
4.31519e+06	64.6001
4.3401e+06	64.6
4.36516e+06	64.5999
4.39036e+06	64.5999
4.4157e+06	64.5998
4.4412e+06	64.5997
4.46684e+06	64.5996
4.49262e+06	64.5995
4.51856e+06	64.5995
4.54465e+06	64.5993
4.57088e+06	64.5992
4.59727e+06	64.5992
4.62381e+06	64.5991
4.6505e+06	64.599
4.67735e+06	64.5989
4.70435e+06	64.5989
4.73151e+06	64.5987
4.75883e+06	64.5986
4.7863e+06	64.5986
4.81393e+06	64.5985
4.84172e+06	64.5984
4.86968e+06	64.5983
4.89779e+06	64.5982
4.92606e+06	64.5981
4.9545e+06	64.5981
4.9831e+06	64.598
5.01187e+06	64.5979
5.04081e+06	64.5979
5.06991e+06	64.5978
5.09918e+06	64.5976
5.12861e+06	64.5976
5.15822e+06	64.5975
5.188e+06	64.5974
5.21795e+06	64.5974
5.24807e+06	64.5973
5.27837e+06	64.5973
5.30884e+06	64.5971
5.33949e+06	64.597
5.37032e+06	64.597
5.40132e+06	64.5969
5.4325e+06	64.5968
5.46387e+06	64.5968
5.49541e+06	64.5967
5.52713e+06	64.5966
5.55904e+06	64.5965
5.59114e+06	64.5965
5.62341e+06	64.5964
5.65588e+06	64.5964
5.68853e+06	64.5963
5.72137e+06	64.5962
5.7544e+06	64.5961
5.78762e+06	64.5961
5.82103e+06	64.596
5.85464e+06	64.5959
5.88844e+06	64.5959
5.92243e+06	64.5958
5.95662e+06	64.5958
5.99101e+06	64.5957
6.0256e+06	64.5957
6.06038e+06	64.5956
6.09537e+06	64.5955
6.13056e+06	64.5954
6.16595e+06	64.5954
6.20155e+06	64.5954
6.23735e+06	64.5953
6.27336e+06	64.5953
6.30957e+06	64.5952
6.346e+06	64.5951
6.38263e+06	64.595
6.41948e+06	64.595
6.45654e+06	64.5949
6.49382e+06	64.5949
6.53131e+06	64.5948
6.56901e+06	64.5948
6.60693e+06	64.5947
6.64508e+06	64.5947
6.68344e+06	64.5947
6.72202e+06	64.5945
6.76083e+06	64.5945
6.79986e+06	64.5944
6.83912e+06	64.5944
6.8786e+06	64.5944
6.91831e+06	64.5943
6.95825e+06	64.5943
6.99842e+06	64.5942
7.03882e+06	64.5942
7.07946e+06	64.5942
7.12033e+06	64.5941
7.16143e+06	64.594
7.20278e+06	64.594
7.24436e+06	64.5939
7.28618e+06	64.5939
7.32825e+06	64.5938
7.37055e+06	64.5938
7.4131e+06	64.5938
7.4559e+06	64.5937
7.49894e+06	64.5937
7.54223e+06	64.5937
7.58578e+06	64.5936
7.62957e+06	64.5936
7.67361e+06	64.5934
7.71792e+06	64.5934
7.76247e+06	64.5934
7.80728e+06	64.5933
7.85236e+06	64.5933
7.89769e+06	64.5933
7.94328e+06	64.5932
7.98914e+06	64.5932
8.03526e+06	64.5932
8.08165e+06	64.5931
8.12831e+06	64.5931
8.17523e+06	64.5931
8.22243e+06	64.593
8.2699e+06	64.5929
8.31764e+06	64.5929
8.36566e+06	64.5929
8.41395e+06	64.5928
8.46253e+06	64.5928
8.51138e+06	64.5928
8.56052e+06	64.5927
8.60994e+06	64.5927
8.65964e+06	64.5927
8.70964e+06	64.5926
8.75992e+06	64.5926
8.81049e+06	64.5926
8.86135e+06	64.5925
8.91251e+06	64.5925
8.96396e+06	64.5925
9.01571e+06	64.5924
9.06776e+06	64.5924
9.12011e+06	64.5923
9.17276e+06	64.5923
9.22571e+06	64.5923
9.27897e+06	64.5922
9.33254e+06	64.5922
9.38642e+06	64.5922
9.44061e+06	64.5922
9.49511e+06	64.5921
9.54993e+06	64.5921
9.60506e+06	64.5921
9.66051e+06	64.5921
9.71628e+06	64.592
9.77237e+06	64.592
9.82879e+06	64.592
9.88553e+06	64.592
9.9426e+06	64.5918
1e+07	64.5918
