E [MeV]	dEdx [keV/microm]
0.001	32.4214
0.00100577	32.5156
0.00101158	32.6101
0.00101742	32.7049
0.00102329	32.7999
0.0010292	32.8952
0.00103514	32.9908
0.00104112	33.0867
0.00104713	33.1828
0.00105317	33.2792
0.00105925	33.3759
0.00106537	33.4729
0.00107152	33.5701
0.00107771	33.6677
0.00108393	33.7655
0.00109018	33.8636
0.00109648	33.9619
0.00110281	34.0606
0.00110917	34.1596
0.00111558	34.2588
0.00112202	34.3583
0.0011285	34.4581
0.00113501	34.5582
0.00114156	34.6586
0.00114815	34.7593
0.00115478	34.8602
0.00116145	34.9615
0.00116815	35.063
0.0011749	35.1648
0.00118168	35.267
0.0011885	35.3694
0.00119536	35.4721
0.00120226	35.5751
0.00120921	35.6785
0.00121619	35.7821
0.00122321	35.886
0.00123027	35.9902
0.00123737	36.0947
0.00124451	36.1995
0.0012517	36.3046
0.00125893	36.41
0.00126619	36.5157
0.0012735	36.6217
0.00128086	36.7281
0.00128825	36.8347
0.00129569	36.9417
0.00130317	37.0489
0.00131069	37.1565
0.00131826	37.2643
0.00132587	37.3725
0.00133352	37.481
0.00134122	37.5898
0.00134896	37.6989
0.00135675	37.8083
0.00136458	37.9181
0.00137246	38.0282
0.00138038	38.1385
0.00138835	38.2493
0.00139637	38.3603
0.00140443	38.4716
0.00141254	38.5833
0.00142069	38.6953
0.00142889	38.8076
0.00143714	38.9202
0.00144544	39.0331
0.00145378	39.1464
0.00146218	39.26
0.00147062	39.3739
0.00147911	39.4882
0.00148765	39.6028
0.00149624	39.7177
0.00150487	39.833
0.00151356	39.9486
0.0015223	40.0645
0.00153109	40.1807
0.00153993	40.2973
0.00154882	40.4143
0.00155776	40.5315
0.00156675	40.6491
0.0015758	40.767
0.00158489	40.8853
0.00159404	41.0039
0.00160325	41.1229
0.0016125	41.2422
0.00162181	41.3618
0.00163117	41.4818
0.00164059	41.6022
0.00165006	41.7228
0.00165959	41.8439
0.00166917	41.9653
0.0016788	42.087
0.0016885	42.2091
0.00169824	42.3315
0.00170805	42.4543
0.00171791	42.5774
0.00172783	42.7009
0.0017378	42.8248
0.00174783	42.949
0.00175792	43.0735
0.00176807	43.1985
0.00177828	43.3238
0.00178855	43.4494
0.00179887	43.5754
0.00180926	43.7018
0.0018197	43.8285
0.00183021	43.9556
0.00184077	44.0831
0.0018514	44.2109
0.00186209	44.3391
0.00187284	44.4677
0.00188365	44.5966
0.00189452	44.7259
0.00190546	44.8556
0.00191646	44.9857
0.00192752	45.1161
0.00193865	45.2469
0.00194984	45.3781
0.0019611	45.5097
0.00197242	45.6416
0.00198381	45.7739
0.00199526	45.9067
0.00200678	46.0398
0.00201837	46.1732
0.00203002	46.3071
0.00204174	46.4414
0.00205353	46.576
0.00206538	46.711
0.0020773	46.8464
0.0020893	46.9822
0.00210136	47.1184
0.00211349	47.255
0.00212569	47.392
0.00213796	47.5293
0.0021503	47.6671
0.00216272	47.8052
0.0021752	47.9438
0.00218776	48.0828
0.00220039	48.2221
0.00221309	48.3619
0.00222587	48.5021
0.00223872	48.6426
0.00225165	48.7836
0.00226464	48.925
0.00227772	49.0668
0.00229087	49.209
0.00230409	49.3516
0.00231739	49.4946
0.00233077	49.6381
0.00234423	49.7819
0.00235776	49.9261
0.00237137	50.0708
0.00238506	50.2159
0.00239883	50.3615
0.00241268	50.5074
0.00242661	50.6537
0.00244062	50.8005
0.00245471	50.9477
0.00246888	51.0953
0.00248313	51.2433
0.00249747	51.3918
0.00251189	51.5407
0.00252639	51.6901
0.00254097	51.8398
0.00255564	51.99
0.0025704	52.1406
0.00258523	52.2917
0.00260016	52.4432
0.00261517	52.5951
0.00263027	52.7475
0.00264545	52.9003
0.00266073	53.0535
0.00267609	53.2072
0.00269153	53.3614
0.00270707	53.516
0.0027227	53.671
0.00273842	53.8264
0.00275423	53.9824
0.00277013	54.1387
0.00278612	54.2955
0.00280221	54.4528
0.00281838	54.6106
0.00283465	54.7687
0.00285102	54.9274
0.00286748	55.0865
0.00288403	55.246
0.00290068	55.406
0.00291743	55.5665
0.00293427	55.7274
0.00295121	55.8888
0.00296825	56.0507
0.00298538	56.213
0.00300262	56.3758
0.00301995	56.539
0.00303739	56.7028
0.00305492	56.867
0.00307256	57.0317
0.0030903	57.1968
0.00310814	57.3625
0.00312608	57.5286
0.00314413	57.6952
0.00316228	57.8622
0.00318053	58.0298
0.0031989	58.1978
0.00321736	58.3663
0.00323594	58.5353
0.00325462	58.7048
0.00327341	58.8748
0.0032923	59.0453
0.00331131	59.2163
0.00333043	59.3877
0.00334965	59.5597
0.00336899	59.7321
0.00338844	59.9051
0.003408	60.0785
0.00342768	60.2524
0.00344747	60.4269
0.00346737	60.6018
0.00348739	60.7772
0.00350752	60.9532
0.00352777	61.1297
0.00354813	61.3066
0.00356862	61.4841
0.00358922	61.6621
0.00360994	61.8406
0.00363078	62.0196
0.00365174	62.1992
0.00367282	62.3792
0.00369403	62.5598
0.00371535	62.7409
0.0037368	62.9225
0.00375837	63.1046
0.00378007	63.2873
0.00380189	63.4705
0.00382384	63.6542
0.00384592	63.8384
0.00386812	64.0232
0.00389045	64.2085
0.00391291	64.3944
0.0039355	64.5807
0.00395822	64.7676
0.00398107	64.9551
0.00400405	65.1431
0.00402717	65.3317
0.00405042	65.5207
0.0040738	65.7104
0.00409732	65.9005
0.00412098	66.0913
0.00414477	66.2825
0.00416869	66.4743
0.00419276	66.6667
0.00421697	66.8597
0.00424131	67.0531
0.0042658	67.2471
0.00429042	67.4418
0.00431519	67.6369
0.0043401	67.8327
0.00436516	68.0289
0.00439036	68.2258
0.0044157	68.4232
0.0044412	68.6212
0.00446684	68.8198
0.00449262	69.0189
0.00451856	69.2186
0.00454465	69.4189
0.00457088	69.6198
0.00459727	69.8212
0.00462381	70.0232
0.0046505	70.2258
0.00467735	70.429
0.00470435	70.6328
0.00473151	70.8372
0.00475883	71.0421
0.0047863	71.2476
0.00481393	71.4538
0.00484172	71.6605
0.00486968	71.8678
0.00489779	72.0757
0.00492606	72.2843
0.0049545	72.4934
0.0049831	72.7031
0.00501187	72.9134
0.00504081	73.1244
0.00506991	73.3359
0.00509918	73.5481
0.00512861	73.7608
0.00515822	73.9742
0.005188	74.1882
0.00521795	74.4028
0.00524807	74.618
0.00527837	74.8339
0.00530884	75.0504
0.00533949	75.2674
0.00537032	75.4852
0.00540132	75.7035
0.0054325	75.9225
0.00546387	76.1421
0.00549541	76.3623
0.00552713	76.5832
0.00555904	76.8047
0.00559114	77.0269
0.00562341	77.2497
0.00565588	77.4731
0.00568853	77.6972
0.00572137	77.9219
0.0057544	78.1473
0.00578762	78.3733
0.00582103	78.6
0.00585464	78.8273
0.00588844	79.0553
0.00592243	79.2839
0.00595662	79.5132
0.00599101	79.7432
0.0060256	79.9738
0.00606038	80.2051
0.00609537	80.437
0.00613056	80.6696
0.00616595	80.9029
0.00620155	81.1369
0.00623735	81.3715
0.00627336	81.6068
0.00630957	81.8428
0.006346	82.0795
0.00638263	82.3169
0.00641948	82.5549
0.00645654	82.7936
0.00649382	83.033
0.00653131	83.2731
0.00656901	83.5139
0.00660693	83.7554
0.00664508	83.9976
0.00668344	84.2405
0.00672202	84.484
0.00676083	84.7284
0.00679986	84.9733
0.00683912	85.219
0.0068786	85.4654
0.00691831	85.7126
0.00695825	85.9604
0.00699842	86.2089
0.00703882	86.4582
0.00707946	86.7082
0.00712033	86.9588
0.00716143	87.2103
0.00720278	87.4624
0.00724436	87.7153
0.00728618	87.9689
0.00732825	88.2232
0.00737055	88.4783
0.0074131	88.7341
0.0074559	88.9906
0.00749894	89.2479
0.00754223	89.5059
0.00758578	89.7647
0.00762957	90.0241
0.00767361	90.2844
0.00771792	90.5454
0.00776247	90.8072
0.00780728	91.0697
0.00785236	91.3329
0.00789769	91.597
0.00794328	91.8618
0.00798914	92.1273
0.00803526	92.3936
0.00808165	92.6607
0.00812831	92.9286
0.00817523	93.1972
0.00822243	93.4666
0.0082699	93.7368
0.00831764	94.0077
0.00836566	94.2794
0.00841395	94.552
0.00846253	94.8253
0.00851138	95.0994
0.00856052	95.3743
0.00860994	95.6499
0.00865964	95.9264
0.00870964	96.2037
0.00875992	96.4817
0.00881049	96.7606
0.00886135	97.0403
0.00891251	97.3207
0.00896396	97.602
0.00901571	97.8841
0.00906776	98.167
0.00912011	98.4508
0.00917276	98.7353
0.00922571	99.0206
0.00927897	99.3068
0.00933254	99.5939
0.00938642	99.8817
0.00944061	100.17
0.00949511	100.46
0.00954993	100.75
0.00960506	101.041
0.00966051	101.333
0.00971628	101.626
0.00977237	101.92
0.00982879	102.215
0.00988553	102.51
0.0099426	102.806
0.01	103.103
0.0100577	103.401
0.0101158	103.7
0.0101742	104
0.0102329	104.3
0.010292	104.653
0.0103514	104.955
0.0104112	105.258
0.0104713	105.562
0.0105317	105.92
0.0105925	106.226
0.0106537	106.585
0.0107152	106.893
0.0107771	107.201
0.0108393	107.511
0.0109018	107.821
0.0109648	108.132
0.0110281	108.554
0.0110917	108.867
0.0111558	109.181
0.0112202	109.495
0.011285	109.811
0.0113501	110.127
0.0114156	110.445
0.0114815	110.763
0.0115478	111.083
0.0116145	111.403
0.0116815	111.724
0.011749	112.046
0.0118168	112.369
0.011885	112.693
0.0119536	113.018
0.0120226	113.343
0.0120921	113.67
0.0121619	113.998
0.0122321	114.326
0.0123027	114.656
0.0123737	114.986
0.0124451	115.318
0.012517	115.65
0.0125893	115.983
0.0126619	116.318
0.012735	116.653
0.0128086	116.989
0.0128825	117.326
0.0129569	117.665
0.0130317	118.004
0.0131069	118.344
0.0131826	118.685
0.0132587	119.027
0.0133352	119.37
0.0134122	119.714
0.0134896	120.059
0.0135675	120.406
0.0136458	120.752
0.0137246	121.1
0.0138038	121.449
0.0138835	121.8
0.0139637	122.151
0.0140443	122.503
0.0141254	122.856
0.0142069	123.21
0.0142889	123.565
0.0143714	123.921
0.0144544	124.279
0.0145378	124.637
0.0146218	124.996
0.0147062	125.356
0.0147911	125.718
0.0148765	126.08
0.0149624	126.443
0.0150487	126.808
0.0151356	127.173
0.015223	127.54
0.0153109	127.908
0.0153993	128.276
0.0154882	128.646
0.0155776	129.017
0.0156675	129.389
0.015758	129.761
0.0158489	130.136
0.0159404	130.511
0.0160325	130.887
0.016125	131.264
0.0162181	131.643
0.0163117	132.022
0.0164059	132.403
0.0165006	132.784
0.0165959	133.167
0.0166917	133.551
0.016788	133.936
0.016885	134.322
0.0169824	134.709
0.0170805	135.097
0.0171791	135.487
0.0172783	135.877
0.017378	136.269
0.0174783	136.662
0.0175792	137.055
0.0176807	137.451
0.0177828	137.847
0.0178855	138.244
0.0179887	138.642
0.0180926	139.042
0.018197	139.443
0.0183021	139.845
0.0184077	140.248
0.018514	140.652
0.0186209	141.057
0.0187284	141.464
0.0188365	141.872
0.0189452	142.281
0.0190546	142.691
0.0191646	143.102
0.0192752	143.515
0.0193865	143.928
0.0194984	144.343
0.019611	144.759
0.0197242	145.176
0.0198381	145.595
0.0199526	146.014
0.0200678	146.435
0.0201837	146.857
0.0203002	147.281
0.0204174	147.705
0.0205353	148.131
0.0206538	148.558
0.020773	148.986
0.020893	149.416
0.0210136	149.847
0.0211349	150.278
0.0212569	150.711
0.0213796	151.146
0.021503	151.581
0.0216272	152.018
0.021752	152.456
0.0218776	152.896
0.0220039	153.337
0.0221309	153.779
0.0222587	154.222
0.0223872	154.666
0.0225165	155.112
0.0226464	155.559
0.0227772	156.008
0.0229087	156.457
0.0230409	156.908
0.0231739	157.36
0.0233077	157.814
0.0234423	158.269
0.0235776	158.725
0.0237137	159.183
0.0238506	159.642
0.0239883	160.102
0.0241268	160.563
0.0242661	161.026
0.0244062	161.49
0.0245471	161.956
0.0246888	162.422
0.0248313	162.891
0.0249747	163.36
0.0251189	163.831
0.0252639	164.303
0.0254097	164.777
0.0255564	165.252
0.025704	165.728
0.0258523	166.206
0.0260016	166.685
0.0261517	167.165
0.0263027	167.647
0.0264545	168.13
0.0266073	168.615
0.0267609	169.101
0.0269153	169.589
0.0270707	170.077
0.027227	170.567
0.0273842	171.059
0.0275423	171.552
0.0277013	172.047
0.0278612	172.543
0.0280221	173.04
0.0281838	173.539
0.0283465	174.039
0.0285102	174.54
0.0286748	175.043
0.0288403	175.548
0.0290068	176.054
0.0291743	176.562
0.0293427	177.07
0.0295121	177.581
0.0296825	178.092
0.0298538	178.606
0.0300262	179.121
0.0301995	179.637
0.0303739	180.155
0.0305492	180.674
0.0307256	181.195
0.030903	181.717
0.0310814	182.241
0.0312608	182.767
0.0314413	183.293
0.0316228	183.821
0.0318053	184.351
0.031989	184.882
0.0321736	185.416
0.0323594	185.95
0.0325462	186.486
0.0327341	187.024
0.032923	187.562
0.0331131	188.103
0.0333043	188.645
0.0334965	189.189
0.0336899	189.735
0.0338844	190.281
0.03408	190.83
0.0342768	191.38
0.0344747	191.931
0.0346737	192.485
0.0348739	193.039
0.0350752	193.596
0.0352777	194.154
0.0354813	194.713
0.0356862	195.275
0.0358922	195.838
0.0360994	196.402
0.0363078	196.968
0.0365174	197.536
0.0367282	198.105
0.0369403	198.677
0.0371535	199.249
0.037368	199.823
0.0375837	200.399
0.0378007	200.977
0.0380189	201.556
0.0382384	202.137
0.0384592	202.72
0.0386812	203.304
0.0389045	203.89
0.0391291	204.478
0.039355	205.067
0.0395822	205.658
0.0398107	206.251
0.0400405	206.846
0.0402717	207.441
0.0405042	208.04
0.040738	208.639
0.0409732	209.241
0.0412098	209.844
0.0414477	210.448
0.0416869	211.055
0.0419276	211.663
0.0421697	212.274
0.0424131	212.886
0.042658	213.499
0.0429042	214.115
0.0431519	214.732
0.043401	215.351
0.0436516	215.971
0.0439036	216.594
0.044157	217.218
0.044412	217.844
0.0446684	218.472
0.0449262	219.102
0.0451856	219.733
0.0454465	220.367
0.0457088	221.002
0.0459727	221.639
0.0462381	222.278
0.046505	222.919
0.0467735	223.561
0.0470435	224.205
0.0473151	224.852
0.0475883	225.5
0.047863	226.15
0.0481393	226.801
0.0484172	227.455
0.0486968	228.111
0.0489779	228.768
0.0492606	229.428
0.049545	230.089
0.049831	230.752
0.0501187	231.417
0.0504081	232.084
0.0506991	232.754
0.0509918	233.424
0.0512861	234.097
0.0515822	234.772
0.05188	235.449
0.0521795	236.127
0.0524807	236.808
0.0527837	237.49
0.0530884	238.175
0.0533949	238.861
0.0537032	239.55
0.0540132	240.241
0.054325	240.933
0.0546387	241.627
0.0549541	242.324
0.0552713	243.022
0.0555904	243.723
0.0559114	244.425
0.0562341	245.13
0.0565588	245.836
0.0568853	246.545
0.0572137	247.256
0.057544	247.968
0.0578762	248.683
0.0582103	249.4
0.0585464	250.119
0.0588844	250.84
0.0592243	251.563
0.0595662	252.288
0.0599101	253.015
0.060256	253.744
0.0606038	254.476
0.0609537	255.209
0.0613056	255.945
0.0616595	256.682
0.0620155	257.422
0.0623735	258.164
0.0627336	258.908
0.0630957	259.655
0.06346	260.403
0.0638263	261.154
0.0641948	261.906
0.0645654	262.661
0.0649382	263.418
0.0653131	264.178
0.0656901	264.939
0.0660693	265.703
0.0664508	266.469
0.0668344	267.237
0.0672202	268.007
0.0676083	268.78
0.0679986	269.554
0.0683912	270.331
0.068786	271.11
0.0691831	271.892
0.0695825	272.675
0.0699842	273.461
0.0703882	274.25
0.0707946	275.04
0.0712033	275.833
0.0716143	276.628
0.0720278	277.425
0.0724436	278.225
0.0728618	279.027
0.0732825	279.831
0.0737055	280.638
0.074131	281.447
0.074559	282.258
0.0749894	283.072
0.0754223	283.887
0.0758578	284.706
0.0762957	285.526
0.0767361	286.349
0.0771792	287.175
0.0776247	288.002
0.0780728	288.832
0.0785236	289.665
0.0789769	290.5
0.0794328	291.337
0.0798914	292.177
0.0803526	293.019
0.0808165	293.864
0.0812831	294.711
0.0817523	295.56
0.0822243	296.412
0.082699	297.266
0.0831764	298.123
0.0836566	298.983
0.0841395	299.845
0.0846253	300.709
0.0851138	301.575
0.0856052	302.445
0.0860994	303.317
0.0865964	304.191
0.0870964	305.068
0.0875992	305.947
0.0881049	306.829
0.0886135	307.713
0.0891251	308.6
0.0896396	309.49
0.0901571	310.382
0.0906776	311.276
0.0912011	312.174
0.0917276	313.073
0.0922571	313.976
0.0927897	314.881
0.0933254	315.788
0.0938642	316.698
0.0944061	317.611
0.0949511	318.527
0.0954993	319.445
0.0960506	320.366
0.0966051	321.289
0.0971628	322.215
0.0977237	323.144
0.0982879	324.075
0.0988553	325.01
0.099426	325.946
0.1	326.886
0.100577	327.828
0.101158	328.773
0.101742	329.721
0.102329	330.671
0.10292	331.624
0.103514	332.58
0.104112	333.539
0.104713	334.5
0.105317	335.464
0.105925	336.431
0.106537	337.401
0.107152	338.373
0.107771	339.349
0.108393	340.327
0.109018	341.308
0.109648	342.292
0.110281	343.278
0.110917	344.267
0.111558	345.26
0.112202	346.255
0.11285	347.253
0.113501	348.254
0.114156	349.258
0.114815	350.264
0.115478	351.274
0.116145	352.287
0.116815	353.302
0.11749	354.32
0.118168	355.342
0.11885	356.366
0.119536	357.393
0.120226	358.423
0.120921	359.456
0.121619	360.493
0.122321	361.531
0.123027	362.574
0.123737	363.619
0.124451	364.667
0.12517	365.718
0.125893	366.772
0.126619	367.829
0.12735	368.889
0.128086	369.953
0.128825	371.019
0.129569	372.088
0.130317	373.161
0.131069	374.236
0.131826	375.315
0.132587	376.397
0.133352	377.482
0.134122	378.57
0.134896	379.661
0.135675	380.755
0.136458	381.853
0.137246	382.953
0.138038	384.057
0.138835	385.164
0.139637	386.274
0.140443	387.388
0.141254	388.505
0.142069	389.624
0.142889	390.748
0.143714	391.874
0.144544	393.003
0.145378	394.136
0.146218	395.272
0.147062	396.411
0.147911	397.554
0.148765	398.7
0.149624	399.849
0.150487	401.002
0.151356	402.158
0.15223	403.316
0.153109	404.479
0.153993	405.645
0.154882	406.814
0.155776	407.987
0.156675	409.163
0.15758	410.342
0.158489	411.525
0.159404	412.711
0.160325	413.901
0.16125	415.094
0.162181	416.29
0.163117	417.49
0.164059	418.693
0.165006	419.9
0.165959	421.111
0.166917	422.324
0.16788	423.542
0.16885	424.762
0.169824	425.987
0.170805	427.215
0.171791	428.446
0.172783	429.681
0.17378	430.919
0.174783	432.162
0.175792	433.407
0.176807	434.657
0.177828	435.909
0.178855	437.166
0.179887	438.426
0.180926	439.689
0.18197	440.957
0.183021	442.228
0.184077	443.503
0.18514	444.781
0.186209	446.063
0.187284	447.349
0.188365	448.638
0.189452	449.931
0.190546	451.228
0.191646	452.529
0.192752	453.833
0.193865	455.141
0.194984	456.453
0.19611	457.768
0.197242	459.088
0.198381	460.412
0.199526	461.739
0.200678	463.069
0.201837	464.404
0.203002	465.743
0.204174	467.085
0.205353	468.431
0.206538	469.782
0.20773	471.136
0.20893	472.494
0.210136	473.856
0.211349	475.222
0.212569	476.591
0.213796	477.965
0.21503	479.343
0.216272	480.724
0.21752	482.11
0.218776	483.5
0.220039	484.893
0.221309	486.291
0.222587	487.692
0.223872	489.098
0.225165	490.508
0.226464	491.922
0.227772	493.34
0.229087	494.762
0.230409	496.188
0.231739	497.618
0.233077	499.052
0.234423	500.491
0.235776	501.933
0.237137	503.38
0.238506	504.831
0.239883	506.286
0.241268	507.745
0.242661	509.209
0.244062	510.677
0.245471	512.149
0.246888	513.625
0.248313	515.105
0.249747	516.59
0.251189	518.079
0.252639	519.572
0.254097	521.07
0.255564	522.572
0.25704	524.078
0.258523	525.589
0.260016	527.104
0.261517	528.623
0.263027	530.147
0.264545	531.675
0.266073	533.207
0.267609	534.744
0.269153	536.285
0.270707	537.831
0.27227	539.382
0.273842	540.936
0.275423	542.495
0.277013	544.059
0.278612	545.627
0.280221	547.2
0.281838	548.777
0.283465	550.359
0.285102	551.945
0.286748	553.536
0.288403	555.132
0.290068	556.732
0.291743	558.336
0.293427	559.946
0.295121	561.56
0.296825	563.179
0.298538	564.802
0.300262	566.43
0.301995	568.062
0.303739	569.7
0.305492	571.342
0.307256	572.989
0.30903	574.64
0.310814	576.297
0.312608	577.958
0.314413	579.624
0.316228	581.294
0.318053	582.97
0.31989	584.65
0.321736	586.335
0.323594	588.026
0.325462	589.72
0.327341	591.42
0.32923	593.125
0.331131	594.834
0.333043	596.549
0.334965	598.268
0.336899	599.993
0.338844	601.722
0.3408	603.457
0.342768	605.196
0.344747	606.94
0.346737	608.69
0.348739	610.444
0.350752	612.204
0.352777	613.968
0.354813	615.738
0.356862	617.513
0.358922	619.293
0.360994	621.078
0.363078	622.868
0.365174	624.663
0.367282	626.464
0.369403	628.27
0.371535	630.081
0.37368	631.897
0.375837	633.718
0.378007	635.545
0.380189	637.376
0.382384	639.214
0.384592	641.056
0.386812	642.904
0.389045	644.757
0.391291	646.615
0.39355	648.479
0.395822	650.349
0.398107	652.223
0.400405	654.103
0.402717	655.988
0.405042	657.879
0.40738	659.775
0.409732	661.677
0.412098	663.584
0.414477	665.497
0.416869	667.415
0.419276	669.339
0.421697	671.268
0.424131	673.203
0.42658	675.144
0.429042	677.09
0.431519	679.041
0.43401	680.998
0.436516	682.961
0.439036	684.93
0.44157	686.904
0.44412	688.884
0.446684	690.87
0.449262	692.861
0.451856	694.858
0.454465	696.861
0.457088	698.869
0.459727	700.884
0.462381	702.904
0.46505	704.93
0.467735	706.962
0.470435	709
0.473151	711.043
0.475883	713.111
0.47863	715.224
0.481393	717.344
0.484172	719.471
0.486968	721.606
0.489779	723.748
0.492606	725.898
0.49545	728.055
0.49831	730.219
0.501187	732.414
0.504081	734.651
0.506991	736.897
0.509918	739.152
0.512861	741.416
0.515822	743.689
0.5188	745.97
0.521795	748.261
0.524807	750.56
0.527837	752.868
0.530884	755.185
0.533949	757.512
0.537032	759.847
0.540132	762.192
0.54325	764.546
0.546387	766.909
0.549541	769.28
0.552713	771.662
0.555904	774.052
0.559114	776.452
0.562341	778.862
0.565588	781.28
0.568853	783.708
0.572137	786.136
0.57544	788.575
0.578762	791.076
0.582103	793.589
0.585464	796.112
0.588844	798.646
0.592243	801.19
0.595662	803.746
0.599101	806.312
0.60256	808.92
0.606038	811.551
0.609537	814.195
0.613056	816.851
0.616595	819.519
0.620155	822.2
0.623735	824.892
0.627336	827.597
0.630957	830.315
0.6346	833.045
0.638263	835.787
0.641948	838.542
0.645654	841.31
0.649382	844.09
0.653131	846.883
0.656901	849.689
0.660693	852.507
0.664508	855.339
0.668344	858.183
0.672202	861.04
0.676083	863.927
0.679986	866.872
0.683912	869.831
0.68786	872.805
0.691831	875.784
0.695825	878.765
0.699842	881.76
0.703882	884.77
0.707946	887.794
0.712033	890.833
0.716143	893.887
0.720278	896.953
0.724436	900.011
0.728618	903.083
0.732825	906.17
0.737055	909.272
0.74131	912.388
0.74559	915.519
0.749894	918.665
0.754223	921.826
0.758578	925.002
0.762957	928.19
0.767361	931.391
0.771792	934.607
0.776247	937.839
0.780728	941.085
0.785236	944.346
0.789769	947.623
0.794328	950.915
0.798914	954.222
0.803526	957.539
0.808165	960.872
0.812831	964.201
0.817523	967.535
0.822243	970.884
0.82699	974.248
0.831764	977.626
0.836566	981.02
0.841395	984.428
0.846253	987.851
0.851138	991.29
0.856052	994.742
0.860994	998.211
0.865964	1001.69
0.870964	1005.19
0.875992	1008.71
0.881049	1012.23
0.886135	1015.78
0.891251	1019.33
0.896396	1022.91
0.901571	1026.49
0.906776	1030.1
0.912011	1033.71
0.917276	1037.34
0.922571	1040.98
0.927897	1044.64
0.933254	1048.31
0.938642	1051.99
0.944061	1055.69
0.949511	1059.4
0.954993	1063.13
0.960506	1066.87
0.966051	1070.62
0.971628	1074.38
0.977237	1078.16
0.982879	1081.95
0.988553	1085.75
0.99426	1089.57
1	1093.4
1.00577	1097.25
1.01158	1101.11
1.01742	1104.98
1.02329	1108.87
1.0292	1112.77
1.03514	1116.68
1.04112	1120.61
1.04713	1124.55
1.05317	1128.51
1.05925	1132.47
1.06537	1136.46
1.07152	1140.45
1.07771	1144.46
1.08393	1148.48
1.09018	1152.5
1.09648	1156.54
1.10281	1160.59
1.10917	1164.65
1.11558	1168.73
1.12202	1172.82
1.1285	1176.92
1.13501	1181.03
1.14156	1185.16
1.14815	1189.29
1.15478	1193.44
1.16145	1197.61
1.16815	1201.78
1.1749	1205.96
1.18168	1210.16
1.1885	1214.37
1.19536	1218.59
1.20226	1222.82
1.20921	1227.07
1.21619	1231.32
1.22321	1235.58
1.23027	1239.86
1.23737	1244.14
1.24451	1248.44
1.2517	1252.75
1.25893	1257.07
1.26619	1261.4
1.2735	1265.74
1.28086	1270.09
1.28825	1274.45
1.29569	1278.82
1.30317	1283.2
1.31069	1287.59
1.31826	1291.98
1.32587	1296.39
1.33352	1300.81
1.34122	1305.23
1.34896	1309.67
1.35675	1314.11
1.36458	1318.56
1.37246	1323.02
1.38038	1327.49
1.38835	1331.97
1.39637	1336.45
1.40443	1340.94
1.41254	1345.44
1.42069	1349.94
1.42889	1354.46
1.43714	1358.97
1.44544	1363.5
1.45378	1368.03
1.46218	1372.56
1.47062	1377.11
1.47911	1381.66
1.48765	1386.21
1.49624	1390.77
1.50487	1395.34
1.51356	1399.91
1.5223	1404.48
1.53109	1409.06
1.53993	1413.65
1.54882	1418.24
1.55776	1422.82
1.56675	1427.42
1.5758	1432.02
1.58489	1436.62
1.59404	1441.23
1.60325	1445.84
1.6125	1450.45
1.62181	1455.06
1.63117	1459.68
1.64059	1464.3
1.65006	1468.92
1.65959	1473.54
1.66917	1478.16
1.6788	1482.78
1.6885	1487.4
1.69824	1492.03
1.70805	1496.65
1.71791	1501.27
1.72783	1505.9
1.7378	1510.52
1.74783	1515.15
1.75792	1519.77
1.76807	1524.39
1.77828	1529.02
1.78855	1533.64
1.79887	1538.26
1.80926	1542.87
1.8197	1547.49
1.83021	1552.1
1.84077	1556.72
1.8514	1561.33
1.86209	1565.93
1.87284	1570.54
1.88365	1575.14
1.89452	1579.74
1.90546	1584.33
1.91646	1588.93
1.92752	1593.52
1.93865	1598.1
1.94984	1602.68
1.9611	1607.26
1.97242	1611.83
1.98381	1616.4
1.99526	1620.97
2.00678	1625.53
2.01837	1630.08
2.03002	1634.63
2.04174	1639.18
2.05353	1643.72
2.06538	1648.25
2.0773	1652.79
2.0893	1657.31
2.10136	1661.82
2.11349	1666.33
2.12569	1670.83
2.13796	1675.33
2.1503	1679.82
2.16272	1684.3
2.1752	1688.78
2.18776	1693.24
2.20039	1697.7
2.21309	1702.15
2.22587	1706.6
2.23872	1711.03
2.25165	1715.45
2.26464	1719.87
2.27772	1724.28
2.29087	1728.68
2.30409	1733.07
2.31739	1737.46
2.33077	1741.84
2.34423	1746.2
2.35776	1750.56
2.37137	1754.91
2.38506	1759.25
2.39883	1763.58
2.41268	1767.9
2.42661	1772.21
2.44062	1776.51
2.45471	1780.81
2.46888	1785.09
2.48313	1789.37
2.49747	1793.63
2.51189	1797.88
2.52639	1802.12
2.54097	1806.35
2.55564	1810.57
2.5704	1814.78
2.58523	1818.98
2.60016	1823.17
2.61517	1827.35
2.63027	1831.52
2.64545	1835.67
2.66073	1839.82
2.67609	1843.95
2.69153	1848.08
2.70707	1852.19
2.7227	1856.3
2.73842	1860.39
2.75423	1864.47
2.77013	1868.54
2.78612	1872.61
2.80221	1876.65
2.81838	1880.69
2.83465	1884.72
2.85102	1888.74
2.86748	1892.74
2.88403	1896.72
2.90068	1900.7
2.91743	1904.66
2.93427	1908.61
2.95121	1912.55
2.96825	1916.49
2.98538	1920.41
3.00262	1924.32
3.01995	1928.2
3.03739	1932.07
3.05492	1935.94
3.07256	1939.79
3.0903	1943.63
3.10814	1947.47
3.12608	1951.28
3.14413	1955.09
3.16228	1958.89
3.18053	1962.68
3.1989	1966.46
3.21736	1970.22
3.23594	1973.97
3.25462	1977.72
3.27341	1981.45
3.2923	1985.17
3.31131	1988.88
3.33043	1992.58
3.34965	1996.27
3.36899	1999.94
3.38844	2003.61
3.408	2007.26
3.42768	2010.9
3.44747	2014.54
3.46737	2018.15
3.48739	2021.74
3.50752	2025.33
3.52777	2028.9
3.54813	2032.47
3.56862	2036.02
3.58922	2039.56
3.60994	2043.08
3.63078	2046.59
3.65174	2050.08
3.67282	2053.56
3.69403	2057.03
3.71535	2060.5
3.7368	2063.95
3.75837	2067.38
3.78007	2070.81
3.80189	2074.23
3.82384	2077.63
3.84592	2081.03
3.86812	2084.42
3.89045	2087.79
3.91291	2091.15
3.9355	2094.5
3.95822	2097.84
3.98107	2101.17
4.00405	2104.49
4.02717	2107.8
4.05042	2111.09
4.0738	2114.36
4.09732	2117.62
4.12098	2120.86
4.14477	2124.09
4.16869	2127.31
4.19276	2130.52
4.21697	2133.71
4.24131	2136.89
4.2658	2140.07
4.29042	2143.23
4.31519	2146.37
4.3401	2149.5
4.36516	2152.63
4.39036	2155.73
4.4157	2158.83
4.4412	2161.91
4.46684	2164.98
4.49262	2168.04
4.51856	2171.08
4.54465	2174.11
4.57088	2177.13
4.59727	2180.13
4.62381	2183.12
4.6505	2186.11
4.67735	2189.07
4.70435	2192.03
4.73151	2194.97
4.75883	2197.9
4.7863	2200.82
4.81393	2203.72
4.84172	2206.61
4.86968	2209.49
4.89779	2212.36
4.92606	2215.21
4.9545	2218.06
4.9831	2220.89
5.01187	2223.7
5.04081	2226.5
5.06991	2229.28
5.09918	2232.06
5.12861	2234.82
5.15822	2237.57
5.188	2240.3
5.21795	2243.02
5.24807	2245.72
5.27837	2248.42
5.30884	2251.1
5.33949	2253.76
5.37032	2256.41
5.40132	2259.05
5.4325	2261.67
5.46387	2264.29
5.49541	2266.89
5.52713	2269.47
5.55904	2272.05
5.59114	2274.61
5.62341	2277.15
5.65588	2279.68
5.68853	2282.2
5.72137	2284.71
5.7544	2287.2
5.78762	2289.68
5.82103	2292.14
5.85464	2294.6
5.88844	2297.03
5.92243	2299.46
5.95662	2301.87
5.99101	2304.27
6.0256	2306.66
6.06038	2309.03
6.09537	2311.39
6.13056	2313.74
6.16595	2316.08
6.20155	2318.39
6.23735	2320.7
6.27336	2322.99
6.30957	2325.27
6.346	2327.53
6.38263	2329.78
6.41948	2332.02
6.45654	2334.24
6.49382	2336.45
6.53131	2338.65
6.56901	2340.83
6.60693	2343
6.64508	2345.15
6.68344	2347.29
6.72202	2349.42
6.76083	2351.53
6.79986	2353.62
6.83912	2355.71
6.8786	2357.78
6.91831	2359.83
6.95825	2361.88
6.99842	2363.91
7.03882	2365.92
7.07946	2367.92
7.12033	2369.91
7.16143	2371.88
7.20278	2373.84
7.24436	2375.78
7.28618	2377.71
7.32825	2379.63
7.37055	2381.53
7.4131	2383.41
7.4559	2385.29
7.49894	2387.14
7.54223	2388.98
7.58578	2390.81
7.62957	2392.62
7.67361	2394.41
7.71792	2396.19
7.76247	2397.95
7.80728	2399.7
7.85236	2401.43
7.89769	2403.15
7.94328	2404.85
7.98914	2406.54
8.03526	2408.21
8.08165	2409.86
8.12831	2411.5
8.17523	2413.12
8.22243	2414.73
8.2699	2416.32
8.31764	2417.9
8.36566	2419.46
8.41395	2421
8.46253	2422.53
8.51138	2424.03
8.56052	2425.53
8.60994	2427.01
8.65964	2428.47
8.70964	2429.91
8.75992	2431.34
8.81049	2432.75
8.86135	2434.14
8.91251	2435.51
8.96396	2436.87
9.01571	2438.22
9.06776	2439.54
9.12011	2440.85
9.17276	2442.13
9.22571	2443.4
9.27897	2444.65
9.33254	2445.89
9.38642	2447.11
9.44061	2448.3
9.49511	2449.48
9.54993	2450.65
9.60506	2451.8
9.66051	2452.92
9.71628	2454.03
9.77237	2455.12
9.82879	2456.19
9.88553	2457.24
9.9426	2458.27
10	2459.29
10.0577	2460.29
10.1158	2461.27
10.1742	2462.23
10.2329	2463.17
10.292	2464.09
10.3514	2464.99
10.4112	2465.88
10.4713	2466.75
10.5317	2467.59
10.5925	2468.42
10.6537	2469.23
10.7152	2470.02
10.7771	2470.79
10.8393	2471.54
10.9018	2472.26
10.9648	2472.97
11.0281	2473.66
11.0917	2474.32
11.1558	2474.97
11.2202	2475.6
11.285	2476.2
11.3501	2476.79
11.4156	2477.36
11.4815	2477.9
11.5478	2478.43
11.6145	2478.94
11.6815	2479.42
11.749	2479.89
11.8168	2480.34
11.885	2480.76
11.9536	2481.16
12.0226	2481.54
12.0921	2481.91
12.1619	2482.25
12.2321	2482.57
12.3027	2482.87
12.3737	2483.14
12.4451	2483.4
12.517	2483.63
12.5893	2483.84
12.6619	2484.03
12.735	2484.2
12.8086	2484.34
12.8825	2484.47
12.9569	2484.57
13.0317	2484.65
13.1069	2484.7
13.1826	2484.74
13.2587	2484.75
13.3352	2484.74
13.4122	2484.7
13.4896	2484.64
13.5675	2484.57
13.6458	2484.47
13.7246	2484.34
13.8038	2484.2
13.8835	2484.03
13.9637	2483.84
14.0443	2483.62
14.1254	2483.39
14.2069	2483.13
14.2889	2482.85
14.3714	2482.54
14.4544	2482.21
14.5378	2481.86
14.6218	2481.48
14.7062	2481.09
14.7911	2480.66
14.8765	2480.22
14.9624	2479.75
15.0487	2479.26
15.1356	2478.74
15.223	2478.21
15.3109	2477.64
15.3993	2477.06
15.4882	2476.45
15.5776	2475.82
15.6675	2475.17
15.758	2474.49
15.8489	2473.79
15.9404	2473.06
16.0325	2472.32
16.125	2471.54
16.2181	2470.75
16.3117	2469.94
16.4059	2469.1
16.5006	2468.24
16.5959	2467.35
16.6917	2466.44
16.788	2465.51
16.885	2464.56
16.9824	2463.58
17.0805	2462.58
17.1791	2461.56
17.2783	2460.51
17.378	2459.45
17.4783	2458.36
17.5792	2457.24
17.6807	2456.11
17.7828	2454.94
17.8855	2453.76
17.9887	2452.56
18.0926	2451.33
18.197	2450.08
18.3021	2448.81
18.4077	2447.51
18.514	2446.2
18.6209	2444.86
18.7284	2443.5
18.8365	2442.11
18.9452	2440.71
19.0546	2439.28
19.1646	2437.84
19.2752	2436.36
19.3865	2434.88
19.4984	2433.36
19.611	2431.83
19.7242	2430.27
19.8381	2428.7
19.9526	2427.1
20.0678	2425.48
20.1837	2423.84
20.3002	2422.18
20.4174	2420.49
20.5353	2418.79
20.6538	2417.07
20.773	2415.32
20.893	2413.55
21.0136	2411.77
21.1349	2409.96
21.2569	2408.13
21.3796	2406.28
21.503	2404.41
21.6272	2402.52
21.752	2400.61
21.8776	2398.68
22.0039	2396.72
22.1309	2394.75
22.2587	2392.76
22.3872	2390.75
22.5165	2388.71
22.6464	2386.66
22.7772	2384.59
22.9087	2382.5
23.0409	2380.39
23.1739	2378.26
23.3077	2376.11
23.4423	2373.94
23.5776	2371.75
23.7137	2369.55
23.8506	2367.32
23.9883	2365.07
24.1268	2362.81
24.2661	2360.53
24.4062	2358.23
24.5471	2355.91
24.6888	2353.58
24.8313	2351.22
24.9747	2348.85
25.1189	2346.45
25.2639	2344.04
25.4097	2341.61
25.5564	2339.16
25.704	2336.7
25.8523	2334.22
26.0016	2331.72
26.1517	2329.2
26.3027	2326.66
26.4545	2324.11
26.6073	2321.53
26.7609	2318.94
26.9153	2316.34
27.0707	2313.72
27.227	2311.08
27.3842	2308.42
27.5423	2305.75
27.7013	2303.06
27.8612	2300.35
28.0221	2297.63
28.1838	2294.89
28.3465	2292.13
28.5102	2289.36
28.6748	2286.57
28.8403	2283.77
29.0068	2280.95
29.1743	2278.11
29.3427	2275.26
29.5121	2272.4
29.6825	2269.51
29.8538	2266.61
30.0262	2263.7
30.1995	2260.77
30.3739	2257.83
30.5492	2254.87
30.7256	2251.89
30.903	2248.91
31.0814	2245.9
31.2608	2242.88
31.4413	2239.84
31.6228	2236.8
31.8053	2233.73
31.989	2230.65
32.1736	2227.56
32.3594	2224.45
32.5462	2221.34
32.7341	2218.2
32.923	2215.05
33.1131	2211.89
33.3043	2208.71
33.4965	2205.52
33.6899	2202.32
33.8844	2199.11
34.08	2195.88
34.2768	2192.64
34.4747	2189.38
34.6737	2186.12
34.8739	2182.84
35.0752	2179.55
35.2777	2176.24
35.4813	2172.93
35.6862	2169.6
35.8922	2166.27
36.0994	2162.92
36.3078	2159.55
36.5174	2156.18
36.7282	2152.8
36.9403	2149.4
37.1535	2146
37.368	2142.58
37.5837	2139.15
37.8007	2135.72
38.0189	2132.27
38.2384	2128.81
38.4592	2125.34
38.6812	2121.86
38.9045	2118.37
39.1291	2114.87
39.355	2111.36
39.5822	2107.85
39.8107	2104.32
40.0405	2100.78
40.2717	2097.24
40.5042	2093.68
40.738	2090.11
40.9732	2086.54
41.2098	2082.95
41.4477	2079.36
41.6869	2075.75
41.9276	2072.14
42.1697	2068.52
42.4131	2064.89
42.658	2061.26
42.9042	2057.61
43.1519	2053.96
43.401	2050.3
43.6516	2046.63
43.9036	2042.95
44.157	2039.26
44.412	2035.57
44.6684	2031.87
44.9262	2028.16
45.1856	2024.44
45.4465	2020.71
45.7088	2016.98
45.9727	2013.24
46.2381	2009.49
46.505	2005.73
46.7735	2001.97
47.0435	1998.2
47.3151	1994.42
47.5883	1990.63
47.863	1986.84
48.1393	1983.03
48.4172	1979.22
48.6968	1975.41
48.9779	1971.59
49.2606	1967.75
49.545	1963.92
49.831	1960.07
50.1187	1956.22
50.4081	1952.36
50.6991	1948.5
50.9918	1944.62
51.2861	1940.75
51.5822	1936.86
51.88	1932.97
52.1795	1929.08
52.4807	1925.17
52.7837	1921.26
53.0884	1917.35
53.3949	1913.43
53.7032	1909.5
54.0132	1905.57
54.325	1901.63
54.6387	1897.68
54.9541	1893.73
55.2713	1889.78
55.5904	1885.81
55.9114	1881.85
56.2341	1877.88
56.5588	1873.9
56.8853	1869.92
57.2137	1865.93
57.544	1861.94
57.8762	1857.94
58.2103	1853.94
58.5464	1849.93
58.8844	1845.91
59.2243	1841.9
59.5662	1837.88
59.9101	1833.85
60.256	1829.82
60.6038	1825.79
60.9537	1821.75
61.3056	1817.71
61.6595	1813.66
62.0155	1809.61
62.3735	1805.56
62.7336	1801.5
63.0957	1797.44
63.46	1793.37
63.8263	1789.3
64.1948	1785.23
64.5654	1781.16
64.9382	1777.08
65.3131	1773
65.6901	1768.91
66.0693	1764.82
66.4508	1760.74
66.8344	1756.64
67.2202	1752.55
67.6083	1748.45
67.9986	1744.35
68.3912	1740.25
68.786	1736.14
69.1831	1732.03
69.5825	1727.92
69.9842	1723.81
70.3882	1719.7
70.7946	1715.58
71.2033	1711.46
71.6143	1707.34
72.0278	1703.21
72.4436	1699.09
72.8618	1694.96
73.2825	1690.83
73.7055	1686.7
74.131	1682.57
74.559	1678.43
74.9894	1674.29
75.4223	1670.16
75.8578	1666.02
76.2957	1661.87
76.7361	1657.73
77.1792	1653.59
77.6247	1649.45
78.0728	1645.31
78.5236	1641.16
78.9769	1637.01
79.4328	1632.86
79.8914	1628.72
80.3526	1624.57
80.8165	1620.42
81.2831	1616.27
81.7523	1612.12
82.2243	1607.97
82.699	1603.82
83.1764	1599.66
83.6566	1595.51
84.1395	1591.36
84.6253	1587.21
85.1138	1583.05
85.6052	1578.9
86.0994	1574.74
86.5964	1570.59
87.0964	1566.44
87.5992	1562.28
88.1049	1558.13
88.6135	1553.98
89.1251	1549.82
89.6396	1545.67
90.1571	1541.51
90.6776	1537.36
91.2011	1533.21
91.7276	1529.06
92.2571	1524.9
92.7897	1520.76
93.3254	1516.61
93.8642	1512.47
94.4061	1508.32
94.9511	1504.18
95.4993	1500.03
96.0506	1495.89
96.6051	1491.75
97.1628	1487.61
97.7237	1483.47
98.2879	1479.33
98.8553	1475.2
99.426	1471.06
100	1466.93
100.577	1462.8
101.158	1458.67
101.742	1454.54
102.329	1450.41
102.92	1446.29
103.514	1442.16
104.112	1438.04
104.713	1433.92
105.317	1429.8
105.925	1425.69
106.537	1421.58
107.152	1417.46
107.771	1413.36
108.393	1409.25
109.018	1405.15
109.648	1401.05
110.281	1396.95
110.917	1392.86
111.558	1388.77
112.202	1384.68
112.85	1380.6
113.501	1376.52
114.156	1372.43
114.815	1368.36
115.478	1364.28
116.145	1360.21
116.815	1356.14
117.49	1352.07
118.168	1348.01
118.85	1343.95
119.536	1339.89
120.226	1335.84
120.921	1331.79
121.619	1327.74
122.321	1323.7
123.027	1319.65
123.737	1315.62
124.451	1311.58
125.17	1307.56
125.893	1303.53
126.619	1299.51
127.35	1295.49
128.086	1291.48
128.825	1287.47
129.569	1283.47
130.317	1279.46
131.069	1275.47
131.826	1271.48
132.587	1267.49
133.352	1263.51
134.122	1259.53
134.896	1255.56
135.675	1251.58
136.458	1247.62
137.246	1243.66
138.038	1239.7
138.835	1235.75
139.637	1231.8
140.443	1227.86
141.254	1223.92
142.069	1219.99
142.889	1216.06
143.714	1212.14
144.544	1208.22
145.378	1204.31
146.218	1200.4
147.062	1196.49
147.911	1192.59
148.765	1188.7
149.624	1184.81
150.487	1180.93
151.356	1177.06
152.23	1173.18
153.109	1169.32
153.993	1165.46
154.882	1161.6
155.776	1157.75
156.675	1153.91
157.58	1150.07
158.489	1146.24
159.404	1142.41
160.325	1138.59
161.25	1134.77
162.181	1130.96
163.117	1127.16
164.059	1123.36
165.006	1119.57
165.959	1115.78
166.917	1112
167.88	1108.23
168.85	1104.46
169.824	1100.7
170.805	1096.94
171.791	1093.19
172.783	1089.44
173.78	1085.7
174.783	1081.97
175.792	1078.25
176.807	1074.53
177.828	1070.82
178.855	1067.11
179.887	1063.41
180.926	1059.72
181.97	1056.03
183.021	1052.35
184.077	1048.68
185.14	1045.02
186.209	1041.36
187.284	1037.7
188.365	1034.05
189.452	1030.41
190.546	1026.78
191.646	1023.15
192.752	1019.53
193.865	1015.91
194.984	1012.31
196.11	1008.7
197.242	1005.11
198.381	1001.52
199.526	997.94
200.678	994.364
201.837	990.797
203.002	987.234
204.174	983.681
205.353	980.135
206.538	976.593
207.73	973.061
208.93	969.536
210.136	966.02
211.349	962.51
212.569	959.004
213.796	955.51
215.03	952.022
216.272	948.542
217.52	945.07
218.776	941.604
220.039	938.149
221.309	934.699
222.587	931.257
223.872	927.824
225.165	924.399
226.464	920.98
227.772	917.571
229.087	914.168
230.409	910.773
231.739	907.389
233.077	904.007
234.423	900.636
235.776	897.272
237.137	893.917
238.506	890.571
239.883	887.232
241.268	883.9
242.661	880.575
244.062	877.259
245.471	873.953
246.888	870.652
248.313	867.362
249.747	864.079
251.189	860.805
252.639	857.538
254.097	854.283
255.564	851.034
257.04	847.794
258.523	844.562
260.016	841.339
261.517	838.125
263.027	834.918
264.545	831.72
266.073	828.531
267.609	825.351
269.153	822.178
270.707	819.013
272.27	815.857
273.842	812.709
275.423	809.569
277.013	806.436
278.612	803.311
280.221	800.197
281.838	797.089
283.465	793.99
285.102	790.897
286.748	787.824
288.403	784.757
290.068	781.7
291.743	778.649
293.427	775.607
295.121	772.574
296.825	769.548
298.538	766.53
300.262	763.521
301.995	760.529
303.739	757.548
305.492	754.572
307.256	751.605
309.03	748.645
310.814	745.695
312.608	742.752
314.413	739.818
316.228	736.891
318.053	733.973
319.89	731.063
321.736	728.162
323.594	725.268
325.462	722.382
327.341	719.506
329.23	716.636
331.131	713.775
333.043	710.922
334.965	708.075
336.899	705.24
338.844	702.409
340.8	699.587
342.768	696.773
344.747	693.965
346.737	691.177
348.739	688.397
350.752	685.624
352.777	682.859
354.813	680.101
356.862	677.352
358.922	674.608
360.994	671.879
363.078	669.165
365.174	666.456
367.282	663.757
369.403	661.064
371.535	658.379
373.68	655.701
375.837	653.03
378.007	650.368
380.189	647.712
382.384	645.063
384.592	642.421
386.812	639.786
389.045	637.159
391.291	634.54
393.55	631.928
395.822	629.324
398.107	626.727
400.405	624.138
402.717	621.555
405.042	618.978
407.38	616.425
409.732	613.879
412.098	611.341
414.477	608.81
416.869	606.287
419.276	603.772
421.697	601.265
424.131	598.767
426.58	596.276
429.042	593.793
431.519	591.319
434.01	588.853
436.516	586.395
439.036	583.946
441.57	581.505
444.12	579.072
446.684	576.648
449.262	574.233
451.856	571.826
454.465	569.427
457.088	567.037
459.727	564.656
462.381	562.281
465.05	559.914
467.735	557.556
470.435	555.206
473.151	552.866
475.883	550.533
478.63	548.209
481.393	545.892
484.172	543.582
486.968	541.281
489.779	538.989
492.606	536.704
495.45	534.429
498.31	532.162
501.187	529.903
504.081	527.653
506.991	525.412
509.918	523.179
512.861	520.955
515.822	518.739
518.8	516.533
521.795	514.335
524.807	512.145
527.837	509.964
530.884	507.793
533.949	505.629
537.032	503.475
540.132	501.329
543.25	499.188
546.387	497.057
549.541	494.933
552.713	492.818
555.904	490.712
559.114	488.614
562.341	486.524
565.588	484.443
568.853	482.37
572.137	480.305
575.44	478.247
578.762	476.198
582.103	474.156
585.464	472.123
588.844	470.097
592.243	468.079
595.662	466.069
599.101	464.067
602.56	462.072
606.038	460.084
609.537	458.104
613.056	456.132
616.595	454.168
620.155	452.211
623.735	450.262
627.336	448.322
630.957	446.389
634.6	444.463
638.263	442.546
641.948	440.636
645.654	438.735
649.382	436.84
653.131	434.954
656.901	433.075
660.693	431.204
664.508	429.341
668.344	427.484
672.202	425.636
676.083	423.795
679.986	421.96
683.912	420.134
687.86	418.314
691.831	416.502
695.825	414.697
699.842	412.898
703.882	411.107
707.946	409.323
712.033	407.547
716.143	405.777
720.278	404.015
724.436	402.26
728.618	400.511
732.825	398.77
737.055	397.035
741.31	395.308
745.59	393.588
749.894	391.875
754.223	390.169
758.578	388.471
762.957	386.78
767.361	385.097
771.792	383.42
776.247	381.751
780.728	380.089
785.236	378.433
789.769	376.784
794.328	375.142
798.914	373.507
803.526	371.88
808.165	370.261
812.831	368.648
817.523	367.04
822.243	365.44
826.99	363.846
831.764	362.259
836.566	360.679
841.395	359.106
846.253	357.539
851.138	355.979
856.052	354.426
860.994	352.88
865.964	351.34
870.964	349.807
875.992	348.281
881.049	346.762
886.135	345.248
891.251	343.742
896.396	342.242
901.571	340.749
906.776	339.262
912.011	337.782
917.276	336.307
922.571	334.84
927.897	333.381
933.254	331.927
938.642	330.479
944.061	329.038
949.511	327.603
954.993	326.173
960.506	324.749
966.051	323.334
971.628	321.924
977.237	320.521
982.879	319.123
988.553	317.731
994.26	316.345
1000	314.965
1005.77	313.591
1011.58	312.221
1017.42	310.859
1023.29	309.502
1029.2	308.15
1035.14	306.805
1041.12	305.465
1047.13	304.131
1053.17	302.803
1059.25	301.48
1065.37	300.164
1071.52	298.852
1077.71	297.546
1083.93	296.248
1090.18	294.957
1096.48	293.671
1102.81	292.39
1109.17	291.115
1115.58	289.845
1122.02	288.581
1128.5	287.323
1135.01	286.07
1141.56	284.822
1148.15	283.58
1154.78	282.343
1161.45	281.111
1168.15	279.885
1174.9	278.664
1181.68	277.449
1188.5	276.239
1195.36	275.034
1202.26	273.835
1209.21	272.64
1216.19	271.451
1223.21	270.268
1230.27	269.09
1237.37	267.917
1244.51	266.75
1251.7	265.588
1258.93	264.432
1266.19	263.281
1273.5	262.136
1280.86	260.996
1288.25	259.861
1295.69	258.732
1303.17	257.608
1310.69	256.49
1318.26	255.377
1325.87	254.269
1333.52	253.167
1341.22	252.069
1348.96	250.977
1356.75	249.889
1364.58	248.806
1372.46	247.728
1380.38	246.656
1388.35	245.588
1396.37	244.524
1404.43	243.466
1412.54	242.413
1420.69	241.365
1428.89	240.321
1437.14	239.283
1445.44	238.249
1453.78	237.22
1462.18	236.195
1470.62	235.176
1479.11	234.161
1487.65	233.151
1496.24	232.146
1504.87	231.145
1513.56	230.15
1522.3	229.159
1531.09	228.172
1539.93	227.191
1548.82	226.213
1557.76	225.241
1566.75	224.273
1575.8	223.31
1584.89	222.351
1594.04	221.397
1603.25	220.447
1612.5	219.501
1621.81	218.56
1631.17	217.623
1640.59	216.69
1650.06	215.762
1659.59	214.839
1669.17	213.919
1678.8	213.004
1688.5	212.093
1698.24	211.186
1708.05	210.284
1717.91	209.386
1727.83	208.492
1737.8	207.603
1747.83	206.718
1757.92	205.837
1768.07	204.96
1778.28	204.088
1788.55	203.22
1798.87	202.356
1809.26	201.496
1819.7	200.641
1830.21	199.79
1840.77	198.943
1851.4	198.099
1862.09	197.26
1872.84	196.425
1883.65	195.594
1894.52	194.767
1905.46	193.943
1916.46	193.124
1927.52	192.308
1938.65	191.495
1949.84	190.687
1961.1	189.882
1972.42	189.081
1983.81	188.283
1995.26	187.49
2006.78	186.7
2018.37	185.913
2030.02	185.13
2041.74	184.351
2053.53	183.575
2065.38	182.803
2077.3	182.034
2089.3	181.269
2101.36	180.507
2113.49	179.749
2125.69	178.994
2137.96	178.243
2150.3	177.495
2162.72	176.751
2175.2	176.01
2187.76	175.273
2200.39	174.539
2213.09	173.81
2225.87	173.083
2238.72	172.36
2251.65	171.64
2264.64	170.924
2277.72	170.211
2290.87	169.502
2304.09	168.796
2317.39	168.094
2330.77	167.395
2344.23	166.699
2357.76	166.007
2371.37	165.319
2385.06	164.633
2398.83	163.951
2412.68	163.273
2426.61	162.597
2440.62	161.925
2454.71	161.256
2468.88	160.591
2483.13	159.929
2497.47	159.27
2511.89	158.615
2526.39	157.963
2540.97	157.314
2555.64	156.669
2570.4	156.027
2585.23	155.389
2600.16	154.754
2615.17	154.122
2630.27	153.493
2645.45	152.868
2660.73	152.245
2676.09	151.626
2691.53	151.01
2707.07	150.397
2722.7	149.785
2738.42	149.173
2754.23	148.563
2770.13	147.957
2786.12	147.354
2802.21	146.754
2818.38	146.156
2834.65	145.562
2851.02	144.971
2867.48	144.382
2884.03	143.792
2900.68	143.205
2917.43	142.622
2934.27	142.041
2951.21	141.463
2968.25	140.888
2985.38	140.316
3002.62	139.748
3019.95	139.184
3037.39	138.623
3054.92	138.065
3072.56	137.511
3090.3	136.959
3108.14	136.409
3126.08	135.863
3144.13	135.319
3162.28	134.779
3180.53	134.241
3198.9	133.706
3217.36	133.174
3235.94	132.644
3254.62	132.117
3273.41	131.593
3292.3	131.07
3311.31	130.543
3330.43	130.019
3349.65	129.498
3368.99	128.978
3388.44	128.462
3408	127.949
3427.68	127.437
3447.47	126.92
3467.37	126.407
3487.39	125.896
3507.52	125.388
3527.77	124.882
3548.13	124.379
3568.62	123.878
3589.22	123.379
3609.94	122.885
3630.78	122.394
3651.74	121.906
3672.82	121.42
3694.03	120.936
3715.35	120.454
3736.8	119.975
3758.37	119.498
3780.07	119.023
3801.89	118.55
3823.84	118.079
3845.92	117.611
3868.12	117.139
3890.45	116.664
3912.91	116.191
3935.5	115.72
3958.22	115.251
3981.07	114.784
4004.05	114.32
4027.17	113.857
4050.42	113.396
4073.8	112.942
4097.32	112.49
4120.98	112.04
4144.77	111.592
4168.69	111.146
4192.76	110.703
4216.97	110.261
4241.31	109.822
4265.8	109.385
4290.42	108.95
4315.19	108.518
4340.1	108.087
4365.16	107.659
4390.36	107.234
4415.7	106.81
4441.2	106.388
4466.84	105.969
4492.62	105.552
4518.56	105.138
4544.65	104.726
4570.88	104.316
4597.27	103.908
4623.81	103.502
4650.5	103.098
4677.35	102.697
4704.35	102.298
4731.51	101.901
4758.83	101.506
4786.3	101.113
4813.93	100.723
4841.72	100.334
4869.68	99.948
4897.79	99.5639
4926.06	99.1819
4954.5	98.8022
4983.1	98.4245
5011.87	98.0491
5040.81	97.676
5069.91	97.3048
5099.18	96.936
5128.61	96.5692
5158.22	96.205
5188	95.8426
5217.95	95.4824
5248.07	95.1244
5278.37	94.7684
5308.84	94.415
5339.49	94.0633
5370.32	93.7139
5401.32	93.3668
5432.5	93.0207
5463.87	92.677
5495.41	92.3355
5527.13	91.9959
5559.04	91.6583
5591.14	91.3227
5623.41	90.9892
5655.88	90.6577
5688.53	90.3282
5721.37	90.0004
5754.4	89.6747
5787.62	89.3506
5821.03	89.0286
5854.64	88.7082
5888.44	88.3899
5922.43	88.0731
5956.62	87.7586
5991.01	87.4453
6025.6	87.134
6060.38	86.8244
6095.37	86.5165
6130.56	86.2104
6165.95	85.9061
6201.55	85.6035
6237.35	85.3027
6273.36	85.0035
6309.57	84.706
6346	84.4105
6382.63	84.1164
6419.48	83.8243
6456.54	83.5338
6493.82	83.2449
6531.31	82.9577
6569.01	82.6721
6606.93	82.3884
6645.08	82.1061
6683.44	81.8254
6722.02	81.5463
6760.83	81.2688
6799.86	80.9927
6839.12	80.7183
6878.6	80.4454
6918.31	80.1739
6958.25	79.9039
6998.42	79.6354
7038.82	79.3686
7079.46	79.1031
7120.33	78.8392
7161.43	78.5768
7202.78	78.3158
7244.36	78.0562
7286.18	77.7982
7328.25	77.5417
7370.55	77.2866
7413.1	77.0329
7455.9	76.7807
7498.94	76.5301
7542.23	76.2808
7585.78	76.0331
7629.57	75.7868
7673.61	75.5421
7717.92	75.2989
7762.47	75.0571
7807.28	74.8165
7852.36	74.5775
7897.69	74.34
7943.28	74.1038
7989.14	73.8688
8035.26	73.6357
8081.65	73.4038
8128.31	73.1732
8175.23	72.944
8222.43	72.716
8269.9	72.4895
8317.64	72.2643
8365.66	72.0405
8413.95	71.8179
8462.53	71.5967
8511.38	71.377
8560.52	71.1585
8609.94	70.9414
8659.64	70.7255
8709.64	70.511
8759.92	70.2979
8810.49	70.086
8861.35	69.8754
8912.51	69.6663
8963.96	69.4582
9015.71	69.2515
9067.76	69.0461
9120.11	68.8419
9172.76	68.6389
9225.71	68.4372
9278.97	68.2369
9332.54	68.0378
9386.42	67.84
9440.61	67.6432
9495.11	67.4477
9549.93	67.2533
9605.06	67.06
9660.51	66.8683
9716.28	66.6776
9772.37	66.4881
9828.79	66.2997
9885.53	66.1125
9942.6	65.9263
10000	65.7413
10057.7	65.5573
10115.8	65.3743
10174.2	65.1926
10232.9	65.0118
10292	64.8322
10351.4	64.6537
10411.2	64.4762
10471.3	64.2998
10531.7	64.1244
10592.5	63.9501
10653.7	63.7768
10715.2	63.6046
10777.1	63.4333
10839.3	63.2634
10901.8	63.0947
10964.8	62.927
11028.1	62.7603
11091.7	62.5946
11155.8	62.4298
11220.2	62.2661
11285	62.1034
11350.1	61.9416
11415.6	61.7808
11481.5	61.621
11547.8	61.4621
11614.5	61.3042
11681.5	61.1473
11749	60.9913
11816.8	60.8363
11885	60.6822
11953.6	60.5291
12022.6	60.377
12092.1	60.2257
12161.9	60.0754
12232.1	59.9261
12302.7	59.7777
12373.7	59.6303
12445.1	59.4838
12517	59.3383
12589.3	59.1937
12661.9	59.0501
12735	58.9075
12808.6	58.7658
12882.5	58.6251
12956.9	58.4853
13031.7	58.3465
13106.9	58.2085
13182.6	58.0715
13258.7	57.9355
13335.2	57.8003
13412.2	57.6661
13489.6	57.5327
13567.5	57.4001
13645.8	57.2685
13724.6	57.1376
13803.8	57.0077
13883.5	56.8786
13963.7	56.7504
14044.3	56.623
14125.4	56.4964
14206.9	56.3707
14288.9	56.2459
14371.4	56.1219
14454.4	55.9987
14537.8	55.8763
14621.8	55.7548
14706.2	55.6341
14791.1	55.5142
14876.5	55.3951
14962.4	55.2768
15048.7	55.1594
15135.6	55.0427
15223	54.9269
15310.9	54.8119
15399.3	54.6976
15488.2	54.5842
15577.6	54.4715
15667.5	54.3596
15758	54.2485
15848.9	54.1381
15940.4	54.0286
16032.5	53.9197
16125	53.8115
16218.1	53.7042
16311.7	53.5975
16405.9	53.4915
16500.6	53.3863
16595.9	53.2818
16691.7	53.178
16788	53.0749
16885	52.9725
16982.4	52.8709
17080.5	52.7699
17179.1	52.6697
17278.3	52.5701
17378	52.4713
17478.3	52.3731
17579.2	52.2757
17680.7	52.1789
17782.8	52.0828
17885.5	51.9874
17988.7	51.8926
18092.6	51.7986
18197	51.7052
18302.1	51.6124
18407.7	51.5203
18514	51.4288
18620.9	51.3379
18728.4	51.2476
18836.5	51.158
18945.2	51.069
19054.6	50.9804
19164.6	50.8922
19275.2	50.8047
19386.5	50.7178
19498.4	50.6315
19611	50.5458
19724.2	50.4608
19838.1	50.3763
19952.6	50.2923
20067.8	50.2088
20183.7	50.1257
20300.2	50.0432
20417.4	49.9613
20535.3	49.8801
20653.8	49.7994
20773	49.7193
20893	49.6399
21013.6	49.561
21134.9	49.4827
21256.9	49.405
21379.6	49.3278
21503	49.2513
21627.2	49.1752
21752	49.0997
21877.6	49.0248
22003.9	48.9504
22130.9	48.8765
22258.7	48.8031
22387.2	48.7303
22516.5	48.658
22646.4	48.5861
22777.2	48.5147
22908.7	48.4438
23040.9	48.3733
23173.9	48.3029
23307.7	48.233
23442.3	48.1636
23577.6	48.0947
23713.7	48.0263
23850.6	47.9584
23988.3	47.8909
24126.8	47.8234
24266.1	47.7564
24406.2	47.6899
24547.1	47.6238
24688.8	47.5583
24831.3	47.4933
24974.7	47.4288
25118.9	47.3648
25263.9	47.3013
25409.7	47.2382
25556.4	47.1757
25704	47.1136
25852.3	47.0519
26001.6	46.9907
26151.7	46.93
26302.7	46.8697
26454.5	46.8098
26607.3	46.7504
26760.9	46.6914
26915.3	46.6328
27070.7	46.5743
27227	46.5159
27384.2	46.4579
27542.3	46.4004
27701.3	46.3435
27861.2	46.2869
28022.1	46.2308
28183.8	46.1752
28346.5	46.12
28510.2	46.0653
28674.8	46.011
28840.3	45.9573
29006.8	45.9039
29174.3	45.851
29342.7	45.7985
29512.1	45.7465
29682.5	45.6949
29853.8	45.6437
30026.2	45.593
30199.5	45.5427
30373.9	45.4928
30549.2	45.4434
30725.6	45.3943
30903	45.3457
31081.4	45.2975
31260.8	45.2498
31441.3	45.2024
31622.8	45.1555
31805.3	45.1089
31989	45.0628
32173.6	45.0171
32359.4	44.9717
32546.2	44.9268
32734.1	44.8822
32923	44.8381
33113.1	44.7944
33304.3	44.751
33496.5	44.708
33689.9	44.6654
33884.4	44.6232
34080	44.5814
34276.8	44.5399
34474.7	44.4989
34673.7	44.4581
34873.9	44.4178
35075.2	44.3779
35277.7	44.3383
35481.3	44.2991
35686.2	44.2602
35892.2	44.2216
36099.4	44.1835
36307.8	44.1457
36517.4	44.1083
36728.2	44.0712
36940.3	44.0344
37153.5	43.998
37368	43.962
37583.7	43.9263
37800.7	43.891
38018.9	43.8559
38238.4	43.8212
38459.2	43.7869
38681.2	43.7529
38904.5	43.7192
39129.1	43.6858
39355	43.6528
39582.2	43.6201
39810.7	43.5877
40040.5	43.5556
40271.7	43.5239
40504.2	43.4925
40738	43.4614
40973.2	43.4306
41209.8	43.4001
41447.7	43.3699
41686.9	43.3401
41927.6	43.3105
42169.7	43.2812
42413.1	43.2523
42658	43.2236
42904.2	43.1952
43151.9	43.1672
43401	43.1394
43651.6	43.1119
43903.6	43.0847
44157	43.0578
44412	43.0312
44668.4	43.0049
44926.2	42.9788
45185.6	42.9531
45446.5	42.9276
45708.8	42.9024
45972.7	42.8774
46238.1	42.8528
46505	42.8284
46773.5	42.8043
47043.5	42.7804
47315.1	42.7568
47588.3	42.7335
47863	42.7105
48139.3	42.6877
48417.2	42.6651
48696.8	42.6429
48977.9	42.6208
49260.6	42.5991
49545	42.5776
49831	42.5563
50118.7	42.5353
50408.1	42.5146
50699.1	42.494
50991.8	42.4738
51286.1	42.4538
51582.2	42.434
51880	42.4144
52179.5	42.3951
52480.7	42.376
52783.7	42.3572
53088.4	42.3386
53394.9	42.3202
53703.2	42.3021
54013.2	42.2842
54325	42.2665
54638.7	42.249
54954.1	42.2318
55271.3	42.2148
55590.4	42.198
55911.4	42.1814
56234.1	42.1651
56558.8	42.1489
56885.3	42.133
57213.7	42.1173
57544	42.1018
57876.2	42.0865
58210.3	42.0714
58546.4	42.0565
58884.4	42.0419
59224.3	42.0274
59566.2	42.0132
59910.1	41.9991
60256	41.9852
60603.8	41.9716
60953.7	41.9581
61305.6	41.9448
61659.5	41.9318
62015.5	41.9189
62373.5	41.9062
62733.6	41.8937
63095.7	41.8814
63460	41.8692
63826.3	41.8573
64194.8	41.8456
64565.4	41.834
64938.2	41.8226
65313.1	41.8114
65690.1	41.8003
66069.3	41.7895
66450.8	41.7788
66834.4	41.7683
67220.2	41.758
67608.3	41.7478
67998.6	41.7378
68391.2	41.728
68786	41.7184
69183.1	41.7089
69582.5	41.6996
69984.2	41.6904
70388.2	41.6814
70794.6	41.6726
71203.3	41.664
71614.3	41.6555
72027.8	41.6471
72443.6	41.6389
72861.8	41.6309
73282.5	41.623
73705.5	41.6153
74131	41.6077
74559	41.6003
74989.4	41.593
75422.3	41.5859
75857.8	41.5789
76295.7	41.5721
76736.1	41.5654
77179.2	41.5588
77624.7	41.5525
78072.8	41.5462
78523.6	41.5401
78976.9	41.5341
79432.8	41.5282
79891.4	41.5226
80352.6	41.517
80816.5	41.5115
81283.1	41.5062
81752.3	41.5011
82224.3	41.496
82699	41.4911
83176.4	41.4864
83656.6	41.4817
84139.5	41.4772
84625.3	41.4728
85113.8	41.4685
85605.2	41.4644
86099.4	41.4604
86596.4	41.4564
87096.4	41.4526
87599.2	41.449
88104.9	41.4454
88613.5	41.442
89125.1	41.4387
89639.6	41.4355
90157.1	41.4324
90677.6	41.4294
91201.1	41.4266
91727.6	41.4238
92257.1	41.4212
92789.7	41.4187
93325.4	41.4163
93864.2	41.414
94406.1	41.4117
94951.1	41.4097
95499.3	41.4077
96050.6	41.4058
96605.1	41.404
97162.8	41.4023
97723.7	41.4007
98287.9	41.3992
98855.3	41.3979
99426	41.3965
100000	41.3954
100577	41.3943
101158	41.3933
101742	41.3924
102329	41.3915
102920	41.3908
103514	41.3902
104112	41.3897
104713	41.3892
105317	41.3889
105925	41.3886
106537	41.3884
107152	41.3883
107771	41.3883
108393	41.3884
109018	41.3885
109648	41.3888
110281	41.3891
110917	41.3895
111558	41.39
112202	41.3905
112850	41.3912
113501	41.3919
114156	41.3927
114815	41.3936
115478	41.3946
116145	41.3956
116815	41.3967
117490	41.3979
118168	41.3991
118850	41.4004
119536	41.4018
120226	41.4033
120921	41.4048
121619	41.4064
122321	41.4081
123027	41.4098
123737	41.4116
124451	41.4135
125170	41.4154
125893	41.4174
126619	41.4194
127350	41.4216
128086	41.4238
128825	41.426
129569	41.4284
130317	41.4307
131069	41.4331
131826	41.4356
132587	41.4382
133352	41.4408
134122	41.4434
134896	41.4462
135675	41.4489
136458	41.4518
137246	41.4546
138038	41.4576
138835	41.4606
139637	41.4637
140443	41.4667
141254	41.4699
142069	41.4731
142889	41.4763
143714	41.4796
144544	41.483
145378	41.4864
146218	41.4898
147062	41.4933
147911	41.4968
148765	41.5004
149624	41.504
150487	41.5077
151356	41.5114
152230	41.5152
153109	41.519
153993	41.5228
154882	41.5267
155776	41.5307
156675	41.5346
157580	41.5387
158489	41.5427
159404	41.5468
160325	41.5509
161250	41.5551
162181	41.5593
163117	41.5635
164059	41.5678
165006	41.5721
165959	41.5764
166917	41.5808
167880	41.5852
168850	41.5897
169824	41.5942
170805	41.5987
171791	41.6032
172783	41.6078
173780	41.6124
174783	41.6171
175792	41.6218
176807	41.6265
177828	41.6312
178855	41.636
179887	41.6408
180926	41.6456
181970	41.6504
183021	41.6553
184077	41.6602
185140	41.6651
186209	41.6701
187284	41.6751
188365	41.6801
189452	41.6851
190546	41.6902
191646	41.6953
192752	41.7004
193865	41.7055
194984	41.7106
196110	41.7158
197242	41.721
198381	41.7262
199526	41.7315
200678	41.7367
201837	41.742
203002	41.7473
204174	41.7526
205353	41.7579
206538	41.7633
207730	41.7686
208930	41.774
210136	41.7795
211349	41.7849
212569	41.7903
213796	41.7958
215030	41.8013
216272	41.8067
217520	41.8122
218776	41.8178
220039	41.8233
221309	41.8288
222587	41.8344
223872	41.84
225165	41.8456
226464	41.8512
227772	41.8568
229087	41.8624
230409	41.8681
231739	41.8737
233077	41.8794
234423	41.8851
235776	41.8908
237137	41.8965
238506	41.9022
239883	41.9079
241268	41.9136
242661	41.9194
244062	41.9251
245471	41.9309
246888	41.9366
248313	41.9424
249747	41.9482
251189	41.954
252639	41.9598
254097	41.9656
255564	41.9714
257040	41.9772
258523	41.983
260016	41.9889
261517	41.9947
263027	42.0005
264545	42.0064
266073	42.0122
267609	42.018
269153	42.0239
270707	42.0298
272270	42.0356
273842	42.0415
275423	42.0474
277013	42.0533
278612	42.0592
280221	42.065
281838	42.0709
283465	42.0768
285102	42.0827
286748	42.0886
288403	42.0945
290068	42.1004
291743	42.1063
293427	42.1122
295121	42.1181
296825	42.124
298538	42.1299
300262	42.1357
301995	42.1417
303739	42.1476
305492	42.1534
307256	42.1593
309030	42.1652
310814	42.1711
312608	42.177
314413	42.1829
316228	42.1888
318053	42.1947
319890	42.2006
321736	42.2065
323594	42.2123
325462	42.2182
327341	42.2241
329230	42.23
331131	42.2358
333043	42.2417
334965	42.2476
336899	42.2534
338844	42.2593
340800	42.2652
342768	42.271
344747	42.2768
346737	42.2827
348739	42.2885
350752	42.2943
352777	42.3002
354813	42.306
356862	42.3118
358922	42.3176
360994	42.3234
363078	42.3292
365174	42.335
367282	42.3408
369403	42.3466
371535	42.3523
373680	42.3581
375837	42.3639
378007	42.3696
380189	42.3754
382384	42.3811
384592	42.3869
386812	42.3926
389045	42.3983
391291	42.404
393550	42.4097
395822	42.4154
398107	42.4211
400405	42.4268
402717	42.4325
405042	42.4381
407380	42.4438
409732	42.4494
412098	42.4551
414477	42.4607
416869	42.4663
419276	42.4719
421697	42.4775
424131	42.4831
426580	42.4887
429042	42.4943
431519	42.4998
434010	42.5054
436516	42.5109
439036	42.5165
441570	42.522
444120	42.5275
446684	42.533
449262	42.5385
451856	42.544
454465	42.5495
457088	42.555
459727	42.5604
462381	42.5659
465050	42.5713
467735	42.5767
470435	42.5822
473151	42.5875
475883	42.5929
478630	42.5983
481393	42.6037
484172	42.609
486968	42.6144
489779	42.6197
492606	42.625
495450	42.6304
498310	42.6357
501187	42.641
504081	42.6462
506991	42.6515
509918	42.6567
512861	42.662
515822	42.6672
518800	42.6724
521795	42.6776
524807	42.6828
527837	42.688
530884	42.6932
533949	42.6983
537032	42.7035
540132	42.7086
543250	42.7137
546387	42.7188
549541	42.7239
552713	42.729
555904	42.7341
559114	42.7391
562341	42.7442
565588	42.7492
568853	42.7542
572137	42.7592
575440	42.7642
578762	42.7692
582103	42.7742
585464	42.7791
588844	42.7841
592243	42.789
595662	42.7939
599101	42.7988
602560	42.8037
606038	42.8086
609537	42.8134
613056	42.8182
616595	42.8231
620155	42.8279
623735	42.8327
627336	42.8375
630957	42.8422
634600	42.847
638263	42.8518
641948	42.8565
645654	42.8612
649382	42.8659
653131	42.8706
656901	42.8753
660693	42.88
664508	42.8846
668344	42.8892
672202	42.8939
676083	42.8985
679986	42.9031
683912	42.9076
687860	42.9122
691831	42.9167
695825	42.9213
699842	42.9258
703882	42.9303
707946	42.9348
712033	42.9393
716143	42.9438
720278	42.9482
724436	42.9527
728618	42.957
732825	42.9615
737055	42.9659
741310	42.9703
745590	42.9746
749894	42.979
754223	42.9833
758578	42.9876
762957	42.9919
767361	42.9962
771792	43.0005
776247	43.0048
780728	43.009
785236	43.0133
789769	43.0175
794328	43.0217
798914	43.0259
803526	43.03
808165	43.0342
812831	43.0383
817523	43.0425
822243	43.0466
826990	43.0507
831764	43.0548
836566	43.0589
841395	43.0629
846253	43.0669
851138	43.071
856052	43.075
860994	43.079
865964	43.083
870964	43.0869
875992	43.0909
881049	43.0948
886135	43.0988
891251	43.1027
896396	43.1066
901571	43.1104
906776	43.1143
912011	43.1182
917276	43.122
922571	43.1258
927897	43.1296
933254	43.1334
938642	43.1372
944061	43.141
949511	43.1447
954993	43.1484
960506	43.1522
966051	43.1559
971628	43.1596
977237	43.1632
982879	43.1669
988553	43.1705
994260	43.1742
1e+06	43.1778
1.00577e+06	43.1814
1.01158e+06	43.185
1.01742e+06	43.1885
1.02329e+06	43.1921
1.0292e+06	43.1956
1.03514e+06	43.1992
1.04112e+06	43.2027
1.04713e+06	43.2062
1.05317e+06	43.2097
1.05925e+06	43.2131
1.06537e+06	43.2166
1.07152e+06	43.22
1.07771e+06	43.2235
1.08393e+06	43.2269
1.09018e+06	43.2303
1.09648e+06	43.2337
1.10281e+06	43.237
1.10917e+06	43.2404
1.11558e+06	43.2437
1.12202e+06	43.247
1.1285e+06	43.2503
1.13501e+06	43.2537
1.14156e+06	43.2569
1.14815e+06	43.2602
1.15478e+06	43.2635
1.16145e+06	43.2667
1.16815e+06	43.2699
1.1749e+06	43.2731
1.18168e+06	43.2763
1.1885e+06	43.2795
1.19536e+06	43.2827
1.20226e+06	43.2858
1.20921e+06	43.289
1.21619e+06	43.2921
1.22321e+06	43.2952
1.23027e+06	43.2983
1.23737e+06	43.3014
1.24451e+06	43.3045
1.2517e+06	43.3075
1.25893e+06	43.3106
1.26619e+06	43.3136
1.2735e+06	43.3166
1.28086e+06	43.3196
1.28825e+06	43.3226
1.29569e+06	43.3256
1.30317e+06	43.3285
1.31069e+06	43.3315
1.31826e+06	43.3344
1.32587e+06	43.3373
1.33352e+06	43.3402
1.34122e+06	43.3431
1.34896e+06	43.346
1.35675e+06	43.3488
1.36458e+06	43.3517
1.37246e+06	43.3545
1.38038e+06	43.3573
1.38835e+06	43.3601
1.39637e+06	43.3629
1.40443e+06	43.3657
1.41254e+06	43.3684
1.42069e+06	43.3712
1.42889e+06	43.3739
1.43714e+06	43.3767
1.44544e+06	43.3794
1.45378e+06	43.3821
1.46218e+06	43.3848
1.47062e+06	43.3874
1.47911e+06	43.3901
1.48765e+06	43.3927
1.49624e+06	43.3954
1.50487e+06	43.398
1.51356e+06	43.4006
1.5223e+06	43.4032
1.53109e+06	43.4057
1.53993e+06	43.4083
1.54882e+06	43.4108
1.55776e+06	43.4134
1.56675e+06	43.4159
1.5758e+06	43.4184
1.58489e+06	43.4209
1.59404e+06	43.4234
1.60325e+06	43.4259
1.6125e+06	43.4283
1.62181e+06	43.4308
1.63117e+06	43.4332
1.64059e+06	43.4356
1.65006e+06	43.438
1.65959e+06	43.4404
1.66917e+06	43.4428
1.6788e+06	43.4452
1.6885e+06	43.4475
1.69824e+06	43.4499
1.70805e+06	43.4522
1.71791e+06	43.4545
1.72783e+06	43.4568
1.7378e+06	43.4591
1.74783e+06	43.4614
1.75792e+06	43.4637
1.76807e+06	43.4659
1.77828e+06	43.4682
1.78855e+06	43.4704
1.79887e+06	43.4726
1.80926e+06	43.4748
1.8197e+06	43.477
1.83021e+06	43.4792
1.84077e+06	43.4813
1.8514e+06	43.4835
1.86209e+06	43.4856
1.87284e+06	43.4878
1.88365e+06	43.4898
1.89452e+06	43.492
1.90546e+06	43.4941
1.91646e+06	43.4961
1.92752e+06	43.4982
1.93865e+06	43.5003
1.94984e+06	43.5023
1.9611e+06	43.5044
1.97242e+06	43.5064
1.98381e+06	43.5084
1.99526e+06	43.5104
2.00678e+06	43.5124
2.01837e+06	43.5143
2.03002e+06	43.5163
2.04174e+06	43.5182
2.05353e+06	43.5202
2.06538e+06	43.5221
2.0773e+06	43.524
2.0893e+06	43.5259
2.10136e+06	43.5278
2.11349e+06	43.5297
2.12569e+06	43.5315
2.13796e+06	43.5334
2.1503e+06	43.5352
2.16272e+06	43.5371
2.1752e+06	43.5389
2.18776e+06	43.5407
2.20039e+06	43.5425
2.21309e+06	43.5443
2.22587e+06	43.5461
2.23872e+06	43.5478
2.25165e+06	43.5496
2.26464e+06	43.5513
2.27772e+06	43.5531
2.29087e+06	43.5548
2.30409e+06	43.5565
2.31739e+06	43.5582
2.33077e+06	43.5599
2.34423e+06	43.5616
2.35776e+06	43.5632
2.37137e+06	43.5649
2.38506e+06	43.5665
2.39883e+06	43.5682
2.41268e+06	43.5698
2.42661e+06	43.5714
2.44062e+06	43.573
2.45471e+06	43.5746
2.46888e+06	43.5762
2.48313e+06	43.5778
2.49747e+06	43.5793
2.51189e+06	43.5809
2.52639e+06	43.5824
2.54097e+06	43.5839
2.55564e+06	43.5854
2.5704e+06	43.5869
2.58523e+06	43.5884
2.60016e+06	43.5899
2.61517e+06	43.5914
2.63027e+06	43.5929
2.64545e+06	43.5943
2.66073e+06	43.5958
2.67609e+06	43.5972
2.69153e+06	43.5986
2.70707e+06	43.6
2.7227e+06	43.6015
2.73842e+06	43.6028
2.75423e+06	43.6042
2.77013e+06	43.6056
2.78612e+06	43.607
2.80221e+06	43.6083
2.81838e+06	43.6097
2.83465e+06	43.611
2.85102e+06	43.6123
2.86748e+06	43.6136
2.88403e+06	43.615
2.90068e+06	43.6162
2.91743e+06	43.6175
2.93427e+06	43.6188
2.95121e+06	43.6201
2.96825e+06	43.6213
2.98538e+06	43.6226
3.00262e+06	43.6238
3.01995e+06	43.625
3.03739e+06	43.6263
3.05492e+06	43.6275
3.07256e+06	43.6287
3.0903e+06	43.6299
3.10814e+06	43.6311
3.12608e+06	43.6322
3.14413e+06	43.6334
3.16228e+06	43.6346
3.18053e+06	43.6357
3.1989e+06	43.6368
3.21736e+06	43.638
3.23594e+06	43.6391
3.25462e+06	43.6402
3.27341e+06	43.6413
3.2923e+06	43.6424
3.31131e+06	43.6435
3.33043e+06	43.6446
3.34965e+06	43.6456
3.36899e+06	43.6467
3.38844e+06	43.6477
3.408e+06	43.6488
3.42768e+06	43.6498
3.44747e+06	43.6508
3.46737e+06	43.6518
3.48739e+06	43.6529
3.50752e+06	43.6539
3.52777e+06	43.6548
3.54813e+06	43.6558
3.56862e+06	43.6568
3.58922e+06	43.6578
3.60994e+06	43.6587
3.63078e+06	43.6597
3.65174e+06	43.6606
3.67282e+06	43.6615
3.69403e+06	43.6625
3.71535e+06	43.6634
3.7368e+06	43.6643
3.75837e+06	43.6652
3.78007e+06	43.6661
3.80189e+06	43.667
3.82384e+06	43.6679
3.84592e+06	43.6687
3.86812e+06	43.6696
3.89045e+06	43.6705
3.91291e+06	43.6713
3.9355e+06	43.6721
3.95822e+06	43.6729
3.98107e+06	43.6738
4.00405e+06	43.6746
4.02717e+06	43.6754
4.05042e+06	43.6762
4.0738e+06	43.677
4.09732e+06	43.6778
4.12098e+06	43.6786
4.14477e+06	43.6793
4.16869e+06	43.6801
4.19276e+06	43.6809
4.21697e+06	43.6816
4.24131e+06	43.6823
4.2658e+06	43.6831
4.29042e+06	43.6838
4.31519e+06	43.6845
4.3401e+06	43.6852
4.36516e+06	43.686
4.39036e+06	43.6866
4.4157e+06	43.6874
4.4412e+06	43.688
4.46684e+06	43.6887
4.49262e+06	43.6894
4.51856e+06	43.6901
4.54465e+06	43.6907
4.57088e+06	43.6914
4.59727e+06	43.692
4.62381e+06	43.6927
4.6505e+06	43.6933
4.67735e+06	43.6939
4.70435e+06	43.6945
4.73151e+06	43.6951
4.75883e+06	43.6957
4.7863e+06	43.6963
4.81393e+06	43.6969
4.84172e+06	43.6975
4.86968e+06	43.6981
4.89779e+06	43.6987
4.92606e+06	43.6993
4.9545e+06	43.6998
4.9831e+06	43.7004
5.01187e+06	43.7009
5.04081e+06	43.7014
5.06991e+06	43.702
5.09918e+06	43.7025
5.12861e+06	43.7031
5.15822e+06	43.7036
5.188e+06	43.7041
5.21795e+06	43.7046
5.24807e+06	43.7051
5.27837e+06	43.7056
5.30884e+06	43.7061
5.33949e+06	43.7066
5.37032e+06	43.7071
5.40132e+06	43.7075
5.4325e+06	43.708
5.46387e+06	43.7084
5.49541e+06	43.7089
5.52713e+06	43.7094
5.55904e+06	43.7098
5.59114e+06	43.7103
5.62341e+06	43.7107
5.65588e+06	43.7111
5.68853e+06	43.7115
5.72137e+06	43.7119
5.7544e+06	43.7124
5.78762e+06	43.7128
5.82103e+06	43.7132
5.85464e+06	43.7136
5.88844e+06	43.714
5.92243e+06	43.7144
5.95662e+06	43.7147
5.99101e+06	43.7151
6.0256e+06	43.7155
6.06038e+06	43.7159
6.09537e+06	43.7162
6.13056e+06	43.7166
6.16595e+06	43.717
6.20155e+06	43.7173
6.23735e+06	43.7176
6.27336e+06	43.718
6.30957e+06	43.7183
6.346e+06	43.7186
6.38263e+06	43.719
6.41948e+06	43.7193
6.45654e+06	43.7196
6.49382e+06	43.7199
6.53131e+06	43.7202
6.56901e+06	43.7205
6.60693e+06	43.7208
6.64508e+06	43.7211
6.68344e+06	43.7214
6.72202e+06	43.7217
6.76083e+06	43.722
6.79986e+06	43.7223
6.83912e+06	43.7225
6.8786e+06	43.7228
6.91831e+06	43.723
6.95825e+06	43.7234
6.99842e+06	43.7236
7.03882e+06	43.7238
7.07946e+06	43.7241
7.12033e+06	43.7243
7.16143e+06	43.7246
7.20278e+06	43.7248
7.24436e+06	43.725
7.28618e+06	43.7253
7.32825e+06	43.7255
7.37055e+06	43.7257
7.4131e+06	43.7259
7.4559e+06	43.7262
7.49894e+06	43.7264
7.54223e+06	43.7266
7.58578e+06	43.7268
7.62957e+06	43.727
7.67361e+06	43.7272
7.71792e+06	43.7274
7.76247e+06	43.7276
7.80728e+06	43.7277
7.85236e+06	43.7279
7.89769e+06	43.7281
7.94328e+06	43.7283
7.98914e+06	43.7285
8.03526e+06	43.7286
8.08165e+06	43.7288
8.12831e+06	43.7289
8.17523e+06	43.7291
8.22243e+06	43.7293
8.2699e+06	43.7294
8.31764e+06	43.7296
8.36566e+06	43.7297
8.41395e+06	43.7299
8.46253e+06	43.73
8.51138e+06	43.7302
8.56052e+06	43.7303
8.60994e+06	43.7304
8.65964e+06	43.7306
8.70964e+06	43.7307
8.75992e+06	43.7308
8.81049e+06	43.7309
8.86135e+06	43.7311
8.91251e+06	43.7312
8.96396e+06	43.7313
9.01571e+06	43.7314
9.06776e+06	43.7315
9.12011e+06	43.7316
9.17276e+06	43.7317
9.22571e+06	43.7318
9.27897e+06	43.7319
9.33254e+06	43.732
9.38642e+06	43.7321
9.44061e+06	43.7322
9.49511e+06	43.7323
9.54993e+06	43.7324
9.60506e+06	43.7325
9.66051e+06	43.7326
9.71628e+06	43.7326
9.77237e+06	43.7327
9.82879e+06	43.7328
9.88553e+06	43.7329
9.9426e+06	43.7329
1e+07	43.733
