E [MeV]	dEdx [keV/microm]
0.001	52.3344
0.00100577	52.4853
0.00101158	52.6366
0.00101742	52.7883
0.00102329	52.9404
0.0010292	53.093
0.00103514	53.246
0.00104112	53.3995
0.00104713	53.5534
0.00105317	53.7078
0.00105925	53.8626
0.00106537	54.0178
0.00107152	54.1736
0.00107771	54.3297
0.00108393	54.4863
0.00109018	54.6434
0.00109648	54.8009
0.00110281	54.9588
0.00110917	55.1172
0.00111558	55.2761
0.00112202	55.4354
0.0011285	55.5952
0.00113501	55.7554
0.00114156	55.9162
0.00114815	56.0773
0.00115478	56.239
0.00116145	56.4011
0.00116815	56.5637
0.0011749	56.7267
0.00118168	56.8902
0.0011885	57.0542
0.00119536	57.2186
0.00120226	57.3835
0.00120921	57.5489
0.00121619	57.7148
0.00122321	57.8812
0.00123027	58.048
0.00123737	58.2153
0.00124451	58.3831
0.0012517	58.5514
0.00125893	58.7202
0.00126619	58.8894
0.0012735	59.0592
0.00128086	59.2294
0.00128825	59.4001
0.00129569	59.5713
0.00130317	59.743
0.00131069	59.9152
0.00131826	60.0879
0.00132587	60.2612
0.00133352	60.4348
0.00134122	60.609
0.00134896	60.7837
0.00135675	60.9589
0.00136458	61.1346
0.00137246	61.3108
0.00138038	61.4876
0.00138835	61.6648
0.00139637	61.8425
0.00140443	62.0208
0.00141254	62.1996
0.00142069	62.3789
0.00142889	62.5587
0.00143714	62.739
0.00144544	62.9198
0.00145378	63.1012
0.00146218	63.283
0.00147062	63.4654
0.00147911	63.6484
0.00148765	63.8318
0.00149624	64.0158
0.00150487	64.2004
0.00151356	64.3854
0.0015223	64.571
0.00153109	64.7571
0.00153993	64.9437
0.00154882	65.1309
0.00155776	65.3187
0.00156675	65.507
0.0015758	65.6958
0.00158489	65.8851
0.00159404	66.075
0.00160325	66.2655
0.0016125	66.4565
0.00162181	66.648
0.00163117	66.8401
0.00164059	67.0328
0.00165006	67.226
0.00165959	67.4198
0.00166917	67.6141
0.0016788	67.809
0.0016885	68.0044
0.00169824	68.2005
0.00170805	68.397
0.00171791	68.5942
0.00172783	68.7919
0.0017378	68.9902
0.00174783	69.189
0.00175792	69.3885
0.00176807	69.5885
0.00177828	69.7891
0.00178855	69.9902
0.00179887	70.192
0.00180926	70.3943
0.0018197	70.5972
0.00183021	70.8007
0.00184077	71.0047
0.0018514	71.2094
0.00186209	71.4146
0.00187284	71.6205
0.00188365	71.8269
0.00189452	72.034
0.00190546	72.2416
0.00191646	72.4498
0.00192752	72.6586
0.00193865	72.8681
0.00194984	73.0781
0.0019611	73.2888
0.00197242	73.5
0.00198381	73.7119
0.00199526	73.9243
0.00200678	74.1374
0.00201837	74.3511
0.00203002	74.5654
0.00204174	74.7803
0.00205353	74.9959
0.00206538	75.2121
0.0020773	75.4288
0.0020893	75.6462
0.00210136	75.8643
0.00211349	76.0829
0.00212569	76.3023
0.00213796	76.5222
0.0021503	76.7428
0.00216272	76.9639
0.0021752	77.1858
0.00218776	77.4082
0.00220039	77.6314
0.00221309	77.8551
0.00222587	78.0795
0.00223872	78.3046
0.00225165	78.5303
0.00226464	78.7567
0.00227772	78.9837
0.00229087	79.2113
0.00230409	79.4397
0.00231739	79.6686
0.00233077	79.8983
0.00234423	80.1286
0.00235776	80.3595
0.00237137	80.5912
0.00238506	80.8235
0.00239883	81.0564
0.00241268	81.29
0.00242661	81.5244
0.00244062	81.7593
0.00245471	81.995
0.00246888	82.2313
0.00248313	82.4684
0.00249747	82.7061
0.00251189	82.9444
0.00252639	83.1835
0.00254097	83.4233
0.00255564	83.6638
0.0025704	83.9049
0.00258523	84.1468
0.00260016	84.3893
0.00261517	84.6325
0.00263027	84.8765
0.00264545	85.1211
0.00266073	85.3665
0.00267609	85.6125
0.00269153	85.8593
0.00270707	86.1068
0.0027227	86.355
0.00273842	86.6039
0.00275423	86.8535
0.00277013	87.1039
0.00278612	87.3549
0.00280221	87.6067
0.00281838	87.8592
0.00283465	88.1125
0.00285102	88.3664
0.00286748	88.6212
0.00288403	88.8766
0.00290068	89.1328
0.00291743	89.3897
0.00293427	89.6473
0.00295121	89.9057
0.00296825	90.1649
0.00298538	90.4247
0.00300262	90.6854
0.00301995	90.9468
0.00303739	91.2089
0.00305492	91.4718
0.00307256	91.7355
0.0030903	91.9999
0.00310814	92.2651
0.00312608	92.531
0.00314413	92.7977
0.00316228	93.0652
0.00318053	93.3335
0.0031989	93.6025
0.00321736	93.8723
0.00323594	94.1428
0.00325462	94.4141
0.00327341	94.6863
0.0032923	94.9592
0.00331131	95.233
0.00333043	95.5074
0.00334965	95.7826
0.00336899	96.0589
0.00338844	96.3357
0.003408	96.6135
0.00342768	96.8918
0.00344747	97.1712
0.00346737	97.4512
0.00348739	97.7322
0.00350752	98.0138
0.00352777	98.2964
0.00354813	98.5797
0.00356862	98.8637
0.00358922	99.1487
0.00360994	99.4346
0.00363078	99.7211
0.00365174	100.009
0.00367282	100.297
0.00369403	100.586
0.00371535	100.876
0.0037368	101.167
0.00375837	101.458
0.00378007	101.751
0.00380189	102.044
0.00382384	102.338
0.00384592	102.633
0.00386812	102.929
0.00389045	103.226
0.00391291	103.523
0.0039355	103.821
0.00395822	104.121
0.00398107	104.421
0.00400405	104.722
0.00402717	105.024
0.00405042	105.326
0.0040738	105.63
0.00409732	105.934
0.00412098	106.24
0.00414477	106.546
0.00416869	106.853
0.00419276	107.161
0.00421697	107.47
0.00424131	107.78
0.0042658	108.09
0.00429042	108.402
0.00431519	108.715
0.0043401	109.028
0.00436516	109.342
0.00439036	109.657
0.0044157	109.973
0.0044412	110.29
0.00446684	110.608
0.00449262	110.927
0.00451856	111.247
0.00454465	111.567
0.00457088	111.889
0.00459727	112.211
0.00462381	112.535
0.0046505	112.859
0.00467735	113.185
0.00470435	113.511
0.00473151	113.838
0.00475883	114.166
0.0047863	114.493
0.00481393	114.822
0.00484172	115.151
0.00486968	115.482
0.00489779	115.813
0.00492606	116.146
0.0049545	116.479
0.0049831	116.813
0.00501187	117.147
0.00504081	117.482
0.00506991	117.817
0.00509918	118.154
0.00512861	118.492
0.00515822	118.83
0.005188	119.17
0.00521795	119.51
0.00524807	119.852
0.00527837	120.194
0.00530884	120.537
0.00533949	120.882
0.00537032	121.227
0.00540132	121.573
0.0054325	121.921
0.00546387	122.269
0.00549541	122.619
0.00552713	122.969
0.00555904	123.32
0.00559114	123.673
0.00562341	124.026
0.00565588	124.381
0.00568853	124.736
0.00572137	125.093
0.0057544	125.449
0.00578762	125.806
0.00582103	126.164
0.00585464	126.523
0.00588844	126.883
0.00592243	127.244
0.00595662	127.606
0.00599101	127.969
0.0060256	128.331
0.00606038	128.694
0.00609537	129.058
0.00613056	129.424
0.00616595	129.79
0.00620155	130.158
0.00623735	130.526
0.00627336	130.896
0.00630957	131.266
0.006346	131.638
0.00638263	132.011
0.00641948	132.385
0.00645654	132.76
0.00649382	133.136
0.00653131	133.513
0.00656901	133.891
0.00660693	134.27
0.00664508	134.651
0.00668344	135.032
0.00672202	135.414
0.00676083	135.797
0.00679986	136.18
0.00683912	136.564
0.0068786	136.948
0.00691831	137.334
0.00695825	137.722
0.00699842	138.11
0.00703882	138.499
0.00707946	138.89
0.00712033	139.282
0.00716143	139.674
0.00720278	140.068
0.00724436	140.463
0.00728618	140.859
0.00732825	141.257
0.00737055	141.655
0.0074131	142.055
0.0074559	142.456
0.00749894	142.858
0.00754223	143.261
0.00758578	143.665
0.00762957	144.071
0.00767361	144.477
0.00771792	144.885
0.00776247	145.294
0.00780728	145.704
0.00785236	146.115
0.00789769	146.528
0.00794328	146.942
0.00798914	147.357
0.00803526	147.773
0.00808165	148.19
0.00812831	148.609
0.00817523	149.028
0.00822243	149.449
0.0082699	149.871
0.00831764	150.295
0.00836566	150.719
0.00841395	151.145
0.00846253	151.572
0.00851138	152.001
0.00856052	152.43
0.00860994	152.861
0.00865964	153.293
0.00870964	153.726
0.00875992	154.16
0.00881049	154.596
0.00886135	155.033
0.00891251	155.472
0.00896396	155.911
0.00901571	156.352
0.00906776	156.794
0.00912011	157.237
0.00917276	157.682
0.00922571	158.128
0.00927897	158.576
0.00933254	159.024
0.00938642	159.474
0.00944061	159.925
0.00949511	160.377
0.00954993	160.831
0.00960506	161.286
0.00966051	161.743
0.00971628	162.201
0.00977237	162.66
0.00982879	163.12
0.00988553	163.582
0.0099426	164.045
0.01	164.509
0.0100577	164.975
0.0101158	165.442
0.0101742	165.91
0.0102329	166.38
0.010292	166.851
0.0103514	167.324
0.0104112	167.798
0.0104713	168.273
0.0105317	168.75
0.0105925	169.228
0.0106537	169.707
0.0107152	170.188
0.0107771	170.67
0.0108393	171.154
0.0109018	171.639
0.0109648	172.126
0.0110281	172.613
0.0110917	173.103
0.0111558	173.593
0.0112202	174.085
0.011285	174.579
0.0113501	175.074
0.0114156	175.57
0.0114815	176.068
0.0115478	176.567
0.0116145	177.068
0.0116815	177.57
0.011749	178.074
0.0118168	178.579
0.011885	179.086
0.0119536	179.593
0.0120226	180.103
0.0120921	180.614
0.0121619	181.127
0.0122321	181.641
0.0123027	182.156
0.0123737	182.673
0.0124451	183.191
0.012517	183.711
0.0125893	184.233
0.0126619	184.756
0.012735	185.28
0.0128086	185.806
0.0128825	186.334
0.0129569	186.863
0.0130317	187.394
0.0131069	187.926
0.0131826	188.46
0.0132587	188.995
0.0133352	189.532
0.0134122	190.07
0.0134896	190.61
0.0135675	191.152
0.0136458	191.695
0.0137246	192.24
0.0138038	192.786
0.0138835	193.334
0.0139637	193.884
0.0140443	194.435
0.0141254	194.987
0.0142069	195.541
0.0142889	196.097
0.0143714	196.655
0.0144544	197.214
0.0145378	197.775
0.0146218	198.338
0.0147062	198.901
0.0147911	199.467
0.0148765	200.034
0.0149624	200.603
0.0150487	201.174
0.0151356	201.746
0.015223	202.32
0.0153109	202.896
0.0153993	203.473
0.0154882	204.052
0.0155776	204.633
0.0156675	205.216
0.015758	205.799
0.0158489	206.385
0.0159404	206.973
0.0160325	207.562
0.016125	208.153
0.0162181	208.746
0.0163117	209.34
0.0164059	209.936
0.0165006	210.534
0.0165959	211.134
0.0166917	211.735
0.016788	212.338
0.016885	212.943
0.0169824	213.55
0.0170805	214.158
0.0171791	214.768
0.0172783	215.38
0.017378	215.994
0.0174783	216.609
0.0175792	217.227
0.0176807	217.846
0.0177828	218.467
0.0178855	219.09
0.0179887	219.714
0.0180926	220.341
0.018197	220.969
0.0183021	221.599
0.0184077	222.23
0.018514	222.864
0.0186209	223.5
0.0187284	224.137
0.0188365	224.777
0.0189452	225.418
0.0190546	226.011
0.0191646	226.566
0.0192752	227.122
0.0193865	227.681
0.0194984	228.241
0.019611	228.803
0.0197242	229.367
0.0198381	229.933
0.0199526	230.501
0.0200678	231.001
0.0201837	231.472
0.0203002	231.946
0.0204174	232.422
0.0205353	232.899
0.0206538	233.378
0.020773	233.859
0.020893	234.341
0.0210136	234.826
0.0211349	235.312
0.0212569	235.8
0.0213796	236.29
0.021503	236.781
0.0216272	237.274
0.021752	237.769
0.0218776	238.265
0.0220039	238.764
0.0221309	239.264
0.0222587	239.766
0.0223872	240.269
0.0225165	240.775
0.0226464	241.282
0.0227772	241.79
0.0229087	242.301
0.0230409	242.767
0.0231739	243.172
0.0233077	243.579
0.0234423	243.988
0.0235776	244.398
0.0237137	244.811
0.0238506	245.224
0.0239883	245.632
0.0241268	245.931
0.0242661	246.233
0.0244062	246.535
0.0245471	246.84
0.0246888	247.146
0.0248313	247.453
0.0249747	247.762
0.0251189	248.073
0.0252639	248.385
0.0254097	248.698
0.0255564	249.013
0.025704	249.329
0.0258523	249.647
0.0260016	249.966
0.0261517	250.287
0.0263027	250.608
0.0264545	250.932
0.0266073	251.257
0.0267609	251.583
0.0269153	251.91
0.0270707	252.161
0.027227	252.366
0.0273842	252.572
0.0275423	252.778
0.0277013	252.987
0.0278612	253.196
0.0280221	253.407
0.0281838	253.619
0.0283465	253.832
0.0285102	254.046
0.0286748	254.262
0.0288403	254.478
0.0290068	254.696
0.0291743	254.915
0.0293427	255.135
0.0295121	255.356
0.0296825	255.578
0.0298538	255.802
0.0300262	256.026
0.0301995	256.252
0.0303739	256.478
0.0305492	256.706
0.0307256	256.935
0.030903	257.164
0.0310814	257.395
0.0312608	257.627
0.0314413	257.86
0.0316228	258.094
0.0318053	258.329
0.031989	258.565
0.0321736	258.802
0.0323594	259.04
0.0325462	259.278
0.0327341	259.518
0.032923	259.759
0.0331131	260
0.0333043	260.243
0.0334965	260.487
0.0336899	260.731
0.0338844	260.977
0.03408	261.223
0.0342768	261.471
0.0344747	261.719
0.0346737	261.968
0.0348739	262.218
0.0350752	262.469
0.0352777	262.721
0.0354813	262.974
0.0356862	263.228
0.0358922	263.483
0.0360994	263.738
0.0363078	263.995
0.0365174	264.252
0.0367282	264.51
0.0369403	264.769
0.0371535	265.029
0.037368	265.29
0.0375837	265.552
0.0378007	265.814
0.0380189	266.078
0.0382384	266.342
0.0384592	266.608
0.0386812	266.874
0.0389045	267.141
0.0391291	267.408
0.039355	267.677
0.0395822	267.947
0.0398107	268.217
0.0400405	268.489
0.0402717	268.761
0.0405042	269.034
0.040738	269.308
0.0409732	269.582
0.0412098	269.858
0.0414477	270.134
0.0416869	270.412
0.0419276	270.69
0.0421697	270.969
0.0424131	271.249
0.042658	271.53
0.0429042	271.812
0.0431519	272.094
0.043401	272.378
0.0436516	272.662
0.0439036	272.948
0.044157	273.234
0.044412	273.521
0.0446684	273.809
0.0449262	274.097
0.0451856	274.387
0.0454465	274.678
0.0457088	274.969
0.0459727	275.261
0.0462381	275.555
0.046505	275.849
0.0467735	276.144
0.0470435	276.44
0.0473151	276.737
0.0475883	277.035
0.047863	277.333
0.0481393	277.633
0.0484172	277.934
0.0486968	278.235
0.0489779	278.538
0.0492606	278.841
0.049545	279.145
0.049831	279.451
0.0501187	279.757
0.0504081	280.064
0.0506991	280.372
0.0509918	280.681
0.0512861	280.991
0.0515822	281.302
0.05188	281.614
0.0521795	281.927
0.0524807	282.241
0.0527837	282.556
0.0530884	282.872
0.0533949	283.189
0.0537032	283.507
0.0540132	283.826
0.054325	284.146
0.0546387	284.467
0.0549541	284.789
0.0552713	285.112
0.0555904	285.436
0.0559114	285.761
0.0562341	286.087
0.0565588	286.415
0.0568853	286.743
0.0572137	287.072
0.057544	287.403
0.0578762	287.734
0.0582103	288.066
0.0585464	288.4
0.0588844	288.735
0.0592243	289.071
0.0595662	289.407
0.0599101	289.745
0.060256	290.084
0.0606038	290.425
0.0609537	290.766
0.0613056	291.108
0.0616595	291.452
0.0620155	291.797
0.0623735	292.143
0.0627336	292.49
0.0630957	292.838
0.06346	293.187
0.0638263	293.538
0.0641948	293.89
0.0645654	294.243
0.0649382	294.596
0.0653131	294.952
0.0656901	295.308
0.0660693	295.666
0.0664508	296.025
0.0668344	296.385
0.0672202	296.747
0.0676083	297.109
0.0679986	297.473
0.0683912	297.838
0.068786	298.205
0.0691831	298.572
0.0695825	298.941
0.0699842	299.312
0.0703882	299.683
0.0707946	300.056
0.0712033	300.43
0.0716143	300.806
0.0720278	301.182
0.0724436	301.56
0.0728618	301.94
0.0732825	302.321
0.0737055	302.702
0.074131	303.086
0.074559	303.471
0.0749894	303.857
0.0754223	304.244
0.0758578	304.633
0.0762957	305.024
0.0767361	305.415
0.0771792	305.808
0.0776247	306.203
0.0780728	306.599
0.0785236	306.996
0.0789769	307.395
0.0794328	307.795
0.0798914	308.197
0.0803526	308.6
0.0808165	309.004
0.0812831	309.41
0.0817523	309.818
0.0822243	310.227
0.082699	310.637
0.0831764	311.049
0.0836566	311.463
0.0841395	311.878
0.0846253	312.295
0.0851138	312.713
0.0856052	313.132
0.0860994	313.553
0.0865964	313.976
0.0870964	314.4
0.0875992	314.826
0.0881049	315.253
0.0886135	315.682
0.0891251	316.113
0.0896396	316.545
0.0901571	316.979
0.0906776	317.415
0.0912011	317.852
0.0917276	318.29
0.0922571	318.73
0.0927897	319.172
0.0933254	319.616
0.0938642	320.061
0.0944061	320.508
0.0949511	320.957
0.0954993	321.407
0.0960506	321.859
0.0966051	322.313
0.0971628	322.768
0.0977237	323.225
0.0982879	323.684
0.0988553	324.144
0.099426	324.607
0.1	325.071
0.100577	325.537
0.101158	326.004
0.101742	326.473
0.102329	326.945
0.10292	327.417
0.103514	327.892
0.104112	328.369
0.104713	328.847
0.105317	329.327
0.105925	329.809
0.106537	330.293
0.107152	330.778
0.107771	331.265
0.108393	331.755
0.109018	332.246
0.109648	332.739
0.110281	333.234
0.110917	333.73
0.111558	334.229
0.112202	334.73
0.11285	335.232
0.113501	335.737
0.114156	336.243
0.114815	336.751
0.115478	337.261
0.116145	337.774
0.116815	338.288
0.11749	338.804
0.118168	339.322
0.11885	339.842
0.119536	340.364
0.120226	340.888
0.120921	341.414
0.121619	341.942
0.122321	342.472
0.123027	343.004
0.123737	343.538
0.124451	344.074
0.12517	344.612
0.125893	345.152
0.126619	345.695
0.12735	346.239
0.128086	346.785
0.128825	347.334
0.129569	347.884
0.130317	348.437
0.131069	348.992
0.131826	349.549
0.132587	350.108
0.133352	350.669
0.134122	351.232
0.134896	351.797
0.135675	352.365
0.136458	352.935
0.137246	353.507
0.138038	354.081
0.138835	354.657
0.139637	355.236
0.140443	355.816
0.141254	356.399
0.142069	356.984
0.142889	357.572
0.143714	358.161
0.144544	358.753
0.145378	359.347
0.146218	359.943
0.147062	360.542
0.147911	361.142
0.148765	361.745
0.149624	362.351
0.150487	362.958
0.151356	363.568
0.15223	364.18
0.153109	364.795
0.153993	365.412
0.154882	366.031
0.155776	366.652
0.156675	367.276
0.15758	367.902
0.158489	368.53
0.159404	369.161
0.160325	369.795
0.16125	370.43
0.162181	371.068
0.163117	371.708
0.164059	372.351
0.165006	372.996
0.165959	373.643
0.166917	374.293
0.16788	374.946
0.16885	375.6
0.169824	376.258
0.170805	376.917
0.171791	377.579
0.172783	378.244
0.17378	378.91
0.174783	379.58
0.175792	380.252
0.176807	380.926
0.177828	381.603
0.178855	382.282
0.179887	382.964
0.180926	383.648
0.18197	384.335
0.183021	385.025
0.184077	385.716
0.18514	386.411
0.186209	387.108
0.187284	387.807
0.188365	388.509
0.189452	389.213
0.190546	389.921
0.191646	390.63
0.192752	391.343
0.193865	392.058
0.194984	392.775
0.19611	393.495
0.197242	394.217
0.198381	394.942
0.199526	395.67
0.200678	396.401
0.201837	397.133
0.203002	397.869
0.204174	398.607
0.205353	399.348
0.206538	400.092
0.20773	400.838
0.20893	401.586
0.210136	402.338
0.211349	403.092
0.212569	403.848
0.213796	404.608
0.21503	405.37
0.216272	406.135
0.21752	406.902
0.218776	407.672
0.220039	408.445
0.221309	409.221
0.222587	409.999
0.223872	410.78
0.225165	411.564
0.226464	412.35
0.227772	413.139
0.229087	413.931
0.230409	414.725
0.231739	415.522
0.233077	416.322
0.234423	417.125
0.235776	417.931
0.237137	418.739
0.238506	419.55
0.239883	420.363
0.241268	421.18
0.242661	421.999
0.244062	422.821
0.245471	423.646
0.246888	424.474
0.248313	425.304
0.249747	426.137
0.251189	426.973
0.252639	427.812
0.254097	428.653
0.255564	429.498
0.25704	430.345
0.258523	431.195
0.260016	432.047
0.261517	432.903
0.263027	433.761
0.264545	434.622
0.266073	435.486
0.267609	436.353
0.269153	437.223
0.270707	438.095
0.27227	438.97
0.273842	439.848
0.275423	440.729
0.277013	441.613
0.278612	442.499
0.280221	443.389
0.281838	444.281
0.283465	445.176
0.285102	446.074
0.286748	446.974
0.288403	447.878
0.290068	448.784
0.291743	449.693
0.293427	450.609
0.295121	451.641
0.296825	452.677
0.298538	453.718
0.300262	454.763
0.301995	455.812
0.303739	456.865
0.305492	457.923
0.307256	458.985
0.30903	460.051
0.310814	461.121
0.312608	462.196
0.314413	463.275
0.316228	464.358
0.318053	465.446
0.31989	466.539
0.321736	467.635
0.323594	468.736
0.325462	469.841
0.327341	470.951
0.32923	472.065
0.331131	473.287
0.333043	474.559
0.334965	475.837
0.336899	477.122
0.338844	478.413
0.3408	479.71
0.342768	481.013
0.344747	482.322
0.346737	483.639
0.348739	484.961
0.350752	486.29
0.352777	487.626
0.354813	488.967
0.356862	490.316
0.358922	491.671
0.360994	493.033
0.363078	494.402
0.365174	495.777
0.367282	497.159
0.369403	498.547
0.371535	499.943
0.37368	501.345
0.375837	502.754
0.378007	504.17
0.380189	505.594
0.382384	507.024
0.384592	508.461
0.386812	509.905
0.389045	511.357
0.391291	512.815
0.39355	514.281
0.395822	515.754
0.398107	517.234
0.400405	518.722
0.402717	520.217
0.405042	521.736
0.40738	523.43
0.409732	525.132
0.412098	526.845
0.414477	528.567
0.416869	530.299
0.419276	532.041
0.421697	533.793
0.424131	535.555
0.42658	537.327
0.429042	539.109
0.431519	540.901
0.43401	542.704
0.436516	544.517
0.439036	546.34
0.44157	548.174
0.44412	550.018
0.446684	551.873
0.449262	553.739
0.451856	555.781
0.454465	557.894
0.457088	560.021
0.459727	562.161
0.462381	564.315
0.46505	566.483
0.467735	568.664
0.470435	570.86
0.473151	573.07
0.475883	575.295
0.47863	577.496
0.481393	579.675
0.484172	581.868
0.486968	584.074
0.489779	586.294
0.492606	588.526
0.49545	590.773
0.49831	593.033
0.501187	595.307
0.504081	597.541
0.506991	599.759
0.509918	601.989
0.512861	604.232
0.515822	606.488
0.5188	608.756
0.521795	611.037
0.524807	613.33
0.527837	615.637
0.530884	617.956
0.533949	620.289
0.537032	622.635
0.540132	625.206
0.54325	627.85
0.546387	630.51
0.549541	633.187
0.552713	635.881
0.555904	638.592
0.559114	641.32
0.562341	644.065
0.565588	646.827
0.568853	649.606
0.572137	652.403
0.57544	655.218
0.578762	658.014
0.582103	660.77
0.585464	663.543
0.588844	666.332
0.592243	669.137
0.595662	671.959
0.599101	674.797
0.60256	677.649
0.606038	680.418
0.609537	683.202
0.613056	686.001
0.616595	688.815
0.620155	691.643
0.623735	694.487
0.627336	697.346
0.630957	700.22
0.6346	703.11
0.638263	706.014
0.641948	708.934
0.645654	711.869
0.649382	714.82
0.653131	717.787
0.656901	720.769
0.660693	723.766
0.664508	726.779
0.668344	729.808
0.672202	732.853
0.676083	735.914
0.679986	738.926
0.683912	741.906
0.68786	744.9
0.691831	747.908
0.695825	750.93
0.699842	753.966
0.703882	757.016
0.707946	760.08
0.712033	763.158
0.716143	766.25
0.720278	769.356
0.724436	772.476
0.728618	775.61
0.732825	778.648
0.737055	781.81
0.74131	784.985
0.74559	788.175
0.749894	791.378
0.754223	794.596
0.758578	797.828
0.762957	801.075
0.767361	804.335
0.771792	807.61
0.776247	810.899
0.780728	814.202
0.785236	817.52
0.789769	820.852
0.794328	824.198
0.798914	827.558
0.803526	830.933
0.808165	834.322
0.812831	837.726
0.817523	841.143
0.822243	844.575
0.82699	848.021
0.831764	851.482
0.836566	854.956
0.841395	858.445
0.846253	861.949
0.851138	865.467
0.856052	868.998
0.860994	872.545
0.865964	876.105
0.870964	879.68
0.875992	883.269
0.881049	886.872
0.886135	890.489
0.891251	894.121
0.896396	897.766
0.901571	901.426
0.906776	905.1
0.912011	908.788
0.917276	912.491
0.922571	916.073
0.927897	919.802
0.933254	923.545
0.938642	927.302
0.944061	931.073
0.949511	934.857
0.954993	938.656
0.960506	942.468
0.966051	946.295
0.971628	950.135
0.977237	953.989
0.982879	957.857
0.988553	961.738
0.99426	965.633
1	969.542
1.00577	973.465
1.01158	977.4
1.01742	981.351
1.02329	985.312
1.0292	989.289
1.03514	993.279
1.04112	997.28
1.04713	1001.3
1.05317	1005.33
1.05925	1009.37
1.06537	1013.42
1.07152	1017.5
1.07771	1021.58
1.08393	1025.67
1.09018	1029.78
1.09648	1033.9
1.10281	1038.03
1.10917	1042.18
1.11558	1046.33
1.12202	1050.5
1.1285	1054.69
1.13501	1058.88
1.14156	1063.09
1.14815	1067.31
1.15478	1071.54
1.16145	1075.79
1.16815	1080.04
1.1749	1084.31
1.18168	1088.59
1.1885	1092.88
1.19536	1097.18
1.20226	1101.5
1.20921	1105.82
1.21619	1110.16
1.22321	1114.51
1.23027	1118.87
1.23737	1123.08
1.24451	1127.46
1.2517	1131.85
1.25893	1136.25
1.26619	1140.66
1.2735	1145.08
1.28086	1149.51
1.28825	1153.96
1.29569	1158.41
1.30317	1162.87
1.31069	1167.34
1.31826	1171.82
1.32587	1176.32
1.33352	1180.82
1.34122	1185.33
1.34896	1189.85
1.35675	1194.38
1.36458	1198.91
1.37246	1203.46
1.38038	1208.01
1.38835	1212.58
1.39637	1217.15
1.40443	1221.73
1.41254	1226.32
1.42069	1230.91
1.42889	1235.52
1.43714	1240.13
1.44544	1244.75
1.45378	1249.38
1.46218	1254.01
1.47062	1258.65
1.47911	1263.3
1.48765	1267.77
1.49624	1272.43
1.50487	1277.09
1.51356	1281.76
1.5223	1286.44
1.53109	1291.12
1.53993	1295.81
1.54882	1300.51
1.55776	1305.2
1.56675	1309.91
1.5758	1314.62
1.58489	1319.33
1.59404	1324.05
1.60325	1328.77
1.6125	1333.5
1.62181	1338.23
1.63117	1342.96
1.64059	1347.7
1.65006	1352.44
1.65959	1357.18
1.66917	1361.93
1.6788	1366.68
1.6885	1371.43
1.69824	1376.19
1.70805	1380.94
1.71791	1385.7
1.72783	1390.46
1.7378	1395.22
1.74783	1399.99
1.75792	1404.75
1.76807	1409.51
1.77828	1414.28
1.78855	1419.04
1.79887	1423.81
1.80926	1428.58
1.8197	1433.34
1.83021	1438.11
1.84077	1442.87
1.8514	1447.63
1.86209	1452.39
1.87284	1457.15
1.88365	1461.91
1.89452	1466.46
1.90546	1471.21
1.91646	1475.96
1.92752	1480.7
1.93865	1485.44
1.94984	1490.18
1.9611	1494.92
1.97242	1499.65
1.98381	1504.37
1.99526	1509.1
2.00678	1513.82
2.01837	1518.53
2.03002	1523.24
2.04174	1527.94
2.05353	1532.64
2.06538	1537.33
2.0773	1542.02
2.0893	1546.69
2.10136	1551.36
2.11349	1556.03
2.12569	1560.69
2.13796	1565.34
2.1503	1569.98
2.16272	1574.61
2.1752	1579.24
2.18776	1583.86
2.20039	1588.47
2.21309	1593.07
2.22587	1597.66
2.23872	1602.24
2.25165	1606.81
2.26464	1611.37
2.27772	1615.92
2.29087	1620.46
2.30409	1624.99
2.31739	1629.5
2.33077	1634.01
2.34423	1638.5
2.35776	1642.98
2.37137	1647.45
2.38506	1651.91
2.39883	1656.35
2.41268	1660.78
2.42661	1665.19
2.44062	1669.6
2.45471	1673.98
2.46888	1678.36
2.48313	1682.71
2.49747	1687.06
2.51189	1691.39
2.52639	1695.7
2.54097	1700
2.55564	1704.28
2.5704	1708.54
2.58523	1712.79
2.60016	1717.02
2.61517	1721.24
2.63027	1725.43
2.64545	1729.61
2.66073	1733.77
2.67609	1737.92
2.69153	1742.04
2.70707	1746.14
2.7227	1750.23
2.73842	1754.3
2.75423	1758.34
2.77013	1762.37
2.78612	1766.38
2.80221	1770.36
2.81838	1774.33
2.83465	1778.27
2.85102	1782.19
2.86748	1786.1
2.88403	1789.97
2.90068	1793.83
2.91743	1797.67
2.93427	1801.48
2.95121	1805.27
2.96825	1809.04
2.98538	1812.79
3.00262	1816.51
3.01995	1820.2
3.03739	1823.88
3.05492	1827.52
3.07256	1831.15
3.0903	1834.75
3.10814	1838.32
3.12608	1841.87
3.14413	1845.4
3.16228	1848.9
3.18053	1852.37
3.1989	1855.81
3.21736	1859.23
3.23594	1862.63
3.25462	1866
3.27341	1869.34
3.2923	1872.64
3.31131	1875.93
3.33043	1879.19
3.34965	1882.42
3.36899	1885.62
3.38844	1888.8
3.408	1891.94
3.42768	1895.06
3.44747	1898.15
3.46737	1901.21
3.48739	1904.24
3.50752	1907.24
3.52777	1910.21
3.54813	1913.15
3.56862	1916.07
3.58922	1918.95
3.60994	1921.8
3.63078	1924.62
3.65174	1927.41
3.67282	1930.17
3.69403	1932.9
3.71535	1935.6
3.7368	1938.27
3.75837	1940.9
3.78007	1943.51
3.80189	1946.08
3.82384	1948.62
3.84592	1951.13
3.86812	1953.61
3.89045	1956.06
3.91291	1958.47
3.9355	1960.85
3.95822	1963.2
3.98107	1965.52
4.00405	1967.8
4.02717	1970.06
4.05042	1972.27
4.0738	1974.46
4.09732	1976.61
4.12098	1978.73
4.14477	1980.82
4.16869	1982.87
4.19276	1984.89
4.21697	1986.88
4.24131	1988.83
4.2658	1990.75
4.29042	1992.64
4.31519	1994.5
4.3401	1996.31
4.36516	1998.1
4.39036	1999.85
4.4157	2001.57
4.4412	2003.26
4.46684	2004.91
4.49262	2006.52
4.51856	2008.11
4.54465	2009.66
4.57088	2011.17
4.59727	2012.65
4.62381	2014.1
4.6505	2015.51
4.67735	2016.89
4.70435	2018.24
4.73151	2019.55
4.75883	2020.82
4.7863	2022.07
4.81393	2023.28
4.84172	2024.45
4.86968	2025.6
4.89779	2026.7
4.92606	2027.78
4.9545	2028.82
4.9831	2029.83
5.01187	2030.8
5.04081	2031.74
5.06991	2032.64
5.09918	2033.52
5.12861	2034.35
5.15822	2035.16
5.188	2035.93
5.21795	2036.67
5.24807	2037.37
5.27837	2038.05
5.30884	2038.69
5.33949	2039.29
5.37032	2039.87
5.40132	2040.41
5.4325	2040.91
5.46387	2041.39
5.49541	2041.83
5.52713	2042.24
5.55904	2042.62
5.59114	2042.96
5.62341	2043.28
5.65588	2043.56
5.68853	2043.81
5.72137	2044.03
5.7544	2044.21
5.78762	2044.36
5.82103	2044.49
5.85464	2044.58
5.88844	2044.64
5.92243	2044.67
5.95662	2044.67
5.99101	2044.64
6.0256	2044.57
6.06038	2044.48
6.09537	2044.36
6.13056	2043.6
6.16595	2043.42
6.20155	2043.22
6.23735	2042.98
6.27336	2042.72
6.30957	2042.42
6.346	2042.1
6.38263	2041.75
6.41948	2041.37
6.45654	2040.96
6.49382	2040.52
6.53131	2040.05
6.56901	2039.56
6.60693	2038.29
6.64508	2037.75
6.68344	2037.18
6.72202	2036.59
6.76083	2035.96
6.79986	2035.31
6.83912	2034.63
6.8786	2033.93
6.91831	2033.2
6.95825	2032.44
6.99842	2031.66
7.03882	2030.84
7.07946	2030.01
7.12033	2029.15
7.16143	2028.26
7.20278	2027.35
7.24436	2026.41
7.28618	2025.45
7.32825	2024.47
7.37055	2023.45
7.4131	2022.42
7.4559	2021.36
7.49894	2020.27
7.54223	2019.17
7.58578	2018.04
7.62957	2016.89
7.67361	2015.71
7.71792	2013.62
7.76247	2012.41
7.80728	2011.18
7.85236	2009.93
7.89769	2008.65
7.94328	2007.36
7.98914	2006.04
8.03526	2004.7
8.08165	2003.34
8.12831	2000.9
8.17523	1999.51
8.22243	1998.1
8.2699	1996.67
8.31764	1995.22
8.36566	1993.76
8.41395	1992.27
8.46253	1990.76
8.51138	1989.24
8.56052	1987.69
8.60994	1986.13
8.65964	1984.55
8.70964	1982.94
8.75992	1981.33
8.81049	1979.69
8.86135	1978.04
8.91251	1976.37
8.96396	1974.68
9.01571	1972.98
9.06776	1971.25
9.12011	1969.52
9.17276	1966.52
9.22571	1964.77
9.27897	1963
9.33254	1961.21
9.38642	1959.41
9.44061	1957.6
9.49511	1955.76
9.54993	1953.92
9.60506	1952.06
9.66051	1950.19
9.71628	1948.3
9.77237	1946.4
9.82879	1944.48
9.88553	1942.55
9.9426	1940.61
10	1938.65
10.0577	1936.68
10.1158	1934.7
10.1742	1932.71
10.2329	1930.71
10.292	1928.69
10.3514	1926.66
10.4112	1924.62
10.4713	1922.57
10.5317	1920.5
10.5925	1918.43
10.6537	1916.35
10.7152	1914.25
10.7771	1912.15
10.8393	1910.03
10.9018	1907.9
10.9648	1905.77
11.0281	1903.62
11.0917	1901.47
11.1558	1899.3
11.2202	1897.13
11.285	1894.95
11.3501	1892.76
11.4156	1890.56
11.4815	1888.36
11.5478	1886.14
11.6145	1883.92
11.6815	1881.69
11.749	1879.45
11.8168	1877.2
11.885	1874.95
11.9536	1872.69
12.0226	1870.42
12.0921	1868.15
12.1619	1865.87
12.2321	1863.58
12.3027	1861.28
12.3737	1858.99
12.4451	1856.68
12.517	1854.36
12.5893	1852.05
12.6619	1849.72
12.735	1847.4
12.8086	1845.07
12.8825	1842.72
12.9569	1840.38
13.0317	1838.03
13.1069	1835.68
13.1826	1833.32
13.2587	1830.96
13.3352	1828.59
13.4122	1826.22
13.4896	1823.85
13.5675	1821.47
13.6458	1819.09
13.7246	1816.7
13.8038	1814.31
13.8835	1811.91
13.9637	1809.52
14.0443	1807.12
14.1254	1804.71
14.2069	1802.3
14.2889	1799.89
14.3714	1797.48
14.4544	1795.06
14.5378	1792.65
14.6218	1790.23
14.7062	1787.8
14.7911	1785.38
14.8765	1782.95
14.9624	1780.52
15.0487	1778.09
15.1356	1775.65
15.223	1773.22
15.3109	1770.78
15.3993	1768.34
15.4882	1765.9
15.5776	1763.46
15.6675	1761.01
15.758	1758.57
15.8489	1756.12
15.9404	1753.67
16.0325	1751.22
16.125	1748.77
16.2181	1746.32
16.3117	1743.86
16.4059	1741.4
16.5006	1738.95
16.5959	1736.49
16.6917	1734.04
16.788	1731.58
16.885	1729.12
16.9824	1726.66
17.0805	1724.2
17.1791	1721.74
17.2783	1719.28
17.378	1716.81
17.4783	1714.35
17.5792	1711.89
17.6807	1709.43
17.7828	1706.96
17.8855	1704.5
17.9887	1702.03
18.0926	1699.57
18.197	1697.1
18.3021	1694.64
18.4077	1692.18
18.514	1689.71
18.6209	1687.25
18.7284	1684.78
18.8365	1682.32
18.9452	1679.85
19.0546	1677.39
19.1646	1674.92
19.2752	1672.45
19.3865	1669.99
19.4984	1667.52
19.611	1665.06
19.7242	1662.59
19.8381	1660.13
19.9526	1657.67
20.0678	1655.2
20.1837	1652.74
20.3002	1650.27
20.4174	1647.81
20.5353	1645.35
20.6538	1642.88
20.773	1640.42
20.893	1637.95
21.0136	1635.49
21.1349	1633.03
21.2569	1630.57
21.3796	1628.1
21.503	1625.64
21.6272	1623.18
21.752	1620.72
21.8776	1618.26
22.0039	1615.8
22.1309	1613.34
22.2587	1610.87
22.3872	1608.41
22.5165	1605.95
22.6464	1603.49
22.7772	1601.03
22.9087	1598.57
23.0409	1596.12
23.1739	1593.65
23.3077	1591.19
23.4423	1588.74
23.5776	1586.28
23.7137	1583.82
23.8506	1581.36
23.9883	1578.9
24.1268	1576.44
24.2661	1573.98
24.4062	1571.53
24.5471	1569.07
24.6888	1566.61
24.8313	1564.15
24.9747	1561.69
25.1189	1559.23
25.2639	1556.78
25.4097	1554.32
25.5564	1551.86
25.704	1549.4
25.8523	1546.94
26.0016	1544.48
26.1517	1542.03
26.3027	1539.57
26.4545	1537.11
26.6073	1534.65
26.7609	1532.19
26.9153	1529.73
27.0707	1527.27
27.227	1524.81
27.3842	1522.35
27.5423	1519.89
27.7013	1517.43
27.8612	1514.97
28.0221	1512.51
28.1838	1510.04
28.3465	1507.58
28.5102	1505.12
28.6748	1502.66
28.8403	1500.19
29.0068	1497.73
29.1743	1495.27
29.3427	1492.8
29.5121	1490.33
29.6825	1487.87
29.8538	1485.41
30.0262	1482.94
30.1995	1480.47
30.3739	1478.01
30.5492	1475.53
30.7256	1473.07
30.903	1470.6
31.0814	1468.13
31.2608	1465.66
31.4413	1463.18
31.6228	1460.71
31.8053	1458.24
31.989	1455.76
32.1736	1453.29
32.3594	1450.81
32.5462	1448.34
32.7341	1445.86
32.923	1443.38
33.1131	1440.91
33.3043	1438.43
33.4965	1435.94
33.6899	1433.46
33.8844	1430.98
34.08	1428.5
34.2768	1426.01
34.4747	1423.53
34.6737	1421.04
34.8739	1418.56
35.0752	1416.07
35.2777	1413.58
35.4813	1411.08
35.6862	1408.6
35.8922	1406.1
36.0994	1403.61
36.3078	1401.11
36.5174	1398.62
36.7282	1396.12
36.9403	1393.62
37.1535	1391.12
37.368	1388.62
37.5837	1386.12
37.8007	1383.6
38.0189	1381.06
38.2384	1378.52
38.4592	1375.97
38.6812	1373.43
38.9045	1370.88
39.1291	1368.33
39.355	1365.79
39.5822	1363.24
39.8107	1360.65
40.0405	1358.04
40.2717	1355.43
40.5042	1352.82
40.738	1350.2
40.9732	1347.59
41.2098	1344.97
41.4477	1342.37
41.6869	1339.75
41.9276	1337.13
42.1697	1334.54
42.4131	1331.91
42.658	1329.3
42.9042	1326.67
43.1519	1324.05
43.401	1321.42
43.6516	1318.79
43.9036	1316.16
44.157	1313.53
44.412	1310.93
44.6684	1308.31
44.9262	1305.67
45.1856	1303.03
45.4465	1300.4
45.7088	1297.74
45.9727	1295.02
46.2381	1292.41
46.505	1289.69
46.7735	1287.08
47.0435	1284.36
47.3151	1281.3
47.5883	1278.58
47.863	1275.79
48.1393	1272.95
48.4172	1270.12
48.6968	1267.4
48.9779	1264.57
49.2606	1261.73
49.545	1258.91
49.831	1255.67
50.1187	1252.82
50.4081	1250.02
50.6991	1247.17
50.9918	1244.36
51.2861	1241.52
51.5822	1238.69
51.88	1235.84
52.1795	1233
52.4807	1230.15
52.7837	1227.31
53.0884	1224.5
53.3949	1221.66
53.7032	1218.77
54.0132	1215.79
54.325	1212.81
54.6387	1209.83
54.9541	1206.85
55.2713	1203.87
55.5904	1200.9
55.9114	1198.08
56.2341	1195.21
56.5588	1192.23
56.8853	1189.25
57.2137	1185.81
57.544	1182.82
57.8762	1179.89
58.2103	1177.07
58.5464	1174.08
58.8844	1171.1
59.2243	1168.24
59.5662	1165.26
59.9101	1161.78
60.256	1158.84
60.6038	1155.87
60.9537	1152.88
61.3056	1149.9
61.6595	1146.91
62.0155	1143.93
62.3735	1141.07
62.7336	1138.09
63.0957	1135.11
63.46	1132.13
63.8263	1129.16
64.1948	1126.18
64.5654	1123.2
64.9382	1120.23
65.3131	1117.25
65.6901	1114.46
66.0693	1111.48
66.4508	1108.52
66.8344	1105.56
67.2202	1101.99
67.6083	1099.03
67.9986	1096.26
68.3912	1093.29
68.786	1090.32
69.1831	1087.36
69.5825	1084.4
69.9842	1081.44
70.3882	1078.5
70.7946	1075.56
71.2033	1072.78
71.6143	1069.84
72.0278	1066.9
72.4436	1063.96
72.8618	1061.02
73.2825	1058.09
73.7055	1055.15
74.131	1052.22
74.559	1049.28
74.9894	1046.35
75.4223	1043.41
75.8578	1040.49
76.2957	1037.55
76.7361	1034.63
77.1792	1031.74
77.6247	1028.82
78.0728	1025.89
78.5236	1022.97
78.9769	1020.05
79.4328	1017.13
79.8914	1014.39
80.3526	1011.47
80.8165	1008.59
81.2831	1005.74
81.7523	1002.85
82.2243	999.952
82.699	997.061
83.1764	994.172
83.6566	991.283
84.1395	988.422
84.6253	985.649
85.1138	982.787
85.6052	979.928
86.0994	977.071
86.5964	974.217
87.0964	971.363
87.5992	968.511
88.1049	965.662
88.6135	962.815
89.1251	960.188
89.6396	957.342
90.1571	954.5
90.6776	951.667
91.2011	948.828
91.7276	945.991
92.2571	943.156
92.7897	940.324
93.3254	937.545
93.8642	934.716
94.4061	931.903
94.9511	929.109
95.4993	926.316
96.0506	923.522
96.6051	920.734
97.1628	917.945
97.7237	915.218
98.2879	912.435
98.8553	909.655
99.426	906.876
100	904.101
100.577	901.325
101.158	898.557
101.742	895.789
102.329	893.146
102.92	890.382
103.514	887.621
104.112	884.865
104.713	882.111
105.317	879.36
105.925	876.61
106.537	873.867
107.152	871.267
107.771	868.527
108.393	865.812
109.018	863.078
109.648	860.419
110.281	857.689
110.917	854.965
111.558	852.245
112.202	849.527
112.85	846.931
113.501	844.22
114.156	841.54
114.815	838.835
115.478	836.136
116.145	833.437
116.815	830.744
117.49	828.054
118.168	825.37
118.85	822.687
119.536	820.012
120.226	817.498
120.921	814.825
121.619	812.157
122.321	809.495
123.027	806.834
123.737	804.179
124.451	801.53
125.17	798.882
125.893	796.239
126.619	793.602
127.35	790.967
128.086	788.337
128.825	785.71
129.569	783.093
130.317	780.475
131.069	777.897
131.826	775.286
132.587	772.684
133.352	770.082
134.122	767.487
134.896	764.899
135.675	762.312
136.458	759.73
137.246	757.191
138.038	754.617
138.835	752.047
139.637	749.483
140.443	746.922
141.254	744.365
142.069	741.843
142.889	739.296
143.714	736.754
144.544	734.216
145.378	731.683
146.218	729.155
147.062	726.632
147.911	724.111
148.765	721.634
149.624	719.124
150.487	716.62
151.356	714.235
152.23	711.743
153.109	709.251
153.993	706.807
154.882	704.324
155.776	701.846
156.675	699.372
157.58	696.903
158.489	694.442
159.404	691.983
160.325	689.529
161.25	687.08
162.181	684.636
163.117	682.197
164.059	679.763
165.006	677.334
165.959	674.91
166.917	672.491
167.88	670.077
168.85	667.668
169.824	665.264
170.805	662.865
171.791	660.513
172.783	658.123
173.78	655.739
174.783	653.359
175.792	650.985
176.807	648.616
177.828	646.251
178.855	643.942
179.887	641.587
180.926	639.238
181.97	636.895
183.021	634.556
184.077	632.222
185.14	629.893
186.209	627.569
187.284	625.25
188.365	622.937
189.452	620.632
190.546	618.329
191.646	616.032
192.752	613.739
193.865	611.453
194.984	609.171
196.11	606.894
197.242	604.624
198.381	602.358
199.526	600.116
200.678	597.861
201.837	595.667
203.002	593.422
204.174	591.182
205.353	588.947
206.538	586.717
207.73	584.493
208.93	582.275
210.136	580.083
211.349	577.875
212.569	575.672
213.796	573.477
215.03	571.285
216.272	569.099
217.52	566.917
218.776	564.742
220.039	562.572
221.309	560.407
222.587	558.248
223.872	556.094
225.165	553.946
226.464	551.804
227.772	549.667
229.087	547.535
230.409	545.409
231.739	543.289
233.077	541.174
234.423	539.064
235.776	536.96
237.137	534.862
238.506	532.769
239.883	530.682
241.268	528.627
242.661	526.55
244.062	524.48
245.471	522.414
246.888	520.355
248.313	518.301
249.747	516.252
251.189	514.241
252.639	512.203
254.097	510.171
255.564	508.145
257.04	506.125
258.523	504.109
260.016	502.1
261.517	500.097
263.027	498.099
264.545	496.106
266.073	494.12
267.609	492.139
269.153	490.164
270.707	488.195
272.27	486.231
273.842	484.273
275.423	482.32
277.013	480.374
278.612	478.433
280.221	476.498
281.838	474.569
283.465	472.68
285.102	470.762
286.748	468.849
288.403	466.943
290.068	465.042
291.743	463.146
293.427	461.257
295.121	459.373
296.825	457.495
298.538	455.622
300.262	453.756
301.995	451.895
303.739	450.04
305.492	448.191
307.256	446.348
309.03	444.51
310.814	442.678
312.608	440.852
314.413	439.032
316.228	437.217
318.053	435.409
319.89	433.605
321.736	431.808
323.594	430.017
325.462	428.231
327.341	426.451
329.23	424.676
331.131	422.908
333.043	421.145
334.965	419.389
336.899	417.637
338.844	415.892
340.8	414.152
342.768	412.419
344.747	410.69
346.737	408.968
348.739	407.251
350.752	405.54
352.777	403.835
354.813	402.136
356.862	400.442
358.922	398.754
360.994	397.072
363.078	395.395
365.174	393.725
367.282	392.06
369.403	390.4
371.535	388.746
373.68	387.098
375.837	385.456
378.007	383.82
380.189	382.189
382.384	380.563
384.592	378.944
386.812	377.33
389.045	375.722
391.291	374.119
393.55	372.522
395.822	370.93
398.107	369.345
400.405	367.764
402.717	366.19
405.042	364.621
407.38	363.058
409.732	361.5
412.098	359.948
414.477	358.402
416.869	356.861
419.276	355.326
421.697	353.795
424.131	352.271
426.58	350.753
429.042	349.239
431.519	347.732
434.01	346.23
436.516	344.733
439.036	343.242
441.57	341.756
444.12	340.276
446.684	338.801
449.262	337.332
451.856	335.868
454.465	334.41
457.088	332.957
459.727	331.51
462.381	330.067
465.05	328.631
467.735	327.199
470.435	325.774
473.151	324.353
475.883	322.938
478.63	321.528
481.393	320.123
484.172	318.724
486.968	317.331
489.779	315.942
492.606	314.559
495.45	313.181
498.31	311.809
501.187	310.441
504.081	309.079
506.991	307.723
509.918	306.371
512.861	305.025
515.822	303.684
518.8	302.348
521.795	301.017
524.807	299.692
527.837	298.372
530.884	297.057
533.949	295.747
537.032	294.442
540.132	293.142
543.25	291.848
546.387	290.559
549.541	289.274
552.713	287.995
555.904	286.721
559.114	285.452
562.341	284.188
565.588	282.93
568.853	281.676
572.137	280.427
575.44	279.183
578.762	277.944
582.103	276.711
585.464	275.482
588.844	274.258
592.243	273.039
595.662	271.826
599.101	270.616
602.56	269.412
606.038	268.213
609.537	267.019
613.056	265.83
616.595	264.645
620.155	263.466
623.735	262.291
627.336	261.121
630.957	259.956
634.6	258.796
638.263	257.641
641.948	256.49
645.654	255.344
649.382	254.203
653.131	253.067
656.901	251.935
660.693	250.808
664.508	249.686
668.344	248.568
672.202	247.455
676.083	246.348
679.986	245.244
683.912	244.145
687.86	243.051
691.831	241.961
695.825	240.877
699.842	239.796
703.882	238.72
707.946	237.65
712.033	236.583
716.143	235.52
720.278	234.463
724.436	233.41
728.618	232.362
732.825	231.318
737.055	230.278
741.31	229.243
745.59	228.213
749.894	227.186
754.223	226.164
758.578	225.147
762.957	224.134
767.361	223.126
771.792	222.121
776.247	221.122
780.728	220.126
785.236	219.135
789.769	218.148
794.328	217.165
798.914	216.187
803.526	215.214
808.165	214.243
812.831	213.278
817.523	212.317
822.243	211.36
826.99	210.407
831.764	209.459
836.566	208.514
841.395	207.574
846.253	206.638
851.138	205.706
856.052	204.778
860.994	203.854
865.964	202.934
870.964	202.019
875.992	201.107
881.049	200.2
886.135	199.297
891.251	198.397
896.396	197.502
901.571	196.61
906.776	195.723
912.011	194.84
917.276	193.96
922.571	193.085
927.897	192.213
933.254	191.346
938.642	190.482
944.061	189.622
949.511	188.766
954.993	187.914
960.506	187.066
966.051	186.222
971.628	185.381
977.237	184.544
982.879	183.711
988.553	182.882
994.26	182.057
1000	181.235
1005.77	180.417
1011.58	179.603
1017.42	178.792
1023.29	177.986
1029.2	177.183
1035.14	176.383
1041.12	175.588
1047.13	174.795
1053.17	174.007
1059.25	173.222
1065.37	172.441
1071.52	171.663
1077.71	170.889
1083.93	170.119
1090.18	169.352
1096.48	168.588
1102.81	167.828
1109.17	167.072
1115.58	166.319
1122.02	165.57
1128.5	164.824
1135.01	164.082
1141.56	163.343
1148.15	162.607
1154.78	161.875
1161.45	161.146
1168.15	160.421
1174.9	159.699
1181.68	158.98
1188.5	158.265
1195.36	157.553
1202.26	156.845
1209.21	156.14
1216.19	155.438
1223.21	154.739
1230.27	154.044
1237.37	153.351
1244.51	152.663
1251.7	151.977
1258.93	151.294
1266.19	150.616
1273.5	149.94
1280.86	149.267
1288.25	148.597
1295.69	147.931
1303.17	147.267
1310.69	146.607
1318.26	145.95
1325.87	145.296
1333.52	144.646
1341.22	143.998
1348.96	143.353
1356.75	142.712
1364.58	142.073
1372.46	141.437
1380.38	140.805
1388.35	140.176
1396.37	139.549
1404.43	138.925
1412.54	138.305
1420.69	137.688
1428.89	137.073
1437.14	136.461
1445.44	135.853
1453.78	135.247
1462.18	134.644
1470.62	134.044
1479.11	133.447
1487.65	132.853
1496.24	132.262
1504.87	131.673
1513.56	131.087
1522.3	130.504
1531.09	129.924
1539.93	129.347
1548.82	128.772
1557.76	128.201
1566.75	127.632
1575.8	127.065
1584.89	126.502
1594.04	125.941
1603.25	125.383
1612.5	124.828
1621.81	124.275
1631.17	123.725
1640.59	123.178
1650.06	122.633
1659.59	122.091
1669.17	121.552
1678.8	121.015
1688.5	120.481
1698.24	119.95
1708.05	119.421
1717.91	118.894
1727.83	118.371
1737.8	117.849
1747.83	117.33
1757.92	116.814
1768.07	116.301
1778.28	115.79
1788.55	115.281
1798.87	114.775
1809.26	114.272
1819.7	113.77
1830.21	113.272
1840.77	112.775
1851.4	112.282
1862.09	111.79
1872.84	111.301
1883.65	110.815
1894.52	110.331
1905.46	109.849
1916.46	109.369
1927.52	108.893
1938.65	108.418
1949.84	107.945
1961.1	107.475
1972.42	107.008
1983.81	106.542
1995.26	106.079
2006.78	105.618
2018.37	105.16
2030.02	104.704
2041.74	104.25
2053.53	103.798
2065.38	103.349
2077.3	102.901
2089.3	102.456
2101.36	102.014
2113.49	101.573
2125.69	101.134
2137.96	100.698
2150.3	100.264
2162.72	99.8323
2175.2	99.4025
2187.76	98.9751
2200.39	98.5494
2213.09	98.1261
2225.87	97.705
2238.72	97.2858
2251.65	96.8688
2264.64	96.4539
2277.72	96.0409
2290.87	95.6301
2304.09	95.2217
2317.39	94.8147
2330.77	94.4103
2344.23	94.0078
2357.76	93.607
2371.37	93.2083
2385.06	92.8118
2398.83	92.4173
2412.68	92.0246
2426.61	91.6339
2440.62	91.2453
2454.71	90.8588
2468.88	90.4741
2483.13	90.0913
2497.47	89.7103
2511.89	89.3313
2526.39	88.9544
2540.97	88.5793
2555.64	88.2061
2570.4	87.8346
2585.23	87.4651
2600.16	87.0975
2615.17	86.7319
2630.27	86.3679
2645.45	86.006
2660.73	85.6457
2676.09	85.2873
2691.53	84.9308
2707.07	84.5762
2722.7	84.2232
2738.42	83.872
2754.23	83.5228
2770.13	83.1752
2786.12	82.8294
2802.21	82.4854
2818.38	82.1431
2834.65	81.8025
2851.02	81.4638
2867.48	81.1266
2884.03	80.7912
2900.68	80.4577
2917.43	80.1258
2934.27	79.7956
2951.21	79.467
2968.25	79.1401
2985.38	78.815
3002.62	78.4914
3019.95	78.1696
3037.39	77.8495
3054.92	77.5309
3072.56	77.2139
3090.3	76.8986
3108.14	76.5851
3126.08	76.273
3144.13	75.9625
3162.28	75.6536
3180.53	75.3465
3198.9	75.0409
3217.36	74.7367
3235.94	74.4342
3254.62	74.1332
3273.41	73.8337
3292.3	73.5359
3311.31	73.2397
3330.43	72.9448
3349.65	72.6516
3368.99	72.36
3388.44	72.0698
3408	71.7811
3427.68	71.4938
3447.47	71.2081
3467.37	70.9239
3487.39	70.6411
3507.52	70.3597
3527.77	70.0799
3548.13	69.8015
3568.62	69.5246
3589.22	69.2492
3609.94	68.9752
3630.78	68.7026
3651.74	68.4314
3672.82	68.1616
3694.03	67.8933
3715.35	67.6262
3736.8	67.3607
3758.37	67.0965
3780.07	66.8337
3801.89	66.5723
3823.84	66.3124
3845.92	66.0536
3868.12	65.7963
3890.45	65.5403
3912.91	65.2857
3935.5	65.0324
3958.22	64.7805
3981.07	64.5299
4004.05	64.2806
4027.17	64.0326
4050.42	63.7859
4073.8	63.5406
4097.32	63.2965
4120.98	63.0537
4144.77	62.8122
4168.69	62.572
4192.76	62.333
4216.97	62.0953
4241.31	61.8589
4265.8	61.6238
4290.42	61.3898
4315.19	61.1571
4340.1	60.9257
4365.16	60.6955
4390.36	60.4665
4415.7	60.2387
4441.2	60.0122
4466.84	59.7868
4492.62	59.5627
4518.56	59.3397
4544.65	59.118
4570.88	58.8974
4597.27	58.678
4623.81	58.4598
4650.5	58.2427
4677.35	58.0268
4704.35	57.8121
4731.51	57.5985
4758.83	57.3861
4786.3	57.1748
4813.93	56.9647
4841.72	56.7557
4869.68	56.5478
4897.79	56.341
4926.06	56.1353
4954.5	55.9308
4983.1	55.7274
5011.87	55.525
5040.81	55.3238
5069.91	55.1236
5099.18	54.9246
5128.61	54.7265
5158.22	54.5297
5188	54.3338
5217.95	54.139
5248.07	53.9453
5278.37	53.7526
5308.84	53.561
5339.49	53.3704
5370.32	53.1808
5401.32	52.9923
5432.5	52.8049
5463.87	52.6184
5495.41	52.433
5527.13	52.2486
5559.04	52.0652
5591.14	51.8828
5623.41	51.7014
5655.88	51.521
5688.53	51.3416
5721.37	51.1632
5754.4	50.9857
5787.62	50.8093
5821.03	50.6338
5854.64	50.4592
5888.44	50.2857
5922.43	50.1131
5956.62	49.9415
5991.01	49.7708
6025.6	49.601
6060.38	49.4322
6095.37	49.2644
6130.56	49.0974
6165.95	48.9314
6201.55	48.7664
6237.35	48.6022
6273.36	48.439
6309.57	48.2767
6346	48.1152
6382.63	47.9547
6419.48	47.7951
6456.54	47.6364
6493.82	47.4785
6531.31	47.3216
6569.01	47.1655
6606.93	47.0104
6645.08	46.8561
6683.44	46.7026
6722.02	46.55
6760.83	46.3983
6799.86	46.2475
6839.12	46.0975
6878.6	45.9483
6918.31	45.8
6958.25	45.6526
6998.42	45.5059
7038.82	45.3601
7079.46	45.2152
7120.33	45.071
7161.43	44.9277
7202.78	44.7852
7244.36	44.6436
7286.18	44.5027
7328.25	44.3626
7370.55	44.2234
7413.1	44.0849
7455.9	43.9473
7498.94	43.8104
7542.23	43.6743
7585.78	43.5391
7629.57	43.4045
7673.61	43.2708
7717.92	43.1379
7762.47	43.0057
7807.28	42.8743
7852.36	42.7436
7897.69	42.6137
7943.28	42.4846
7989.14	42.3562
8035.26	42.2286
8081.65	42.1017
8128.31	41.9755
8175.23	41.8501
8222.43	41.7255
8269.9	41.6015
8317.64	41.4783
8365.66	41.3558
8413.95	41.2341
8462.53	41.113
8511.38	40.9927
8560.52	40.8731
8609.94	40.7542
8659.64	40.636
8709.64	40.5185
8759.92	40.4017
8810.49	40.2855
8861.35	40.1701
8912.51	40.0554
8963.96	39.9414
9015.71	39.8281
9067.76	39.7154
9120.11	39.6034
9172.76	39.4921
9225.71	39.3814
9278.97	39.2714
9332.54	39.1621
9386.42	39.0535
9440.61	38.9455
9495.11	38.8381
9549.93	38.7314
9605.06	38.6254
9660.51	38.52
9716.28	38.4153
9772.37	38.3112
9828.79	38.2077
9885.53	38.1049
9942.6	38.0026
10000	37.9011
10057.7	37.8001
10115.8	37.6998
10174.2	37.6001
10232.9	37.501
10292	37.4025
10351.4	37.3047
10411.2	37.2074
10471.3	37.1108
10531.7	37.0147
10592.5	36.9193
10653.7	36.8244
10715.2	36.7302
10777.1	36.6365
10839.3	36.5435
10901.8	36.451
10964.8	36.3591
11028.1	36.2678
11091.7	36.177
11155.8	36.0869
11220.2	35.9973
11285	35.9083
11350.1	35.8198
11415.6	35.7319
11481.5	35.6446
11547.8	35.5579
11614.5	35.4717
11681.5	35.386
11749	35.3009
11816.8	35.2164
11885	35.1324
11953.6	35.049
12022.6	34.9661
12092.1	34.8837
12161.9	34.8019
12232.1	34.7206
12302.7	34.6399
12373.7	34.5596
12445.1	34.4799
12517	34.4008
12589.3	34.3221
12661.9	34.244
12735	34.1664
12808.6	34.0893
12882.5	34.0127
12956.9	33.9366
13031.7	33.8611
13106.9	33.7861
13182.6	33.7115
13258.7	33.6375
13335.2	33.564
13412.2	33.4909
13489.6	33.4184
13567.5	33.3463
13645.8	33.2747
13724.6	33.2037
13803.8	33.1331
13883.5	33.063
13963.7	32.9934
14044.3	32.9242
14125.4	32.8556
14206.9	32.7874
14288.9	32.7197
14371.4	32.6524
14454.4	32.5857
14537.8	32.5194
14621.8	32.4535
14706.2	32.3882
14791.1	32.3233
14876.5	32.2588
14962.4	32.1948
15048.7	32.1313
15135.6	32.0682
15223	32.0055
15310.9	31.9433
15399.3	31.8816
15488.2	31.8203
15577.6	31.7595
15667.5	31.699
15758	31.6391
15848.9	31.5795
15940.4	31.5204
16032.5	31.4617
16125	31.4035
16218.1	31.3457
16311.7	31.2883
16405.9	31.2314
16500.6	31.1748
16595.9	31.1187
16691.7	31.063
16788	31.0077
16885	30.9529
16982.4	30.8984
17080.5	30.8444
17179.1	30.7907
17278.3	30.7375
17378	30.6847
17478.3	30.6323
17579.2	30.5803
17680.7	30.5287
17782.8	30.4775
17885.5	30.4267
17988.7	30.3762
18092.6	30.3262
18197	30.2766
18302.1	30.2273
18407.7	30.1782
18514	30.1293
18620.9	30.0808
18728.4	30.0327
18836.5	29.985
18945.2	29.9377
19054.6	29.8907
19164.6	29.8441
19275.2	29.7979
19386.5	29.7516
19498.4	29.7056
19611	29.6601
19724.2	29.6148
19838.1	29.5699
19952.6	29.5254
20067.8	29.4813
20183.7	29.4375
20300.2	29.394
20417.4	29.3509
20535.3	29.3082
20653.8	29.2659
20773	29.2239
20893	29.1822
21013.6	29.1408
21134.9	29.0999
21256.9	29.0592
21379.6	29.0189
21503	28.979
21627.2	28.9394
21752	28.9001
21877.6	28.8612
22003.9	28.8226
22130.9	28.7844
22258.7	28.7461
22387.2	28.7079
22516.5	28.67
22646.4	28.6324
22777.2	28.5952
22908.7	28.5583
23040.9	28.5218
23173.9	28.4854
23307.7	28.4487
23442.3	28.4124
23577.6	28.3764
23713.7	28.3407
23850.6	28.3053
23988.3	28.2702
24126.8	28.2354
24266.1	28.201
24406.2	28.1668
24547.1	28.1329
24688.8	28.0994
24831.3	28.0661
24974.7	28.0332
25118.9	28.0006
25263.9	27.9682
25409.7	27.9361
25556.4	27.9044
25704	27.8729
25852.3	27.8418
26001.6	27.8109
26151.7	27.7796
26302.7	27.7485
26454.5	27.7176
26607.3	27.687
26760.9	27.6568
26915.3	27.6267
27070.7	27.597
27227	27.5675
27384.2	27.5383
27542.3	27.5094
27701.3	27.4808
27861.2	27.4524
28022.1	27.4244
28183.8	27.3965
28346.5	27.369
28510.2	27.3417
28674.8	27.3146
28840.3	27.2879
29006.8	27.2614
29174.3	27.2352
29342.7	27.2092
29512.1	27.1835
29682.5	27.1581
29853.8	27.1328
30026.2	27.1079
30199.5	27.0832
30373.9	27.0588
30549.2	27.0346
30725.6	27.0107
30903	26.987
31081.4	26.9635
31260.8	26.9404
31441.3	26.9174
31622.8	26.8947
31805.3	26.8722
31989	26.85
32173.6	26.8281
32359.4	26.8063
32546.2	26.7848
32734.1	26.7636
32923	26.7425
33113.1	26.7217
33304.3	26.7012
33496.5	26.6808
33689.9	26.6608
33884.4	26.6409
34080	26.6213
34276.8	26.6018
34474.7	26.5826
34673.7	26.5637
34873.9	26.5449
35075.2	26.5264
35277.7	26.5081
35481.3	26.49
35686.2	26.4722
35892.2	26.4545
36099.4	26.4371
36307.8	26.4199
36517.4	26.4029
36728.2	26.3861
36940.3	26.3695
37153.5	26.3532
37368	26.337
37583.7	26.3211
37800.7	26.3054
38018.9	26.2898
38238.4	26.2745
38459.2	26.2594
38681.2	26.2445
38904.5	26.2297
39129.1	26.2152
39355	26.2009
39582.2	26.1868
39810.7	26.1729
40040.5	26.1592
40271.7	26.1457
40504.2	26.1323
40738	26.1192
40973.2	26.1062
41209.8	26.0935
41447.7	26.0809
41686.9	26.0685
41927.6	26.0564
42169.7	26.0444
42413.1	26.0325
42658	26.0209
42904.2	26.0095
43151.9	25.9982
43401	25.9871
43651.6	25.9762
43903.6	25.9655
44157	25.9549
44412	25.9446
44668.4	25.9344
44926.2	25.9244
45185.6	25.9145
45446.5	25.9049
45708.8	25.8954
45972.7	25.8861
46238.1	25.8769
46505	25.8679
46773.5	25.8591
47043.5	25.8505
47315.1	25.842
47588.3	25.8337
47863	25.8256
48139.3	25.8176
48417.2	25.8098
48696.8	25.8021
48977.9	25.7946
49260.6	25.7873
49545	25.7801
49831	25.7731
50118.7	25.7662
50408.1	25.7595
50699.1	25.753
50991.8	25.7466
51286.1	25.7404
51582.2	25.7343
51880	25.7283
52179.5	25.7226
52480.7	25.7169
52783.7	25.7114
53088.4	25.7061
53394.9	25.7009
53703.2	25.6959
54013.2	25.691
54325	25.6863
54638.7	25.6817
54954.1	25.6772
55271.3	25.6729
55590.4	25.6687
55911.4	25.6647
56234.1	25.6608
56558.8	25.657
56885.3	25.6534
57213.7	25.6499
57544	25.6465
57876.2	25.6433
58210.3	25.6403
58546.4	25.6373
58884.4	25.6345
59224.3	25.6318
59566.2	25.6293
59910.1	25.6269
60256	25.6246
60603.8	25.6224
60953.7	25.6204
61305.6	25.6185
61659.5	25.6167
62015.5	25.6151
62373.5	25.6135
62733.6	25.6121
63095.7	25.6109
63460	25.6097
63826.3	25.6087
64194.8	25.6077
64565.4	25.607
64938.2	25.6063
65313.1	25.6057
65690.1	25.6053
66069.3	25.605
66450.8	25.6048
66834.4	25.6047
67220.2	25.6047
67608.3	25.6049
67998.6	25.6051
68391.2	25.6055
68786	25.6059
69183.1	25.6065
69582.5	25.6072
69984.2	25.608
70388.2	25.6089
70794.6	25.61
71203.3	25.6111
71614.3	25.6123
72027.8	25.6137
72443.6	25.6151
72861.8	25.6167
73282.5	25.6184
73705.5	25.6201
74131	25.622
74559	25.6239
74989.4	25.626
75422.3	25.6282
75857.8	25.6305
76295.7	25.6328
76736.1	25.6353
77179.2	25.6379
77624.7	25.6405
78072.8	25.6433
78523.6	25.6461
78976.9	25.6491
79432.8	25.6521
79891.4	25.6552
80352.6	25.6584
80816.5	25.6618
81283.1	25.6652
81752.3	25.6687
82224.3	25.6723
82699	25.676
83176.4	25.6797
83656.6	25.6836
84139.5	25.6875
84625.3	25.6915
85113.8	25.6957
85605.2	25.6999
86099.4	25.7042
86596.4	25.7085
87096.4	25.713
87599.2	25.7175
88104.9	25.7222
88613.5	25.7269
89125.1	25.7316
89639.6	25.7365
90157.1	25.7415
90677.6	25.7465
91201.1	25.7516
91727.6	25.7568
92257.1	25.7621
92789.7	25.7674
93325.4	25.7728
93864.2	25.7783
94406.1	25.7839
94951.1	25.7896
95499.3	25.7953
96050.6	25.8011
96605.1	25.8069
97162.8	25.8129
97723.7	25.8189
98287.9	25.825
98855.3	25.8311
99426	25.8374
100000	25.8437
100577	25.8501
101158	25.8565
101742	25.863
102329	25.8696
102920	25.8762
103514	25.8829
104112	25.8897
104713	25.8965
105317	25.9034
105925	25.9104
106537	25.9174
107152	25.9246
107771	25.9317
108393	25.9389
109018	25.9462
109648	25.9536
110281	25.961
110917	25.9684
111558	25.976
112202	25.9836
112850	25.9912
113501	25.9989
114156	26.0067
114815	26.0145
115478	26.0224
116145	26.0303
116815	26.0384
117490	26.0464
118168	26.0545
118850	26.0627
119536	26.0709
120226	26.0792
120921	26.0875
121619	26.0959
122321	26.1043
123027	26.1128
123737	26.1213
124451	26.1299
125170	26.1386
125893	26.1472
126619	26.156
127350	26.1648
128086	26.1736
128825	26.1825
129569	26.1915
130317	26.2004
131069	26.2095
131826	26.2185
132587	26.2277
133352	26.2368
134122	26.2461
134896	26.2554
135675	26.2647
136458	26.274
137246	26.2834
138038	26.2928
138835	26.3023
139637	26.3119
140443	26.3215
141254	26.3311
142069	26.3407
142889	26.3504
143714	26.3602
144544	26.3699
145378	26.3797
146218	26.3896
147062	26.3995
147911	26.4095
148765	26.4195
149624	26.4295
150487	26.4395
151356	26.4496
152230	26.4598
153109	26.4699
153993	26.4801
154882	26.4904
155776	26.5007
156675	26.511
157580	26.5214
158489	26.5317
159404	26.5422
160325	26.5526
161250	26.5631
162181	26.5736
163117	26.5842
164059	26.5948
165006	26.6054
165959	26.6161
166917	26.6268
167880	26.6375
168850	26.6482
169824	26.659
170805	26.6698
171791	26.6807
172783	26.6916
173780	26.7025
174783	26.7134
175792	26.7243
176807	26.7354
177828	26.7464
178855	26.7575
179887	26.7685
180926	26.7796
181970	26.7908
183021	26.802
184077	26.8131
185140	26.8243
186209	26.8356
187284	26.8469
188365	26.8582
189452	26.8695
190546	26.8808
191646	26.8922
192752	26.9036
193865	26.915
194984	26.9265
196110	26.938
197242	26.9495
198381	26.961
199526	26.9725
200678	26.9841
201837	26.9957
203002	27.0073
204174	27.0189
205353	27.0306
206538	27.0423
207730	27.054
208930	27.0657
210136	27.0774
211349	27.0892
212569	27.101
213796	27.1128
215030	27.1246
216272	27.1365
217520	27.1484
218776	27.1602
220039	27.1721
221309	27.1841
222587	27.196
223872	27.2079
225165	27.2199
226464	27.2319
227772	27.2439
229087	27.256
230409	27.268
231739	27.2801
233077	27.2922
234423	27.3043
235776	27.3164
237137	27.3285
238506	27.3407
239883	27.3529
241268	27.365
242661	27.3773
244062	27.3895
245471	27.4017
246888	27.4139
248313	27.4262
249747	27.4385
251189	27.4508
252639	27.4631
254097	27.4754
255564	27.4877
257040	27.5001
258523	27.5124
260016	27.5248
261517	27.5372
263027	27.5496
264545	27.562
266073	27.5744
267609	27.5868
269153	27.5993
270707	27.6118
272270	27.6242
273842	27.6367
275423	27.6492
277013	27.6617
278612	27.6742
280221	27.6868
281838	27.6993
283465	27.7119
285102	27.7244
286748	27.737
288403	27.7496
290068	27.7622
291743	27.7748
293427	27.7874
295121	27.8001
296825	27.8127
298538	27.8253
300262	27.838
301995	27.8506
303739	27.8633
305492	27.876
307256	27.8887
309030	27.9014
310814	27.9141
312608	27.9268
314413	27.9395
316228	27.9523
318053	27.965
319890	27.9777
321736	27.9905
323594	28.0032
325462	28.016
327341	28.0288
329230	28.0416
331131	28.0544
333043	28.0672
334965	28.08
336899	28.0928
338844	28.1056
340800	28.1184
342768	28.1312
344747	28.1441
346737	28.157
348739	28.1698
350752	28.1826
352777	28.1955
354813	28.2084
356862	28.2212
358922	28.2341
360994	28.247
363078	28.2599
365174	28.2727
367282	28.2856
369403	28.2986
371535	28.3115
373680	28.3244
375837	28.3373
378007	28.3502
380189	28.3631
382384	28.3761
384592	28.389
386812	28.4019
389045	28.4149
391291	28.4278
393550	28.4408
395822	28.4537
398107	28.4666
400405	28.4796
402717	28.4926
405042	28.5055
407380	28.5185
409732	28.5315
412098	28.5445
414477	28.5574
416869	28.5704
419276	28.5834
421697	28.5964
424131	28.6093
426580	28.6223
429042	28.6353
431519	28.6483
434010	28.6613
436516	28.6743
439036	28.6873
441570	28.7003
444120	28.7133
446684	28.7263
449262	28.7393
451856	28.7523
454465	28.7653
457088	28.7783
459727	28.7914
462381	28.8044
465050	28.8174
467735	28.8304
470435	28.8434
473151	28.8565
475883	28.8695
478630	28.8825
481393	28.8955
484172	28.9085
486968	28.9215
489779	28.9346
492606	28.9476
495450	28.9606
498310	28.9737
501187	28.9866
504081	28.9997
506991	29.0127
509918	29.0257
512861	29.0387
515822	29.0518
518800	29.0648
521795	29.0778
524807	29.0908
527837	29.1039
530884	29.1169
533949	29.1299
537032	29.1429
540132	29.1559
543250	29.169
546387	29.182
549541	29.195
552713	29.208
555904	29.221
559114	29.2341
562341	29.2471
565588	29.2601
568853	29.2731
572137	29.2861
575440	29.2991
578762	29.3121
582103	29.3252
585464	29.3382
588844	29.3512
592243	29.3642
595662	29.3772
599101	29.3902
602560	29.4032
606038	29.4162
609537	29.4292
613056	29.4422
616595	29.4552
620155	29.4682
623735	29.4812
627336	29.4941
630957	29.5071
634600	29.5201
638263	29.5331
641948	29.5461
645654	29.5591
649382	29.5721
653131	29.585
656901	29.598
660693	29.611
664508	29.6239
668344	29.6369
672202	29.6499
676083	29.6628
679986	29.6758
683912	29.6887
687860	29.7017
691831	29.7147
695825	29.7276
699842	29.7405
703882	29.7535
707946	29.7664
712033	29.7794
716143	29.7923
720278	29.8052
724436	29.8182
728618	29.8311
732825	29.844
737055	29.857
741310	29.8699
745590	29.8828
749894	29.8957
754223	29.9086
758578	29.9215
762957	29.9344
767361	29.9474
771792	29.9602
776247	29.9731
780728	29.986
785236	29.9989
789769	30.0118
794328	30.0247
798914	30.0376
803526	30.0505
808165	30.0633
812831	30.0762
817523	30.089
822243	30.1019
826990	30.1148
831764	30.1276
836566	30.1405
841395	30.1533
846253	30.1662
851138	30.179
856052	30.1919
860994	30.2047
865964	30.2175
870964	30.2304
875992	30.2432
881049	30.256
886135	30.2688
891251	30.2816
896396	30.2944
901571	30.3072
906776	30.32
912011	30.3328
917276	30.3456
922571	30.3584
927897	30.3712
933254	30.384
938642	30.3968
944061	30.4095
949511	30.4223
954993	30.4351
960506	30.4478
966051	30.4606
971628	30.4733
977237	30.4861
982879	30.4988
988553	30.5116
994260	30.5243
1e+06	30.537
1.00577e+06	30.5498
1.01158e+06	30.5625
1.01742e+06	30.5752
1.02329e+06	30.5879
1.0292e+06	30.6006
1.03514e+06	30.6134
1.04112e+06	30.6261
1.04713e+06	30.6388
1.05317e+06	30.6514
1.05925e+06	30.6641
1.06537e+06	30.6768
1.07152e+06	30.6895
1.07771e+06	30.7022
1.08393e+06	30.7149
1.09018e+06	30.7275
1.09648e+06	30.7402
1.10281e+06	30.7529
1.10917e+06	30.7655
1.11558e+06	30.7782
1.12202e+06	30.7908
1.1285e+06	30.8034
1.13501e+06	30.8161
1.14156e+06	30.8287
1.14815e+06	30.8413
1.15478e+06	30.8539
1.16145e+06	30.8665
1.16815e+06	30.8792
1.1749e+06	30.8918
1.18168e+06	30.9044
1.1885e+06	30.917
1.19536e+06	30.9296
1.20226e+06	30.9422
1.20921e+06	30.9548
1.21619e+06	30.9674
1.22321e+06	30.9799
1.23027e+06	30.9925
1.23737e+06	31.0051
1.24451e+06	31.0176
1.2517e+06	31.0302
1.25893e+06	31.0428
1.26619e+06	31.0553
1.2735e+06	31.0679
1.28086e+06	31.0804
1.28825e+06	31.0929
1.29569e+06	31.1055
1.30317e+06	31.118
1.31069e+06	31.1305
1.31826e+06	31.143
1.32587e+06	31.1555
1.33352e+06	31.168
1.34122e+06	31.1805
1.34896e+06	31.193
1.35675e+06	31.2055
1.36458e+06	31.218
1.37246e+06	31.2305
1.38038e+06	31.243
1.38835e+06	31.2554
1.39637e+06	31.2679
1.40443e+06	31.2804
1.41254e+06	31.2928
1.42069e+06	31.3053
1.42889e+06	31.3177
1.43714e+06	31.3302
1.44544e+06	31.3426
1.45378e+06	31.355
1.46218e+06	31.3675
1.47062e+06	31.3799
1.47911e+06	31.3923
1.48765e+06	31.4047
1.49624e+06	31.4171
1.50487e+06	31.4295
1.51356e+06	31.4419
1.5223e+06	31.4543
1.53109e+06	31.4667
1.53993e+06	31.4791
1.54882e+06	31.4915
1.55776e+06	31.5038
1.56675e+06	31.5162
1.5758e+06	31.5286
1.58489e+06	31.5409
1.59404e+06	31.5533
1.60325e+06	31.5656
1.6125e+06	31.578
1.62181e+06	31.5903
1.63117e+06	31.6026
1.64059e+06	31.6149
1.65006e+06	31.6273
1.65959e+06	31.6396
1.66917e+06	31.6519
1.6788e+06	31.6642
1.6885e+06	31.6765
1.69824e+06	31.6888
1.70805e+06	31.7011
1.71791e+06	31.7134
1.72783e+06	31.7257
1.7378e+06	31.7379
1.74783e+06	31.7502
1.75792e+06	31.7625
1.76807e+06	31.7747
1.77828e+06	31.787
1.78855e+06	31.7992
1.79887e+06	31.8115
1.80926e+06	31.8237
1.8197e+06	31.836
1.83021e+06	31.8482
1.84077e+06	31.8604
1.8514e+06	31.8726
1.86209e+06	31.8848
1.87284e+06	31.897
1.88365e+06	31.9092
1.89452e+06	31.9214
1.90546e+06	31.9336
1.91646e+06	31.9458
1.92752e+06	31.958
1.93865e+06	31.9702
1.94984e+06	31.9823
1.9611e+06	31.9945
1.97242e+06	32.0067
1.98381e+06	32.0188
1.99526e+06	32.031
2.00678e+06	32.0431
2.01837e+06	32.0552
2.03002e+06	32.0674
2.04174e+06	32.0795
2.05353e+06	32.0916
2.06538e+06	32.1037
2.0773e+06	32.1159
2.0893e+06	32.128
2.10136e+06	32.1401
2.11349e+06	32.1522
2.12569e+06	32.1642
2.13796e+06	32.1763
2.1503e+06	32.1884
2.16272e+06	32.2005
2.1752e+06	32.2126
2.18776e+06	32.2246
2.20039e+06	32.2367
2.21309e+06	32.2487
2.22587e+06	32.2608
2.23872e+06	32.2728
2.25165e+06	32.2848
2.26464e+06	32.2969
2.27772e+06	32.3089
2.29087e+06	32.3209
2.30409e+06	32.3329
2.31739e+06	32.3449
2.33077e+06	32.3569
2.34423e+06	32.3689
2.35776e+06	32.3809
2.37137e+06	32.3929
2.38506e+06	32.4049
2.39883e+06	32.4169
2.41268e+06	32.4289
2.42661e+06	32.4408
2.44062e+06	32.4528
2.45471e+06	32.4647
2.46888e+06	32.4767
2.48313e+06	32.4886
2.49747e+06	32.5006
2.51189e+06	32.5125
2.52639e+06	32.5244
2.54097e+06	32.5364
2.55564e+06	32.5483
2.5704e+06	32.5602
2.58523e+06	32.5721
2.60016e+06	32.584
2.61517e+06	32.5959
2.63027e+06	32.6078
2.64545e+06	32.6197
2.66073e+06	32.6315
2.67609e+06	32.6434
2.69153e+06	32.6552
2.70707e+06	32.6671
2.7227e+06	32.679
2.73842e+06	32.6908
2.75423e+06	32.7027
2.77013e+06	32.7145
2.78612e+06	32.7263
2.80221e+06	32.7382
2.81838e+06	32.75
2.83465e+06	32.7618
2.85102e+06	32.7736
2.86748e+06	32.7854
2.88403e+06	32.7972
2.90068e+06	32.809
2.91743e+06	32.8208
2.93427e+06	32.8326
2.95121e+06	32.8444
2.96825e+06	32.8561
2.98538e+06	32.8679
3.00262e+06	32.8796
3.01995e+06	32.8914
3.03739e+06	32.9032
3.05492e+06	32.9149
3.07256e+06	32.9267
3.0903e+06	32.9384
3.10814e+06	32.9501
3.12608e+06	32.9618
3.14413e+06	32.9735
3.16228e+06	32.9852
3.18053e+06	32.997
3.1989e+06	33.0087
3.21736e+06	33.0203
3.23594e+06	33.032
3.25462e+06	33.0437
3.27341e+06	33.0554
3.2923e+06	33.0671
3.31131e+06	33.0787
3.33043e+06	33.0904
3.34965e+06	33.102
3.36899e+06	33.1137
3.38844e+06	33.1253
3.408e+06	33.137
3.42768e+06	33.1486
3.44747e+06	33.1602
3.46737e+06	33.1718
3.48739e+06	33.1835
3.50752e+06	33.1951
3.52777e+06	33.2067
3.54813e+06	33.2183
3.56862e+06	33.2299
3.58922e+06	33.2414
3.60994e+06	33.253
3.63078e+06	33.2646
3.65174e+06	33.2762
3.67282e+06	33.2877
3.69403e+06	33.2992
3.71535e+06	33.3108
3.7368e+06	33.3224
3.75837e+06	33.3339
3.78007e+06	33.3454
3.80189e+06	33.357
3.82384e+06	33.3685
3.84592e+06	33.38
3.86812e+06	33.3915
3.89045e+06	33.403
3.91291e+06	33.4145
3.9355e+06	33.426
3.95822e+06	33.4375
3.98107e+06	33.4489
4.00405e+06	33.4604
4.02717e+06	33.4719
4.05042e+06	33.4834
4.0738e+06	33.4948
4.09732e+06	33.5063
4.12098e+06	33.5177
4.14477e+06	33.5291
4.16869e+06	33.5406
4.19276e+06	33.552
4.21697e+06	33.5634
4.24131e+06	33.5748
4.2658e+06	33.5862
4.29042e+06	33.5977
4.31519e+06	33.6091
4.3401e+06	33.6205
4.36516e+06	33.6318
4.39036e+06	33.6432
4.4157e+06	33.6546
4.4412e+06	33.666
4.46684e+06	33.6773
4.49262e+06	33.6887
4.51856e+06	33.7
4.54465e+06	33.7114
4.57088e+06	33.7227
4.59727e+06	33.734
4.62381e+06	33.7454
4.6505e+06	33.7567
4.67735e+06	33.768
4.70435e+06	33.7793
4.73151e+06	33.7906
4.75883e+06	33.8019
4.7863e+06	33.8132
4.81393e+06	33.8245
4.84172e+06	33.8358
4.86968e+06	33.847
4.89779e+06	33.8583
4.92606e+06	33.8696
4.9545e+06	33.8808
4.9831e+06	33.8921
5.01187e+06	33.9033
5.04081e+06	33.9146
5.06991e+06	33.9258
5.09918e+06	33.937
5.12861e+06	33.9482
5.15822e+06	33.9594
5.188e+06	33.9707
5.21795e+06	33.9818
5.24807e+06	33.9931
5.27837e+06	34.0042
5.30884e+06	34.0154
5.33949e+06	34.0266
5.37032e+06	34.0378
5.40132e+06	34.0489
5.4325e+06	34.0601
5.46387e+06	34.0712
5.49541e+06	34.0824
5.52713e+06	34.0935
5.55904e+06	34.1047
5.59114e+06	34.1158
5.62341e+06	34.1269
5.65588e+06	34.138
5.68853e+06	34.1491
5.72137e+06	34.1603
5.7544e+06	34.1714
5.78762e+06	34.1824
5.82103e+06	34.1935
5.85464e+06	34.2046
5.88844e+06	34.2157
5.92243e+06	34.2267
5.95662e+06	34.2378
5.99101e+06	34.2488
6.0256e+06	34.2599
6.06038e+06	34.271
6.09537e+06	34.282
6.13056e+06	34.293
6.16595e+06	34.304
6.20155e+06	34.3151
6.23735e+06	34.3261
6.27336e+06	34.3371
6.30957e+06	34.3481
6.346e+06	34.3591
6.38263e+06	34.3701
6.41948e+06	34.381
6.45654e+06	34.392
6.49382e+06	34.403
6.53131e+06	34.4139
6.56901e+06	34.4249
6.60693e+06	34.4358
6.64508e+06	34.4468
6.68344e+06	34.4577
6.72202e+06	34.4687
6.76083e+06	34.4796
6.79986e+06	34.4905
6.83912e+06	34.5014
6.8786e+06	34.5123
6.91831e+06	34.5232
6.95825e+06	34.5341
6.99842e+06	34.545
7.03882e+06	34.5559
7.07946e+06	34.5668
7.12033e+06	34.5776
7.16143e+06	34.5885
7.20278e+06	34.5993
7.24436e+06	34.6102
7.28618e+06	34.621
7.32825e+06	34.6319
7.37055e+06	34.6427
7.4131e+06	34.6535
7.4559e+06	34.6643
7.49894e+06	34.6751
7.54223e+06	34.6859
7.58578e+06	34.6968
7.62957e+06	34.7075
7.67361e+06	34.7183
7.71792e+06	34.7291
7.76247e+06	34.7399
7.80728e+06	34.7506
7.85236e+06	34.7614
7.89769e+06	34.7721
7.94328e+06	34.7829
7.98914e+06	34.7936
8.03526e+06	34.8044
8.08165e+06	34.8151
8.12831e+06	34.8258
8.17523e+06	34.8365
8.22243e+06	34.8472
8.2699e+06	34.8579
8.31764e+06	34.8686
8.36566e+06	34.8793
8.41395e+06	34.89
8.46253e+06	34.9007
8.51138e+06	34.9114
8.56052e+06	34.922
8.60994e+06	34.9327
8.65964e+06	34.9433
8.70964e+06	34.954
8.75992e+06	34.9646
8.81049e+06	34.9752
8.86135e+06	34.9858
8.91251e+06	34.9965
8.96396e+06	35.0071
9.01571e+06	35.0177
9.06776e+06	35.0283
9.12011e+06	35.0389
9.17276e+06	35.0495
9.22571e+06	35.06
9.27897e+06	35.0706
9.33254e+06	35.0811
9.38642e+06	35.0917
9.44061e+06	35.1023
9.49511e+06	35.1128
9.54993e+06	35.1233
9.60506e+06	35.1339
9.66051e+06	35.1444
9.71628e+06	35.1549
9.77237e+06	35.1654
9.82879e+06	35.1759
9.88553e+06	35.1864
9.9426e+06	35.1969
1e+07	35.2074
