Stopping power dEdx from Ionisation for Al27[0.0] Z = 13 in Water, process name: ionIoni
E [MeV]	dEdx [MeV/mm]
0.001	22.4269
0.00100577	22.492
0.00101158	22.5572
0.00101742	22.6225
0.00102329	22.6881
0.0010292	22.7539
0.00103514	22.8198
0.00104112	22.886
0.00104713	22.9523
0.00105317	23.0188
0.00105925	23.0855
0.00106537	23.1524
0.00107152	23.2195
0.00107771	23.2868
0.00108393	23.3543
0.00109018	23.422
0.00109648	23.4899
0.00110281	23.558
0.00110917	23.6262
0.00111558	23.6947
0.00112202	23.7634
0.0011285	23.8322
0.00113501	23.9013
0.00114156	23.9705
0.00114815	24.04
0.00115478	24.1097
0.00116145	24.1795
0.00116815	24.2496
0.0011749	24.3198
0.00118168	24.3903
0.0011885	24.461
0.00119536	24.5319
0.00120226	24.6029
0.00120921	24.6742
0.00121619	24.7457
0.00122321	24.8174
0.00123027	24.8893
0.00123737	24.9614
0.00124451	25.0337
0.0012517	25.1062
0.00125893	25.179
0.00126619	25.2519
0.0012735	25.3251
0.00128086	25.3984
0.00128825	25.472
0.00129569	25.5458
0.00130317	25.6198
0.00131069	25.694
0.00131826	25.7684
0.00132587	25.8431
0.00133352	25.9179
0.00134122	25.993
0.00134896	26.0683
0.00135675	26.1438
0.00136458	26.2195
0.00137246	26.2954
0.00138038	26.3716
0.00138835	26.448
0.00139637	26.5246
0.00140443	26.6014
0.00141254	26.6785
0.00142069	26.7557
0.00142889	26.8332
0.00143714	26.9109
0.00144544	26.9888
0.00145378	27.067
0.00146218	27.1454
0.00147062	27.224
0.00147911	27.3028
0.00148765	27.3819
0.00149624	27.4612
0.00150487	27.5407
0.00151356	27.6205
0.0015223	27.7004
0.00153109	27.7806
0.00153993	27.8611
0.00154882	27.9418
0.00155776	28.0227
0.00156675	28.1038
0.0015758	28.1852
0.00158489	28.2668
0.00159404	28.3486
0.00160325	28.4307
0.0016125	28.513
0.00162181	28.5956
0.00163117	28.6784
0.00164059	28.7614
0.00165006	28.8447
0.00165959	28.9282
0.00166917	29.0119
0.0016788	29.0959
0.0016885	29.1801
0.00169824	29.2646
0.00170805	29.3493
0.00171791	29.4343
0.00172783	29.5195
0.0017378	29.6049
0.00174783	29.6906
0.00175792	29.7766
0.00176807	29.8628
0.00177828	29.9492
0.00178855	30.0359
0.00179887	30.1229
0.00180926	30.2101
0.0018197	30.2975
0.00183021	30.3852
0.00184077	30.4731
0.0018514	30.5613
0.00186209	30.6498
0.00187284	30.7385
0.00188365	30.8275
0.00189452	30.9167
0.00190546	31.0062
0.00191646	31.0959
0.00192752	31.1859
0.00193865	31.2762
0.00194984	31.3667
0.0019611	31.4575
0.00197242	31.5485
0.00198381	31.6398
0.00199526	31.7314
0.00200678	31.8232
0.00201837	31.9153
0.00203002	32.0076
0.00204174	32.1003
0.00205353	32.1932
0.00206538	32.2863
0.0020773	32.3798
0.0020893	32.4735
0.00210136	32.5674
0.00211349	32.6617
0.00212569	32.7562
0.00213796	32.8509
0.0021503	32.946
0.00216272	33.0413
0.0021752	33.1369
0.00218776	33.2328
0.00220039	33.329
0.00221309	33.4254
0.00222587	33.5221
0.00223872	33.6191
0.00225165	33.7164
0.00226464	33.8139
0.00227772	33.9118
0.00229087	34.0099
0.00230409	34.1083
0.00231739	34.2069
0.00233077	34.3059
0.00234423	34.4052
0.00235776	34.5047
0.00237137	34.6045
0.00238506	34.7046
0.00239883	34.805
0.00241268	34.9057
0.00242661	35.0067
0.00244062	35.108
0.00245471	35.2095
0.00246888	35.3114
0.00248313	35.4135
0.00249747	35.516
0.00251189	35.6187
0.00252639	35.7217
0.00254097	35.8251
0.00255564	35.9287
0.0025704	36.0326
0.00258523	36.1368
0.00260016	36.2414
0.00261517	36.3462
0.00263027	36.4513
0.00264545	36.5568
0.00266073	36.6625
0.00267609	36.7685
0.00269153	36.8749
0.00270707	36.9815
0.0027227	37.0885
0.00273842	37.1958
0.00275423	37.3034
0.00277013	37.4112
0.00278612	37.5194
0.00280221	37.628
0.00281838	37.7368
0.00283465	37.8459
0.00285102	37.9554
0.00286748	38.0651
0.00288403	38.1752
0.00290068	38.2856
0.00291743	38.3963
0.00293427	38.5074
0.00295121	38.6187
0.00296825	38.7304
0.00298538	38.8424
0.00300262	38.9547
0.00301995	39.0674
0.00303739	39.1804
0.00305492	39.2937
0.00307256	39.4073
0.0030903	39.5212
0.00310814	39.6355
0.00312608	39.7501
0.00314413	39.8651
0.00316228	39.9804
0.00318053	40.096
0.0031989	40.2119
0.00321736	40.3282
0.00323594	40.4448
0.00325462	40.5617
0.00327341	40.679
0.0032923	40.7966
0.00331131	40.9146
0.00333043	41.0329
0.00334965	41.1515
0.00336899	41.2705
0.00338844	41.3898
0.003408	41.5095
0.00342768	41.6295
0.00344747	41.7499
0.00346737	41.8706
0.00348739	41.9916
0.00350752	42.113
0.00352777	42.2348
0.00354813	42.3569
0.00356862	42.4793
0.00358922	42.6021
0.00360994	42.7253
0.00363078	42.8488
0.00365174	42.9727
0.00367282	43.0969
0.00369403	43.2215
0.00371535	43.3465
0.0037368	43.4718
0.00375837	43.5974
0.00378007	43.7235
0.00380189	43.8499
0.00382384	43.9766
0.00384592	44.1037
0.00386812	44.2312
0.00389045	44.3591
0.00391291	44.4873
0.0039355	44.6159
0.00395822	44.7449
0.00398107	44.8742
0.00400405	45.0039
0.00402717	45.134
0.00405042	45.2645
0.0040738	45.3953
0.00409732	45.5265
0.00412098	45.6581
0.00414477	45.7901
0.00416869	45.9224
0.00419276	46.0552
0.00421697	46.1883
0.00424131	46.3218
0.0042658	46.4557
0.00429042	46.5899
0.00431519	46.7246
0.0043401	46.8596
0.00436516	46.9951
0.00439036	47.1309
0.0044157	47.2671
0.0044412	47.4037
0.00446684	47.5407
0.00449262	47.6781
0.00451856	47.8159
0.00454465	47.9541
0.00457088	48.0927
0.00459727	48.2317
0.00462381	48.3711
0.0046505	48.5108
0.00467735	48.651
0.00470435	48.7916
0.00473151	48.9326
0.00475883	49.0741
0.0047863	49.2159
0.00481393	49.3581
0.00484172	49.5007
0.00486968	49.6438
0.00489779	49.7872
0.00492606	49.9311
0.0049545	50.0754
0.0049831	50.2201
0.00501187	50.3652
0.00504081	50.5108
0.00506991	50.6567
0.00509918	50.9303
0.00512861	51.0771
0.00515822	51.2243
0.005188	51.3719
0.00521795	51.52
0.00524807	51.6685
0.00527837	51.8174
0.00530884	51.9668
0.00533949	52.1166
0.00537032	52.2668
0.00540132	52.4175
0.0054325	52.5685
0.00546387	52.7201
0.00549541	52.872
0.00552713	53.0244
0.00555904	53.1773
0.00559114	53.3305
0.00562341	53.4842
0.00565588	53.6384
0.00568853	53.793
0.00572137	53.9481
0.0057544	54.1036
0.00578762	54.2595
0.00582103	54.4159
0.00585464	54.5728
0.00588844	54.7301
0.00592243	54.8878
0.00595662	55.046
0.00599101	55.2047
0.0060256	55.3638
0.00606038	55.5234
0.00609537	55.6834
0.00613056	55.8439
0.00616595	56.0049
0.00620155	56.1663
0.00623735	56.3282
0.00627336	56.4906
0.00630957	56.6534
0.006346	56.8167
0.00638263	56.9805
0.00641948	57.1447
0.00645654	57.3094
0.00649382	57.4746
0.00653131	57.6403
0.00656901	57.8064
0.00660693	57.973
0.00664508	58.1401
0.00668344	58.3077
0.00672202	58.4758
0.00676083	58.6443
0.00679986	58.8133
0.00683912	58.9829
0.0068786	59.1529
0.00691831	59.3234
0.00695825	59.4944
0.00699842	59.6659
0.00703882	59.8378
0.00707946	60.0103
0.00712033	60.1833
0.00716143	60.3568
0.00720278	60.5307
0.00724436	60.7052
0.00728618	60.8802
0.00732825	61.0557
0.00737055	61.2316
0.0074131	61.4081
0.0074559	61.5851
0.00749894	61.7626
0.00754223	61.9407
0.00758578	62.1192
0.00762957	62.2983
0.00767361	62.4778
0.00771792	62.6579
0.00776247	62.8385
0.00780728	63.0196
0.00785236	63.2013
0.00789769	63.3835
0.00794328	63.5661
0.00798914	63.7494
0.00803526	63.9331
0.00808165	64.1174
0.00812831	64.3022
0.00817523	64.4876
0.00822243	64.6734
0.0082699	64.8598
0.00831764	65.0468
0.00836566	65.2343
0.00841395	65.4223
0.00846253	65.6109
0.00851138	65.8
0.00856052	65.9897
0.00860994	66.1799
0.00865964	66.3706
0.00870964	66.5619
0.00875992	66.7538
0.00881049	66.9462
0.00886135	67.1392
0.00891251	67.3327
0.00896396	67.5268
0.00901571	67.7214
0.00906776	67.9166
0.00912011	68.1124
0.00917276	68.3087
0.00922571	68.5056
0.00927897	68.703
0.00933254	68.9011
0.00938642	69.0997
0.00944061	69.2988
0.00949511	69.4986
0.00954993	69.6989
0.00960506	69.8998
0.00966051	70.1013
0.00971628	70.3033
0.00977237	70.506
0.00982879	70.7092
0.00988553	70.913
0.0099426	71.1174
0.01	71.3224
0.0100577	71.528
0.0101158	71.7341
0.0101742	71.9409
0.0102329	72.1483
0.010292	72.3562
0.0103514	72.5648
0.0104112	72.7739
0.0104713	72.9837
0.0105317	73.1941
0.0105925	73.405
0.0106537	73.6166
0.0107152	73.8288
0.0107771	74.0416
0.0108393	74.255
0.0109018	74.4691
0.0109648	74.6837
0.0110281	74.899
0.0110917	75.1149
0.0111558	75.3314
0.0112202	75.5485
0.011285	75.7663
0.0113501	75.9847
0.0114156	76.2037
0.0114815	76.4233
0.0115478	76.6436
0.0116145	76.8645
0.0116815	77.0861
0.011749	77.3083
0.0118168	77.5311
0.011885	77.7546
0.0119536	77.9787
0.0120226	78.2034
0.0120921	78.4289
0.0121619	78.6549
0.0122321	78.8816
0.0123027	79.109
0.0123737	79.337
0.0124451	79.5657
0.012517	79.795
0.0125893	80.025
0.0126619	80.2557
0.012735	80.487
0.0128086	80.719
0.0128825	80.9517
0.0129569	81.185
0.0130317	81.419
0.0131069	81.6537
0.0131826	81.8891
0.0132587	82.1251
0.0133352	82.3618
0.0134122	82.5992
0.0134896	82.8373
0.0135675	83.0761
0.0136458	83.3155
0.0137246	83.5557
0.0138038	83.7965
0.0138835	84.038
0.0139637	84.2803
0.0140443	84.5232
0.0141254	84.7668
0.0142069	85.0112
0.0142889	85.2562
0.0143714	85.5019
0.0144544	85.7484
0.0145378	85.9955
0.0146218	86.2434
0.0147062	86.492
0.0147911	86.7413
0.0148765	86.9913
0.0149624	87.2421
0.0150487	87.4935
0.0151356	87.7457
0.015223	87.9986
0.0153109	88.2523
0.0153993	88.5066
0.0154882	88.7618
0.0155776	89.0176
0.0156675	89.2742
0.015758	89.5315
0.0158489	89.7896
0.0159404	90.0484
0.0160325	90.3079
0.016125	90.5682
0.0162181	90.8293
0.0163117	91.0911
0.0164059	91.3536
0.0165006	91.617
0.0165959	91.881
0.0166917	92.1459
0.016788	92.4115
0.016885	92.6778
0.0169824	92.945
0.0170805	93.2129
0.0171791	93.4815
0.0172783	93.751
0.017378	94.0212
0.0174783	94.2922
0.0175792	94.564
0.0176807	94.8366
0.0177828	95.1099
0.0178855	95.3841
0.0179887	95.659
0.0180926	95.9347
0.018197	96.2113
0.0183021	96.4886
0.0184077	96.7667
0.018514	97.0456
0.0186209	97.3253
0.0187284	97.6059
0.0188365	97.8872
0.0189452	98.1693
0.0190546	98.4523
0.0191646	98.7361
0.0192752	99.0207
0.0193865	99.3061
0.0194984	99.5923
0.019611	99.8794
0.0197242	100.167
0.0198381	100.456
0.0199526	100.746
0.0200678	101.036
0.0201837	101.327
0.0203002	101.619
0.0204174	101.912
0.0205353	102.206
0.0206538	102.5
0.020773	102.796
0.020893	103.092
0.0210136	103.389
0.0211349	103.687
0.0212569	103.986
0.0213796	104.286
0.021503	104.587
0.0216272	104.888
0.021752	105.19
0.0218776	105.494
0.0220039	105.798
0.0221309	106.103
0.0222587	106.408
0.0223872	106.715
0.0225165	107.023
0.0226464	107.331
0.0227772	107.641
0.0229087	107.951
0.0230409	108.262
0.0231739	108.574
0.0233077	108.887
0.0234423	109.201
0.0235776	109.516
0.0237137	109.831
0.0238506	110.148
0.0239883	110.465
0.0241268	110.784
0.0242661	111.103
0.0244062	111.423
0.0245471	111.744
0.0246888	112.067
0.0248313	112.39
0.0249747	112.713
0.0251189	113.038
0.0252639	113.364
0.0254097	113.691
0.0255564	114.019
0.025704	114.347
0.0258523	114.677
0.0260016	115.007
0.0261517	115.339
0.0263027	115.671
0.0264545	116.005
0.0266073	116.339
0.0267609	116.674
0.0269153	117.011
0.0270707	117.348
0.027227	117.686
0.0273842	118.026
0.0275423	118.366
0.0277013	118.707
0.0278612	119.049
0.0280221	119.392
0.0281838	119.736
0.0283465	120.081
0.0285102	120.428
0.0286748	120.775
0.0288403	121.123
0.0290068	121.472
0.0291743	121.822
0.0293427	122.173
0.0295121	122.525
0.0296825	122.878
0.0298538	123.233
0.0300262	123.588
0.0301995	123.944
0.0303739	124.301
0.0305492	124.66
0.0307256	125.019
0.030903	125.379
0.0310814	125.741
0.0312608	126.103
0.0314413	126.467
0.0316228	126.831
0.0318053	127.197
0.031989	127.563
0.0321736	127.931
0.0323594	128.3
0.0325462	128.67
0.0327341	129.04
0.032923	129.412
0.0331131	129.785
0.0333043	130.16
0.0334965	130.535
0.0336899	130.911
0.0338844	131.288
0.03408	131.667
0.0342768	132.046
0.0344747	132.427
0.0346737	132.809
0.0348739	133.191
0.0350752	133.575
0.0352777	133.96
0.0354813	134.346
0.0356862	134.734
0.0358922	135.122
0.0360994	135.511
0.0363078	135.902
0.0365174	136.294
0.0367282	136.687
0.0369403	137.081
0.0371535	137.476
0.037368	137.872
0.0375837	138.269
0.0378007	138.668
0.0380189	139.068
0.0382384	139.468
0.0384592	139.87
0.0386812	140.274
0.0389045	140.678
0.0391291	141.083
0.039355	141.49
0.0395822	141.898
0.0398107	142.307
0.0400405	142.717
0.0402717	143.128
0.0405042	143.541
0.040738	143.955
0.0409732	144.37
0.0412098	144.786
0.0414477	145.203
0.0416869	145.622
0.0419276	146.041
0.0421697	146.462
0.0424131	146.884
0.042658	147.308
0.0429042	147.732
0.0431519	148.158
0.043401	148.585
0.0436516	149.014
0.0439036	149.443
0.044157	149.874
0.044412	150.306
0.0446684	150.739
0.0449262	151.174
0.0451856	151.609
0.0454465	152.046
0.0457088	152.485
0.0459727	152.924
0.0462381	153.365
0.046505	153.807
0.0467735	154.25
0.0470435	154.695
0.0473151	155.141
0.0475883	155.588
0.047863	156.036
0.0481393	156.486
0.0484172	156.937
0.0486968	157.39
0.0489779	157.843
0.0492606	158.298
0.049545	158.754
0.049831	159.212
0.0501187	159.671
0.0504081	160.131
0.0506991	160.593
0.0509918	161.056
0.0512861	161.52
0.0515822	161.985
0.05188	162.452
0.0521795	162.921
0.0524807	163.39
0.0527837	163.861
0.0530884	164.333
0.0533949	164.807
0.0537032	165.282
0.0540132	165.759
0.054325	166.236
0.0546387	166.715
0.0549541	167.196
0.0552713	167.678
0.0555904	168.161
0.0559114	168.646
0.0562341	169.132
0.0565588	169.62
0.0568853	170.108
0.0572137	170.599
0.057544	171.09
0.0578762	171.584
0.0582103	172.078
0.0585464	172.574
0.0588844	173.072
0.0592243	173.57
0.0595662	174.071
0.0599101	174.573
0.060256	175.076
0.0606038	175.58
0.0609537	176.086
0.0613056	176.594
0.0616595	177.103
0.0620155	177.613
0.0623735	178.125
0.0627336	178.639
0.0630957	179.154
0.06346	179.67
0.0638263	180.188
0.0641948	180.707
0.0645654	181.228
0.0649382	181.751
0.0653131	182.274
0.0656901	182.8
0.0660693	183.327
0.0664508	183.855
0.0668344	184.385
0.0672202	184.917
0.0676083	185.45
0.0679986	185.984
0.0683912	186.52
0.068786	187.058
0.0691831	187.597
0.0695825	188.138
0.0699842	188.68
0.0703882	189.224
0.0707946	189.769
0.0712033	190.316
0.0716143	190.865
0.0720278	191.415
0.0724436	191.967
0.0728618	192.52
0.0732825	193.075
0.0737055	193.631
0.074131	194.19
0.074559	194.749
0.0749894	195.311
0.0754223	195.874
0.0758578	196.438
0.0762957	197.004
0.0767361	197.572
0.0771792	198.142
0.0776247	198.713
0.0780728	199.286
0.0785236	199.86
0.0789769	200.436
0.0794328	201.014
0.0798914	201.593
0.0803526	202.174
0.0808165	202.757
0.0812831	203.341
0.0817523	203.928
0.0822243	204.515
0.082699	205.105
0.0831764	205.696
0.0836566	206.289
0.0841395	206.884
0.0846253	207.48
0.0851138	208.078
0.0856052	208.678
0.0860994	209.279
0.0865964	209.882
0.0870964	210.487
0.0875992	211.094
0.0881049	211.702
0.0886135	212.313
0.0891251	212.925
0.0896396	213.538
0.0901571	214.154
0.0906776	214.771
0.0912011	215.39
0.0917276	216.011
0.0922571	216.634
0.0927897	217.258
0.0933254	217.884
0.0938642	218.512
0.0944061	219.142
0.0949511	219.774
0.0954993	220.407
0.0960506	221.043
0.0966051	221.68
0.0971628	222.319
0.0977237	222.959
0.0982879	223.602
0.0988553	224.247
0.099426	224.893
0.1	225.541
0.100577	226.191
0.101158	226.843
0.101742	227.497
0.102329	228.153
0.10292	228.81
0.103514	229.47
0.104112	230.131
0.104713	230.795
0.105317	231.46
0.105925	232.127
0.106537	232.796
0.107152	233.467
0.107771	234.14
0.108393	234.815
0.109018	235.492
0.109648	236.171
0.110281	236.851
0.110917	237.534
0.111558	238.219
0.112202	238.905
0.11285	239.594
0.113501	240.285
0.114156	240.977
0.114815	241.672
0.115478	242.368
0.116145	243.067
0.116815	243.768
0.11749	244.47
0.118168	245.175
0.11885	245.882
0.119536	246.59
0.120226	247.301
0.120921	248.014
0.121619	248.729
0.122321	249.446
0.123027	250.165
0.123737	250.886
0.124451	251.609
0.12517	252.334
0.125893	253.061
0.126619	253.791
0.12735	254.522
0.128086	255.256
0.128825	255.992
0.129569	256.73
0.130317	257.47
0.131069	258.212
0.131826	258.956
0.132587	259.702
0.133352	260.451
0.134122	261.202
0.134896	261.955
0.135675	262.71
0.136458	263.467
0.137246	264.226
0.138038	264.988
0.138835	265.752
0.139637	266.518
0.140443	267.286
0.141254	268.056
0.142069	268.829
0.142889	269.604
0.143714	270.381
0.144544	271.16
0.145378	271.942
0.146218	272.726
0.147062	273.512
0.147911	274.3
0.148765	275.091
0.149624	275.884
0.150487	276.679
0.151356	277.476
0.15223	278.276
0.153109	279.078
0.153993	279.883
0.154882	280.689
0.155776	281.498
0.156675	282.31
0.15758	283.123
0.158489	283.94
0.159404	284.758
0.160325	285.579
0.16125	286.402
0.162181	287.227
0.163117	288.055
0.164059	288.886
0.165006	289.718
0.165959	290.553
0.166917	291.391
0.16788	292.231
0.16885	293.073
0.169824	293.918
0.170805	294.765
0.171791	295.615
0.172783	296.467
0.17378	297.321
0.174783	298.178
0.175792	299.038
0.176807	299.9
0.177828	300.764
0.178855	301.631
0.179887	302.5
0.180926	303.372
0.18197	304.247
0.183021	305.124
0.184077	306.003
0.18514	306.885
0.186209	307.77
0.187284	308.657
0.188365	309.546
0.189452	310.439
0.190546	311.334
0.191646	312.231
0.192752	313.131
0.193865	314.033
0.194984	314.939
0.19611	315.846
0.197242	316.757
0.198381	317.67
0.199526	318.585
0.200678	319.504
0.201837	320.425
0.203002	321.348
0.204174	322.274
0.205353	323.203
0.206538	324.135
0.20773	325.069
0.20893	326.006
0.210136	326.946
0.211349	327.888
0.212569	328.833
0.213796	329.781
0.21503	330.732
0.216272	331.685
0.21752	332.641
0.218776	333.6
0.220039	334.561
0.221309	335.526
0.222587	336.493
0.223872	337.463
0.225165	338.435
0.226464	339.411
0.227772	340.389
0.229087	341.37
0.230409	342.354
0.231739	343.341
0.233077	344.331
0.234423	345.323
0.235776	346.319
0.237137	347.317
0.238506	348.318
0.239883	349.322
0.241268	350.329
0.242661	351.339
0.244062	352.351
0.245471	353.367
0.246888	354.385
0.248313	355.407
0.249747	356.431
0.251189	357.459
0.252639	358.489
0.254097	359.522
0.255564	360.559
0.25704	361.598
0.258523	362.64
0.260016	363.685
0.261517	364.734
0.263027	365.785
0.264545	366.839
0.266073	367.897
0.267609	368.957
0.269153	370.021
0.270707	371.087
0.27227	372.157
0.273842	373.229
0.275423	374.305
0.277013	375.384
0.278612	376.466
0.280221	377.551
0.281838	378.639
0.283465	379.731
0.285102	380.825
0.286748	381.923
0.288403	383.024
0.290068	384.128
0.291743	385.235
0.293427	386.346
0.295121	387.459
0.296825	388.576
0.298538	389.696
0.300262	390.819
0.301995	391.946
0.303739	393.075
0.305492	394.208
0.307256	395.345
0.30903	396.484
0.310814	397.627
0.312608	398.773
0.314413	399.923
0.316228	401.075
0.318053	402.231
0.31989	403.391
0.321736	404.553
0.323594	405.72
0.325462	406.889
0.327341	408.062
0.32923	409.238
0.331131	410.418
0.333043	411.6
0.334965	412.787
0.336899	413.977
0.338844	415.17
0.3408	416.367
0.342768	417.567
0.344747	418.77
0.346737	419.977
0.348739	421.188
0.350752	422.402
0.352777	423.619
0.354813	424.84
0.356862	426.065
0.358922	427.293
0.360994	428.525
0.363078	429.76
0.365174	430.999
0.367282	432.241
0.369403	433.487
0.371535	434.736
0.37368	435.989
0.375837	437.246
0.378007	438.506
0.380189	439.77
0.382384	441.038
0.384592	442.309
0.386812	443.584
0.389045	444.863
0.391291	446.145
0.39355	447.431
0.395822	448.72
0.398107	450.014
0.400405	451.311
0.402717	452.612
0.405042	453.916
0.40738	455.225
0.409732	456.537
0.412098	457.853
0.414477	459.173
0.416869	460.496
0.419276	461.823
0.421697	463.155
0.424131	464.489
0.42658	465.828
0.429042	467.171
0.431519	468.518
0.43401	469.868
0.436516	471.222
0.439036	472.581
0.44157	473.943
0.44412	475.309
0.446684	476.679
0.449262	478.053
0.451856	479.431
0.454465	480.813
0.457088	482.199
0.459727	483.588
0.462381	484.982
0.46505	486.38
0.467735	487.782
0.470435	489.188
0.473151	490.598
0.475883	492.012
0.47863	493.43
0.481393	494.853
0.484172	496.279
0.486968	497.709
0.489779	499.144
0.492606	500.583
0.49545	502.026
0.49831	503.473
0.501187	504.924
0.504081	506.379
0.506991	507.839
0.509918	509.303
0.512861	510.771
0.515822	512.243
0.5188	513.719
0.521795	515.2
0.524807	516.685
0.527837	518.174
0.530884	519.668
0.533949	521.166
0.537032	522.668
0.540132	524.175
0.54325	525.685
0.546387	527.201
0.549541	528.72
0.552713	530.244
0.555904	531.773
0.559114	533.305
0.562341	534.842
0.565588	536.384
0.568853	537.93
0.572137	539.481
0.57544	541.036
0.578762	542.595
0.582103	544.159
0.585464	545.728
0.588844	547.301
0.592243	548.878
0.595662	550.46
0.599101	552.047
0.60256	553.638
0.606038	555.234
0.609537	556.834
0.613056	558.439
0.616595	560.049
0.620155	561.663
0.623735	563.282
0.627336	564.906
0.630957	566.534
0.6346	568.167
0.638263	569.805
0.641948	571.447
0.645654	573.094
0.649382	574.746
0.653131	576.403
0.656901	578.064
0.660693	579.73
0.664508	581.401
0.668344	583.077
0.672202	584.758
0.676083	586.498
0.679986	588.39
0.683912	590.291
0.68786	592.204
0.691831	594.127
0.695825	596.06
0.699842	598.004
0.703882	599.958
0.707946	601.923
0.712033	603.899
0.716143	605.885
0.720278	607.882
0.724436	609.89
0.728618	611.909
0.732825	613.939
0.737055	615.979
0.74131	618.031
0.74559	620.093
0.749894	622.166
0.754223	624.251
0.758578	626.347
0.762957	628.453
0.767361	630.571
0.771792	632.7
0.776247	634.84
0.780728	636.992
0.785236	639.155
0.789769	641.329
0.794328	643.514
0.798914	645.711
0.803526	647.92
0.808165	650.139
0.812831	652.33
0.817523	654.505
0.822243	656.692
0.82699	658.889
0.831764	661.098
0.836566	663.318
0.841395	665.549
0.846253	667.792
0.851138	670.046
0.856052	672.311
0.860994	674.587
0.865964	676.875
0.870964	679.175
0.875992	681.485
0.881049	683.807
0.886135	686.141
0.891251	688.486
0.896396	690.842
0.901571	693.21
0.906776	695.589
0.912011	697.98
0.917276	700.383
0.922571	702.797
0.927897	705.222
0.933254	707.659
0.938642	710.107
0.944061	712.568
0.949511	715.039
0.954993	717.522
0.960506	720.017
0.966051	722.523
0.971628	725.041
0.977237	727.57
0.982879	730.111
0.988553	732.664
0.99426	735.228
1	737.803
1.00577	740.39
1.01158	742.989
1.01742	745.599
1.02329	748.22
1.0292	750.853
1.03514	753.498
1.04112	756.153
1.04713	758.82
1.05317	761.499
1.05925	764.189
1.06537	766.89
1.07152	769.602
1.07771	772.326
1.08393	775.049
1.09018	777.777
1.09648	780.516
1.10281	783.266
1.10917	786.028
1.11558	788.8
1.12202	791.584
1.1285	794.379
1.13501	797.185
1.14156	800.002
1.14815	802.831
1.15478	805.671
1.16145	808.523
1.16815	811.385
1.1749	814.259
1.18168	817.145
1.1885	820.042
1.19536	822.95
1.20226	825.87
1.20921	828.801
1.21619	831.744
1.22321	834.698
1.23027	837.664
1.23737	840.641
1.24451	843.63
1.2517	846.631
1.25893	849.643
1.26619	852.667
1.2735	855.702
1.28086	858.749
1.28825	861.808
1.29569	864.878
1.30317	867.96
1.31069	871.054
1.31826	874.16
1.32587	877.277
1.33352	880.406
1.34122	883.547
1.34896	886.7
1.35675	889.864
1.36458	893.039
1.37246	896.226
1.38038	899.426
1.38835	902.636
1.39637	905.859
1.40443	909.093
1.41254	912.339
1.42069	915.597
1.42889	918.867
1.43714	922.148
1.44544	925.44
1.45378	928.745
1.46218	932.061
1.47062	935.388
1.47911	938.727
1.48765	942.078
1.49624	945.439
1.50487	948.813
1.51356	952.197
1.5223	955.593
1.53109	959.001
1.53993	962.419
1.54882	965.849
1.55776	969.29
1.56675	972.742
1.5758	976.206
1.58489	979.68
1.59404	983.165
1.60325	986.661
1.6125	990.168
1.62181	993.686
1.63117	997.215
1.64059	1000.75
1.65006	1004.3
1.65959	1007.87
1.66917	1011.44
1.6788	1015.02
1.6885	1018.61
1.69824	1022.22
1.70805	1025.83
1.71791	1029.46
1.72783	1033.09
1.7378	1036.74
1.74783	1040.39
1.75792	1044.06
1.76807	1047.74
1.77828	1051.43
1.78855	1055.13
1.79887	1058.84
1.80926	1062.56
1.8197	1066.29
1.83021	1070.03
1.84077	1073.78
1.8514	1077.55
1.86209	1081.32
1.87284	1085.1
1.88365	1088.9
1.89452	1092.7
1.90546	1096.52
1.91646	1100.34
1.92752	1104.18
1.93865	1108.02
1.94984	1111.88
1.9611	1115.74
1.97242	1119.62
1.98381	1123.51
1.99526	1127.4
2.00678	1131.31
2.01837	1135.22
2.03002	1139.14
2.04174	1143.08
2.05353	1147.02
2.06538	1150.97
2.0773	1154.93
2.0893	1158.9
2.10136	1162.88
2.11349	1166.87
2.12569	1170.86
2.13796	1174.87
2.1503	1178.88
2.16272	1182.9
2.1752	1186.93
2.18776	1190.97
2.20039	1195.01
2.21309	1199.06
2.22587	1203.13
2.23872	1207.19
2.25165	1211.27
2.26464	1215.35
2.27772	1219.45
2.29087	1223.54
2.30409	1227.65
2.31739	1231.76
2.33077	1235.89
2.34423	1240.01
2.35776	1244.15
2.37137	1248.29
2.38506	1252.44
2.39883	1256.6
2.41268	1260.76
2.42661	1264.93
2.44062	1269.11
2.45471	1273.3
2.46888	1277.49
2.48313	1281.68
2.49747	1285.89
2.51189	1290.1
2.52639	1294.31
2.54097	1298.54
2.55564	1302.76
2.5704	1307
2.58523	1311.24
2.60016	1315.48
2.61517	1319.73
2.63027	1323.98
2.64545	1328.24
2.66073	1332.51
2.67609	1336.78
2.69153	1341.05
2.70707	1345.33
2.7227	1349.61
2.73842	1353.9
2.75423	1358.19
2.77013	1362.49
2.78612	1366.79
2.80221	1371.09
2.81838	1375.4
2.83465	1379.71
2.85102	1384.02
2.86748	1388.34
2.88403	1392.66
2.90068	1396.98
2.91743	1401.3
2.93427	1405.63
2.95121	1409.95
2.96825	1414.28
2.98538	1418.61
3.00262	1422.95
3.01995	1427.28
3.03739	1431.62
3.05492	1435.95
3.07256	1440.29
3.0903	1444.63
3.10814	1448.97
3.12608	1453.31
3.14413	1457.65
3.16228	1461.99
3.18053	1466.32
3.1989	1470.66
3.21736	1475
3.23594	1479.34
3.25462	1483.68
3.27341	1488.02
3.2923	1492.35
3.31131	1496.69
3.33043	1501.02
3.34965	1505.35
3.36899	1509.68
3.38844	1514.01
3.408	1518.33
3.42768	1522.66
3.44747	1526.98
3.46737	1531.29
3.48739	1535.61
3.50752	1539.92
3.52777	1544.23
3.54813	1548.54
3.56862	1552.84
3.58922	1557.14
3.60994	1561.43
3.63078	1565.72
3.65174	1570.01
3.67282	1574.29
3.69403	1578.56
3.71535	1582.84
3.7368	1587.1
3.75837	1591.37
3.78007	1595.62
3.80189	1599.87
3.82384	1604.12
3.84592	1608.36
3.86812	1612.59
3.89045	1616.82
3.91291	1621.04
3.9355	1625.25
3.95822	1629.46
3.98107	1633.66
4.00405	1637.86
4.02717	1642.04
4.05042	1646.22
4.0738	1650.34
4.09732	1654.45
4.12098	1658.55
4.14477	1662.64
4.16869	1666.72
4.19276	1670.8
4.21697	1674.86
4.24131	1678.92
4.2658	1682.96
4.29042	1687
4.31519	1691.02
4.3401	1695.04
4.36516	1699.04
4.39036	1703.03
4.4157	1707.01
4.4412	1710.97
4.46684	1714.93
4.49262	1718.87
4.51856	1722.8
4.54465	1726.72
4.57088	1730.62
4.59727	1734.51
4.62381	1738.38
4.6505	1742.24
4.67735	1746.09
4.70435	1749.92
4.73151	1753.73
4.75883	1757.53
4.7863	1761.31
4.81393	1765.08
4.84172	1768.83
4.86968	1772.56
4.89779	1776.28
4.92606	1779.98
4.9545	1783.66
4.9831	1787.32
5.01187	1790.97
5.04081	1794.6
5.06991	1798.2
5.09918	1801.79
5.12861	1805.36
5.15822	1808.91
5.188	1812.44
5.21795	1815.94
5.24807	1819.43
5.27837	1822.9
5.30884	1826.34
5.33949	1829.77
5.37032	1833.17
5.40132	1836.55
5.4325	1839.92
5.46387	1843.28
5.49541	1846.61
5.52713	1849.91
5.55904	1853.2
5.59114	1856.46
5.62341	1859.7
5.65588	1862.91
5.68853	1866.1
5.72137	1869.27
5.7544	1872.41
5.78762	1875.53
5.82103	1878.62
5.85464	1881.69
5.88844	1884.73
5.92243	1887.75
5.95662	1890.74
5.99101	1893.71
6.0256	1896.66
6.06038	1899.57
6.09537	1902.47
6.13056	1905.34
6.16595	1908.18
6.20155	1911
6.23735	1913.79
6.27336	1916.56
6.30957	1919.3
6.346	1922.01
6.38263	1924.7
6.41948	1927.37
6.45654	1930.01
6.49382	1932.62
6.53131	1935.21
6.56901	1937.78
6.60693	1940.32
6.64508	1942.83
6.68344	1945.32
6.72202	1947.79
6.76083	1950.23
6.79986	1952.65
6.83912	1955.05
6.8786	1957.42
6.91831	1959.76
6.95825	1962.08
6.99842	1964.38
7.03882	1966.65
7.07946	1968.9
7.12033	1971.12
7.16143	1973.32
7.20278	1975.49
7.24436	1977.64
7.28618	1979.76
7.32825	1981.85
7.37055	1983.92
7.4131	1985.97
7.4559	1987.99
7.49894	1989.98
7.54223	1991.95
7.58578	1993.89
7.62957	1995.81
7.67361	1997.7
7.71792	1999.56
7.76247	2001.41
7.80728	2003.22
7.85236	2005.01
7.89769	2006.78
7.94328	2008.52
7.98914	2010.23
8.03526	2011.93
8.08165	2013.59
8.12831	2015.24
8.17523	2016.87
8.22243	2018.47
8.2699	2020.05
8.31764	2021.6
8.36566	2023.13
8.41395	2024.63
8.46253	2026.11
8.51138	2027.56
8.56052	2028.99
8.60994	2030.39
8.65964	2031.77
8.70964	2033.13
8.75992	2034.45
8.81049	2035.75
8.86135	2037.03
8.91251	2038.28
8.96396	2039.51
9.01571	2040.71
9.06776	2041.88
9.12011	2043.03
9.17276	2044.15
9.22571	2045.25
9.27897	2046.32
9.33254	2047.37
9.38642	2048.39
9.44061	2049.39
9.49511	2050.36
9.54993	2051.3
9.60506	2052.23
9.66051	2053.12
9.71628	2053.99
9.77237	2054.84
9.82879	2055.66
9.88553	2056.46
9.9426	2057.24
10	2057.99
10.0577	2058.72
10.1158	2059.42
10.1742	2060.1
10.2329	2060.76
10.292	2061.4
10.3514	2062.01
10.4112	2062.61
10.4713	2063.18
10.5317	2063.73
10.5925	2064.26
10.6537	2064.77
10.7152	2065.26
10.7771	2065.74
10.8393	2066.18
10.9018	2066.59
10.9648	2066.99
11.0281	2067.36
11.0917	2067.72
11.1558	2068.06
11.2202	2068.38
11.285	2068.69
11.3501	2068.97
11.4156	2069.23
11.4815	2069.48
11.5478	2069.7
11.6145	2069.91
11.6815	2070.1
11.749	2070.26
11.8168	2070.41
11.885	2070.54
11.9536	2070.65
12.0226	2070.74
12.0921	2070.81
12.1619	2070.86
12.2321	2070.89
12.3027	2070.9
12.3737	2070.89
12.4451	2070.87
12.517	2070.82
12.5893	2070.75
12.6619	2070.66
12.735	2070.56
12.8086	2070.43
12.8825	2070.29
12.9569	2070.12
13.0317	2069.94
13.1069	2069.74
13.1826	2069.52
13.2587	2069.28
13.3352	2069.02
13.4122	2068.74
13.4896	2068.44
13.5675	2068.13
13.6458	2067.8
13.7246	2067.46
13.8038	2067.09
13.8835	2066.71
13.9637	2066.31
14.0443	2065.88
14.1254	2065.45
14.2069	2064.99
14.2889	2064.51
14.3714	2064.02
14.4544	2063.5
14.5378	2062.97
14.6218	2062.42
14.7062	2061.86
14.7911	2061.27
14.8765	2060.67
14.9624	2060.04
15.0487	2059.4
15.1356	2058.75
15.223	2058.07
15.3109	2057.38
15.3993	2056.67
15.4882	2055.94
15.5776	2055.19
15.6675	2054.43
15.758	2053.65
15.8489	2052.85
15.9404	2052.04
16.0325	2051.21
16.125	2050.36
16.2181	2049.5
16.3117	2048.63
16.4059	2047.73
16.5006	2046.82
16.5959	2045.9
16.6917	2044.96
16.788	2044
16.885	2043.03
16.9824	2042.04
17.0805	2041.04
17.1791	2040.02
17.2783	2038.98
17.378	2037.93
17.4783	2036.86
17.5792	2035.78
17.6807	2034.68
17.7828	2033.56
17.8855	2032.43
17.9887	2031.29
18.0926	2030.13
18.197	2028.95
18.3021	2027.76
18.4077	2026.55
18.514	2025.33
18.6209	2024.1
18.7284	2022.84
18.8365	2021.58
18.9452	2020.3
19.0546	2019
19.1646	2017.69
19.2752	2016.37
19.3865	2015.03
19.4984	2013.68
19.611	2012.31
19.7242	2010.93
19.8381	2009.53
19.9526	2008.12
20.0678	2006.69
20.1837	2005.25
20.3002	2003.79
20.4174	2002.32
20.5353	2000.84
20.6538	1999.34
20.773	1997.83
20.893	1996.3
21.0136	1994.76
21.1349	1993.2
21.2569	1991.63
21.3796	1990.05
21.503	1988.45
21.6272	1986.84
21.752	1985.21
21.8776	1983.57
22.0039	1981.92
22.1309	1980.25
22.2587	1978.57
22.3872	1976.87
22.5165	1975.17
22.6464	1973.44
22.7772	1971.71
22.9087	1969.96
23.0409	1968.2
23.1739	1966.42
23.3077	1964.64
23.4423	1962.83
23.5776	1961.02
23.7137	1959.2
23.8506	1957.36
23.9883	1955.51
24.1268	1953.64
24.2661	1951.77
24.4062	1949.88
24.5471	1947.98
24.6888	1946.07
24.8313	1944.15
24.9747	1942.22
25.1189	1940.27
25.2639	1938.32
25.4097	1936.35
25.5564	1934.37
25.704	1932.38
25.8523	1930.37
26.0016	1928.36
26.1517	1926.34
26.3027	1924.3
26.4545	1922.25
26.6073	1920.19
26.7609	1918.12
26.9153	1916.04
27.0707	1913.95
27.227	1911.85
27.3842	1909.74
27.5423	1907.62
27.7013	1905.48
27.8612	1903.34
28.0221	1901.18
28.1838	1899.02
28.3465	1896.84
28.5102	1894.65
28.6748	1892.45
28.8403	1890.24
29.0068	1888.02
29.1743	1885.79
29.3427	1883.55
29.5121	1881.3
29.6825	1879.03
29.8538	1876.76
30.0262	1874.47
30.1995	1872.18
30.3739	1869.87
30.5492	1867.55
30.7256	1865.22
30.903	1862.89
31.0814	1860.54
31.2608	1858.17
31.4413	1855.8
31.6228	1853.42
31.8053	1851.03
31.989	1848.62
32.1736	1846.21
32.3594	1843.78
32.5462	1841.35
32.7341	1838.9
32.923	1836.44
33.1131	1833.98
33.3043	1831.5
33.4965	1829.01
33.6899	1826.51
33.8844	1824
34.08	1821.48
34.2768	1818.95
34.4747	1816.41
34.6737	1813.86
34.8739	1811.3
35.0752	1808.73
35.2777	1806.15
35.4813	1803.56
35.6862	1800.96
35.8922	1798.35
36.0994	1795.73
36.3078	1793.1
36.5174	1790.46
36.7282	1787.81
36.9403	1785.15
37.1535	1782.48
37.368	1779.8
37.5837	1777.12
37.8007	1774.42
38.0189	1771.72
38.2384	1769.01
38.4592	1766.28
38.6812	1763.55
38.9045	1760.82
39.1291	1758.07
39.355	1755.31
39.5822	1752.55
39.8107	1749.78
40.0405	1747
40.2717	1744.21
40.5042	1741.42
40.738	1738.62
40.9732	1735.82
41.2098	1733.01
41.4477	1730.19
41.6869	1727.36
41.9276	1724.53
42.1697	1721.69
42.4131	1718.84
42.658	1715.99
42.9042	1713.13
43.1519	1710.26
43.401	1707.39
43.6516	1704.51
43.9036	1701.62
44.157	1698.72
44.412	1695.82
44.6684	1692.91
44.9262	1689.99
45.1856	1687.07
45.4465	1684.14
45.7088	1681.21
45.9727	1678.27
46.2381	1675.32
46.505	1672.36
46.7735	1669.4
47.0435	1666.43
47.3151	1663.46
47.5883	1660.48
47.863	1657.49
48.1393	1654.5
48.4172	1651.5
48.6968	1648.5
48.9779	1645.49
49.2606	1642.47
49.545	1639.45
49.831	1636.42
50.1187	1633.38
50.4081	1630.34
50.6991	1627.3
50.9918	1624.25
51.2861	1621.19
51.5822	1618.13
51.88	1615.06
52.1795	1611.99
52.4807	1608.91
52.7837	1605.83
53.0884	1602.74
53.3949	1599.65
53.7032	1596.55
54.0132	1593.44
54.325	1590.33
54.6387	1587.21
54.9541	1584.09
55.2713	1580.96
55.5904	1577.83
55.9114	1574.69
56.2341	1571.54
56.5588	1568.4
56.8853	1565.25
57.2137	1562.09
57.544	1558.93
57.8762	1555.76
58.2103	1552.59
58.5464	1549.42
58.8844	1546.24
59.2243	1543.06
59.5662	1539.87
59.9101	1536.68
60.256	1533.48
60.6038	1530.28
60.9537	1527.08
61.3056	1523.87
61.6595	1520.66
62.0155	1517.44
62.3735	1514.22
62.7336	1510.99
63.0957	1507.77
63.46	1504.53
63.8263	1501.3
64.1948	1498.06
64.5654	1494.81
64.9382	1491.57
65.3131	1488.31
65.6901	1485.06
66.0693	1481.8
66.4508	1478.54
66.8344	1475.27
67.2202	1472
67.6083	1468.73
67.9986	1465.45
68.3912	1462.17
68.786	1458.88
69.1831	1455.59
69.5825	1452.3
69.9842	1449
70.3882	1445.71
70.7946	1442.4
71.2033	1439.1
71.6143	1435.79
72.0278	1432.48
72.4436	1429.16
72.8618	1425.85
73.2825	1422.53
73.7055	1419.21
74.131	1415.88
74.559	1412.55
74.9894	1409.22
75.4223	1405.89
75.8578	1402.56
76.2957	1399.22
76.7361	1395.88
77.1792	1392.54
77.6247	1389.19
78.0728	1385.85
78.5236	1382.5
78.9769	1379.15
79.4328	1375.8
79.8914	1372.45
80.3526	1369.09
80.8165	1365.74
81.2831	1362.38
81.7523	1359.01
82.2243	1355.65
82.699	1352.29
83.1764	1348.92
83.6566	1345.55
84.1395	1342.18
84.6253	1338.81
85.1138	1335.44
85.6052	1332.07
86.0994	1328.7
86.5964	1325.32
87.0964	1321.95
87.5992	1318.58
88.1049	1315.2
88.6135	1311.82
89.1251	1308.45
89.6396	1305.07
90.1571	1301.69
90.6776	1298.32
91.2011	1294.94
91.7276	1291.56
92.2571	1288.18
92.7897	1284.8
93.3254	1281.42
93.8642	1278.05
94.4061	1274.67
94.9511	1271.29
95.4993	1267.91
96.0506	1264.53
96.6051	1261.15
97.1628	1257.78
97.7237	1254.4
98.2879	1251.02
98.8553	1247.64
99.426	1244.27
100	1240.89
100.577	1237.51
101.158	1234.14
101.742	1230.76
102.329	1227.39
102.92	1224.01
103.514	1220.63
104.112	1217.26
104.713	1213.88
105.317	1210.51
105.925	1207.14
106.537	1203.76
107.152	1200.39
107.771	1197.01
108.393	1193.65
109.018	1190.28
109.648	1186.92
110.281	1183.56
110.917	1180.2
111.558	1176.84
112.202	1173.48
112.85	1170.12
113.501	1166.76
114.156	1163.4
114.815	1160.05
115.478	1156.69
116.145	1153.34
116.815	1149.98
117.49	1146.63
118.168	1143.28
118.85	1139.93
119.536	1136.58
120.226	1133.23
120.921	1129.89
121.619	1126.55
122.321	1123.21
123.027	1119.87
123.737	1116.53
124.451	1113.19
125.17	1109.86
125.893	1106.53
126.619	1103.2
127.35	1099.88
128.086	1096.55
128.825	1093.23
129.569	1089.91
130.317	1086.59
131.069	1083.28
131.826	1079.97
132.587	1076.66
133.352	1073.36
134.122	1070.05
134.896	1066.75
135.675	1063.45
136.458	1060.15
137.246	1056.86
138.038	1053.57
138.835	1050.28
139.637	1046.99
140.443	1043.71
141.254	1040.43
142.069	1037.15
142.889	1033.88
143.714	1030.61
144.544	1027.35
145.378	1024.08
146.218	1020.83
147.062	1017.57
147.911	1014.32
148.765	1011.07
149.624	1007.83
150.487	1004.59
151.356	1001.36
152.23	998.127
153.109	994.9
153.993	991.677
154.882	988.459
155.776	985.244
156.675	982.033
157.58	978.827
158.489	975.624
159.404	972.426
160.325	969.231
161.25	966.041
162.181	962.854
163.117	959.671
164.059	956.493
165.006	953.318
165.959	950.148
166.917	946.981
167.88	943.819
168.85	940.662
169.824	937.508
170.805	934.36
171.791	931.215
172.783	928.076
173.78	924.941
174.783	921.81
175.792	918.684
176.807	915.563
177.828	912.447
178.855	909.335
179.887	906.228
180.926	903.126
181.97	900.029
183.021	896.937
184.077	893.849
185.14	890.766
186.209	887.688
187.284	884.614
188.365	881.545
189.452	878.481
190.546	875.422
191.646	872.367
192.752	869.317
193.865	866.272
194.984	863.232
196.11	860.197
197.242	857.167
198.381	854.142
199.526	851.123
200.678	848.109
201.837	845.1
203.002	842.096
204.174	839.098
205.353	836.106
206.538	833.119
207.73	830.138
208.93	827.162
210.136	824.191
211.349	821.227
212.569	818.268
213.796	815.315
215.03	812.367
216.272	809.425
217.52	806.489
218.776	803.558
220.039	800.633
221.309	797.714
222.587	794.801
223.872	791.894
225.165	788.992
226.464	786.097
227.772	783.208
229.087	780.325
230.409	777.448
231.739	774.577
233.077	771.713
234.423	768.854
235.776	766.002
237.137	763.156
238.506	760.315
239.883	757.482
241.268	754.654
242.661	751.832
244.062	749.017
245.471	746.207
246.888	743.404
248.313	740.606
249.747	737.815
251.189	735.03
252.639	732.252
254.097	729.479
255.564	726.713
257.04	723.952
258.523	721.198
260.016	718.45
261.517	715.708
263.027	712.972
264.545	710.242
266.073	707.518
267.609	704.8
269.153	702.087
270.707	699.378
272.27	696.673
273.842	693.973
275.423	691.28
277.013	688.592
278.612	685.911
280.221	683.236
281.838	680.567
283.465	677.905
285.102	675.249
286.748	672.6
288.403	669.958
290.068	667.323
291.743	664.695
293.427	662.073
295.121	659.459
296.825	656.852
298.538	654.253
300.262	651.661
301.995	649.076
303.739	646.5
305.492	643.93
307.256	641.369
309.03	638.815
310.814	636.269
312.608	633.731
314.413	631.201
316.228	628.679
318.053	626.165
319.89	623.659
321.736	621.162
323.594	618.672
325.462	616.191
327.341	613.718
329.23	611.253
331.131	608.797
333.043	606.349
334.965	603.909
336.899	601.478
338.844	599.054
340.8	596.639
342.768	594.233
344.747	591.834
346.737	589.444
348.739	587.062
350.752	584.688
352.777	582.322
354.813	579.964
356.862	577.614
358.922	575.272
360.994	572.937
363.078	570.611
365.174	568.292
367.282	565.98
369.403	563.675
371.535	561.378
373.68	559.088
375.837	556.805
378.007	554.528
380.189	552.258
382.384	549.995
384.592	547.737
386.812	545.486
389.045	543.24
391.291	541
393.55	538.765
395.822	536.534
398.107	534.309
400.405	532.088
402.717	529.872
405.042	527.66
407.38	525.5
409.732	523.345
412.098	521.193
414.477	519.046
416.869	516.903
419.276	514.764
421.697	512.629
424.131	510.5
426.58	508.374
429.042	506.254
431.519	504.138
434.01	502.027
436.516	499.921
439.036	497.821
441.57	495.725
444.12	493.635
446.684	491.55
449.262	489.471
451.856	487.398
454.465	485.33
457.088	483.268
459.727	481.212
462.381	479.162
465.05	477.117
467.735	475.08
470.435	473.048
473.151	471.023
475.883	469.004
478.63	466.991
481.393	464.986
484.172	462.987
486.968	460.994
489.779	459.009
492.606	457.03
495.45	455.058
498.31	453.093
501.187	451.136
504.081	449.185
506.991	447.242
509.918	445.306
512.861	443.377
515.822	441.455
518.8	439.541
521.795	437.635
524.807	435.735
527.837	433.844
530.884	431.959
533.949	430.083
537.032	428.214
540.132	426.352
543.25	424.489
546.387	422.633
549.541	420.785
552.713	418.944
555.904	417.111
559.114	415.286
562.341	413.469
565.588	411.66
568.853	409.858
572.137	408.064
575.44	406.278
578.762	404.5
582.103	402.73
585.464	400.968
588.844	399.213
592.243	397.467
595.662	395.728
599.101	393.997
602.56	392.274
606.038	390.558
609.537	388.85
613.056	387.15
616.595	385.457
620.155	383.772
623.735	382.095
627.336	380.424
630.957	378.761
634.6	377.106
638.263	375.457
641.948	373.815
645.654	372.18
649.382	370.552
653.131	368.931
656.901	367.316
660.693	365.707
664.508	364.104
668.344	362.508
672.202	360.917
676.083	359.332
679.986	357.752
683.912	356.177
687.86	354.608
691.831	353.045
695.825	351.487
699.842	349.935
703.882	348.389
707.946	346.848
712.033	345.314
716.143	343.785
720.278	342.262
724.436	340.745
728.618	339.234
732.825	337.729
737.055	336.23
741.31	334.737
745.59	333.25
749.894	331.769
754.223	330.294
758.578	328.825
762.957	327.362
767.361	325.905
771.792	324.454
776.247	323.009
780.728	321.57
785.236	320.136
789.769	318.709
794.328	317.288
798.914	315.872
803.526	314.462
808.165	313.057
812.831	311.657
817.523	310.261
822.243	308.871
826.99	307.486
831.764	306.108
836.566	304.735
841.395	303.368
846.253	302.007
851.138	300.651
856.052	299.302
860.994	297.959
865.964	296.622
870.964	295.291
875.992	293.966
881.049	292.647
886.135	291.334
891.251	290.027
896.396	288.726
901.571	287.432
906.776	286.144
912.011	284.862
917.276	283.586
922.571	282.316
927.897	281.053
933.254	279.795
938.642	278.544
944.061	277.299
949.511	276.06
954.993	274.826
960.506	273.599
966.051	272.378
971.628	271.163
977.237	269.954
982.879	268.75
988.553	267.552
994.26	266.36
1000	265.173
1005.77	263.992
1011.58	262.817
1017.42	261.646
1023.29	260.481
1029.2	259.322
1035.14	258.167
1041.12	257.017
1047.13	255.871
1053.17	254.731
1059.25	253.595
1065.37	252.463
1071.52	251.335
1077.71	250.212
1083.93	249.098
1090.18	247.992
1096.48	246.889
1102.81	245.79
1109.17	244.696
1115.58	243.605
1122.02	242.519
1128.5	241.436
1135.01	240.358
1141.56	239.284
1148.15	238.215
1154.78	237.149
1161.45	236.088
1168.15	235.031
1174.9	233.979
1181.68	232.931
1188.5	231.887
1195.36	230.848
1202.26	229.814
1209.21	228.784
1216.19	227.759
1223.21	226.738
1230.27	225.722
1237.37	224.71
1244.51	223.703
1251.7	222.7
1258.93	221.703
1266.19	220.71
1273.5	219.721
1280.86	218.737
1288.25	217.758
1295.69	216.783
1303.17	215.813
1310.69	214.848
1318.26	213.887
1325.87	212.931
1333.52	211.98
1341.22	211.033
1348.96	210.09
1356.75	209.15
1364.58	208.214
1372.46	207.283
1380.38	206.356
1388.35	205.434
1396.37	204.516
1404.43	203.603
1412.54	202.694
1420.69	201.79
1428.89	200.89
1437.14	199.995
1445.44	199.104
1453.78	198.218
1462.18	197.336
1470.62	196.458
1479.11	195.586
1487.65	194.717
1496.24	193.853
1504.87	192.993
1513.56	192.138
1522.3	191.287
1531.09	190.44
1539.93	189.597
1548.82	188.759
1557.76	187.924
1566.75	187.094
1575.8	186.267
1584.89	185.445
1594.04	184.626
1603.25	183.811
1612.5	183
1621.81	182.192
1631.17	181.388
1640.59	180.587
1650.06	179.789
1659.59	178.996
1669.17	178.205
1678.8	177.419
1688.5	176.636
1698.24	175.856
1708.05	175.081
1717.91	174.308
1727.83	173.54
1737.8	172.775
1747.83	172.014
1757.92	171.256
1768.07	170.502
1778.28	169.752
1788.55	169.005
1798.87	168.262
1809.26	167.522
1819.7	166.786
1830.21	166.054
1840.77	165.325
1851.4	164.6
1862.09	163.878
1872.84	163.159
1883.65	162.444
1894.52	161.733
1905.46	161.024
1916.46	160.32
1927.52	159.618
1938.65	158.92
1949.84	158.225
1961.1	157.534
1972.42	156.846
1983.81	156.161
1995.26	155.48
2006.78	154.802
2018.37	154.128
2030.02	153.457
2041.74	152.789
2053.53	152.125
2065.38	151.464
2077.3	150.806
2089.3	150.151
2101.36	149.5
2113.49	148.852
2125.69	148.207
2137.96	147.565
2150.3	146.927
2162.72	146.291
2175.2	145.658
2187.76	145.029
2200.39	144.402
2213.09	143.778
2225.87	143.158
2238.72	142.54
2251.65	141.926
2264.64	141.315
2277.72	140.706
2290.87	140.101
2304.09	139.499
2317.39	138.9
2330.77	138.304
2344.23	137.71
2357.76	137.12
2371.37	136.533
2385.06	135.949
2398.83	135.368
2412.68	134.789
2426.61	134.214
2440.62	133.642
2454.71	133.072
2468.88	132.505
2483.13	131.941
2497.47	131.38
2511.89	130.821
2526.39	130.266
2540.97	129.713
2555.64	129.162
2570.4	128.615
2585.23	128.07
2600.16	127.527
2615.17	126.958
2630.27	126.381
2645.45	125.807
2660.73	125.236
2676.09	124.667
2691.53	124.101
2707.07	123.538
2722.7	122.976
2738.42	122.416
2754.23	121.86
2770.13	121.306
2786.12	120.754
2802.21	120.205
2818.38	119.659
2834.65	119.116
2851.02	118.575
2867.48	118.037
2884.03	117.502
2900.68	116.97
2917.43	116.44
2934.27	115.913
2951.21	115.39
2968.25	114.869
2985.38	114.35
3002.62	113.835
3019.95	113.323
3037.39	112.813
3054.92	112.307
3072.56	111.803
3090.3	111.302
3108.14	110.805
3126.08	110.31
3144.13	109.818
3162.28	109.329
3180.53	108.843
3198.9	108.36
3217.36	107.88
3235.94	107.403
3254.62	106.929
3273.41	106.458
3292.3	105.99
3311.31	105.525
3330.43	105.062
3349.65	104.603
3368.99	104.146
3388.44	103.693
3408	103.242
3427.68	102.794
3447.47	102.349
3467.37	101.907
3487.39	101.468
3507.52	101.031
3527.77	100.597
3548.13	100.166
3568.62	99.7379
3589.22	99.3121
3609.94	98.8889
3630.78	98.4682
3651.74	98.0501
3672.82	97.6345
3694.03	97.2213
3715.35	96.8105
3736.8	96.402
3758.37	95.9957
3780.07	95.5917
3801.89	95.1898
3823.84	94.79
3845.92	94.3922
3868.12	93.9963
3890.45	93.6022
3912.91	93.21
3935.5	92.8194
3958.22	92.4304
3981.07	92.0429
4004.05	91.6568
4027.17	91.2721
4050.42	90.8887
4073.8	90.5181
4097.32	90.1486
4120.98	89.7803
4144.77	89.4133
4168.69	89.0474
4192.76	88.6829
4216.97	88.3196
4241.31	87.9576
4265.8	87.5969
4290.42	87.2375
4315.19	86.8795
4340.1	86.5228
4365.16	86.1675
4390.36	85.8136
4415.7	85.4612
4441.2	85.1101
4466.84	84.7605
4492.62	84.4124
4518.56	84.0658
4544.65	83.7206
4570.88	83.377
4597.27	83.0349
4623.81	82.6944
4650.5	82.3554
4677.35	82.018
4704.35	81.6822
4731.51	81.348
4758.83	81.0154
4786.3	80.6845
4813.93	80.3552
4841.72	80.0276
4869.68	79.7016
4897.79	79.3774
4926.06	79.0548
4954.5	78.734
4983.1	78.4149
5011.87	78.0975
5040.81	77.7819
5069.91	77.468
5099.18	77.1559
5128.61	76.8455
5158.22	76.537
5188	76.2302
5217.95	75.9252
5248.07	75.622
5278.37	75.3207
5308.84	75.0211
5339.49	74.7234
5370.32	74.4274
5401.32	74.1332
5432.5	73.8392
5463.87	73.5469
5495.41	73.2565
5527.13	72.9678
5559.04	72.681
5591.14	72.3961
5623.41	72.1129
5655.88	71.8316
5688.53	71.552
5721.37	71.2743
5754.4	70.9985
5787.62	70.7244
5821.03	70.4521
5854.64	70.1816
5888.44	69.9129
5922.43	69.646
5956.62	69.3809
5991.01	69.1175
6025.6	68.8558
6060.38	68.5959
6095.37	68.3377
6130.56	68.0812
6165.95	67.8263
6201.55	67.5732
6237.35	67.3216
6273.36	67.0717
6309.57	66.8233
6346	66.5765
6382.63	66.3313
6419.48	66.0875
6456.54	65.8452
6493.82	65.6044
6531.31	65.3649
6569.01	65.1268
6606.93	64.8901
6645.08	64.6546
6683.44	64.4204
6722.02	64.1873
6760.83	63.9554
6799.86	63.7245
6839.12	63.4947
6878.6	63.2661
6918.31	63.0386
6958.25	62.8122
6998.42	62.587
7038.82	62.3629
7079.46	62.1399
7120.33	61.9181
7161.43	61.6975
7202.78	61.478
7244.36	61.2597
7286.18	61.0426
7328.25	60.8266
7370.55	60.6118
7413.1	60.3982
7455.9	60.1857
7498.94	59.9744
7542.23	59.7643
7585.78	59.5553
7629.57	59.3475
7673.61	59.1409
7717.92	58.9354
7762.47	58.731
7807.28	58.5278
7852.36	58.3257
7897.69	58.1248
7943.28	57.925
7989.14	57.7263
8035.26	57.5286
8081.65	57.3321
8128.31	57.1364
8175.23	56.9416
8222.43	56.7478
8269.9	56.5552
8317.64	56.3636
8365.66	56.1731
8413.95	55.9838
8462.53	55.7955
8511.38	55.6084
8560.52	55.4223
8609.94	55.2374
8659.64	55.0536
8709.64	54.871
8759.92	54.6894
8810.49	54.509
8861.35	54.3298
8912.51	54.1516
8963.96	53.9746
9015.71	53.7988
9067.76	53.624
9120.11	53.4504
9172.76	53.2779
9225.71	53.1065
9278.97	52.9363
9332.54	52.7672
9386.42	52.5991
9440.61	52.4322
9495.11	52.2664
9549.93	52.1017
9605.06	51.938
9660.51	51.7754
9716.28	51.6139
9772.37	51.4535
9828.79	51.294
9885.53	51.1356
9942.6	50.9782
10000	50.8219
10057.7	50.6665
10115.8	50.512
10174.2	50.3585
10232.9	50.206
10292	50.0543
10351.4	49.9035
10411.2	49.7536
10471.3	49.6046
10531.7	49.4563
10592.5	49.3088
10653.7	49.1621
10715.2	49.0162
10777.1	48.8709
10839.3	48.7272
10901.8	48.5847
10964.8	48.4429
11028.1	48.3018
11091.7	48.1614
11155.8	48.0217
11220.2	47.8826
11285	47.7443
11350.1	47.6067
11415.6	47.4698
11481.5	47.3336
11547.8	47.1982
11614.5	47.0634
11681.5	46.9295
11749	46.7962
11816.8	46.6637
11885	46.532
11953.6	46.401
12022.6	46.2708
12092.1	46.1413
12161.9	46.0126
12232.1	45.8847
12302.7	45.7576
12373.7	45.6312
12445.1	45.5055
12517	45.3807
12589.3	45.2566
12661.9	45.1333
12735	45.0108
12808.6	44.889
12882.5	44.768
12956.9	44.6478
13031.7	44.5284
13106.9	44.4097
13182.6	44.2918
13258.7	44.1746
13335.2	44.0582
13412.2	43.9426
13489.6	43.8277
13567.5	43.7133
13645.8	43.5995
13724.6	43.4866
13803.8	43.3743
13883.5	43.2628
13963.7	43.1521
14044.3	43.0421
14125.4	42.9328
14206.9	42.8243
14288.9	42.7165
14371.4	42.6095
14454.4	42.5032
14537.8	42.3976
14621.8	42.2928
14706.2	42.1887
14791.1	42.0853
14876.5	41.9826
14962.4	41.8807
15048.7	41.7794
15135.6	41.6789
15223	41.579
15310.9	41.4799
15399.3	41.3814
15488.2	41.2836
15577.6	41.1864
15667.5	41.0899
15758	40.994
15848.9	40.8988
15940.4	40.8042
16032.5	40.7101
16125	40.6167
16218.1	40.5238
16311.7	40.4315
16405.9	40.3398
16500.6	40.2486
16595.9	40.1579
16691.7	40.0679
16788	39.9784
16885	39.8895
16982.4	39.8012
17080.5	39.7134
17179.1	39.6262
17278.3	39.5396
17378	39.4536
17478.3	39.3681
17579.2	39.2832
17680.7	39.1989
17782.8	39.1152
17885.5	39.032
17988.7	38.9494
18092.6	38.8674
18197	38.7859
18302.1	38.705
18407.7	38.6247
18514	38.5449
18620.9	38.4657
18728.4	38.387
18836.5	38.3088
18945.2	38.2312
19054.6	38.1541
19164.6	38.0776
19275.2	38.0016
19386.5	37.9261
19498.4	37.8511
19611	37.7767
19724.2	37.7028
19838.1	37.6294
19952.6	37.5566
20067.8	37.4843
20183.7	37.4125
20300.2	37.3412
20417.4	37.2705
20535.3	37.2002
20653.8	37.1305
20773	37.0613
20893	36.9925
21013.6	36.9243
21134.9	36.8566
21256.9	36.7893
21379.6	36.7226
21503	36.6562
21627.2	36.5904
21752	36.525
21877.6	36.4601
22003.9	36.3956
22130.9	36.3316
22258.7	36.2681
22387.2	36.205
22516.5	36.1424
22646.4	36.0802
22777.2	36.0185
22908.7	35.9572
23040.9	35.8964
23173.9	35.836
23307.7	35.7761
23442.3	35.7166
23577.6	35.6576
23713.7	35.599
23850.6	35.5409
23988.3	35.4832
24126.8	35.4259
24266.1	35.369
24406.2	35.3125
24547.1	35.2565
24688.8	35.2009
24831.3	35.1456
24974.7	35.0908
25118.9	35.0363
25263.9	34.9822
25409.7	34.9285
25556.4	34.8751
25704	34.8221
25852.3	34.7694
26001.6	34.7171
26151.7	34.6651
26302.7	34.6134
26454.5	34.562
26607.3	34.5108
26760.9	34.46
26915.3	34.4093
27070.7	34.3577
27227	34.3047
27384.2	34.2522
27542.3	34.2
27701.3	34.1482
27861.2	34.0968
28022.1	34.0458
28183.8	33.9952
28346.5	33.9449
28510.2	33.8951
28674.8	33.8456
28840.3	33.7964
29006.8	33.7477
29174.3	33.6993
29342.7	33.6513
29512.1	33.6036
29682.5	33.5563
29853.8	33.5094
30026.2	33.4628
30199.5	33.4166
30373.9	33.3707
30549.2	33.3252
30725.6	33.28
30903	33.2352
31081.4	33.1907
31260.8	33.1466
31441.3	33.1028
31622.8	33.0593
31805.3	33.0162
31989	32.9735
32173.6	32.931
32359.4	32.8889
32546.2	32.8471
32734.1	32.8057
32923	32.7645
33113.1	32.7237
33304.3	32.6833
33496.5	32.6431
33689.9	32.6033
33884.4	32.5637
34080	32.5245
34276.8	32.4856
34474.7	32.447
34673.7	32.4088
34873.9	32.3708
35075.2	32.3332
35277.7	32.2958
35481.3	32.2587
35686.2	32.222
35892.2	32.1855
36099.4	32.1494
36307.8	32.1135
36517.4	32.078
36728.2	32.0427
36940.3	32.0077
37153.5	31.973
37368	31.9386
37583.7	31.9045
37800.7	31.8706
38018.9	31.8371
38238.4	31.8038
38459.2	31.7708
38681.2	31.7381
38904.5	31.7056
39129.1	31.6735
39355	31.6416
39582.2	31.6099
39810.7	31.5786
40040.5	31.5475
40271.7	31.5166
40504.2	31.4861
40738	31.4558
40973.2	31.4257
41209.8	31.3959
41447.7	31.3664
41686.9	31.3371
41927.6	31.3081
42169.7	31.2794
42413.1	31.2508
42658	31.2226
42904.2	31.1946
43151.9	31.1668
43401	31.1393
43651.6	31.112
43903.6	31.0849
44157	31.0582
44412	31.0316
44668.4	31.0053
44926.2	30.9792
45185.6	30.9533
45446.5	30.9277
45708.8	30.9023
45972.7	30.8772
46238.1	30.8522
46505	30.8275
46773.5	30.8031
47043.5	30.7788
47315.1	30.7548
47588.3	30.731
47863	30.7074
48139.3	30.684
48417.2	30.6609
48696.8	30.6379
48977.9	30.6152
49260.6	30.5927
49545	30.5704
49831	30.5483
50118.7	30.5265
50408.1	30.5048
50699.1	30.4833
50991.8	30.4621
51286.1	30.441
51582.2	30.4202
51880	30.3995
52179.5	30.3791
52480.7	30.3588
52783.7	30.3388
53088.4	30.3189
53394.9	30.2992
53703.2	30.2798
54013.2	30.2605
54325	30.2414
54638.7	30.2225
54954.1	30.2038
55271.3	30.1853
55590.4	30.1669
55911.4	30.1488
56234.1	30.1308
56558.8	30.113
56885.3	30.0954
57213.7	30.078
57544	30.0607
57876.2	30.0436
58210.3	30.0267
58546.4	30.01
58884.4	29.9935
59224.3	29.9771
59566.2	29.9609
59910.1	29.9448
60256	29.9289
60603.8	29.9132
60953.7	29.8977
61305.6	29.8823
61659.5	29.8671
62015.5	29.8521
62373.5	29.8372
62733.6	29.8225
63095.7	29.8079
63460	29.7935
63826.3	29.7792
64194.8	29.7651
64565.4	29.7512
64938.2	29.7374
65313.1	29.7238
65690.1	29.7103
66069.3	29.697
66450.8	29.6838
66834.4	29.6707
67220.2	29.6578
67608.3	29.6451
67998.6	29.6325
68391.2	29.6201
68786	29.6077
69183.1	29.5956
69582.5	29.5835
69984.2	29.5716
70388.2	29.5599
70794.6	29.5483
71203.3	29.5368
71614.3	29.5255
72027.8	29.5143
72443.6	29.5032
72861.8	29.4922
73282.5	29.4814
73705.5	29.4707
74131	29.4602
74559	29.4498
74989.4	29.4395
75422.3	29.4293
75857.8	29.4193
76295.7	29.4094
76736.1	29.3996
77179.2	29.3899
77624.7	29.3803
78072.8	29.3709
78523.6	29.3616
78976.9	29.3524
79432.8	29.3433
79891.4	29.3344
80352.6	29.3255
80816.5	29.3168
81283.1	29.3082
81752.3	29.2997
82224.3	29.2913
82699	29.283
83176.4	29.2749
83656.6	29.2668
84139.5	29.2589
84625.3	29.251
85113.8	29.2433
85605.2	29.2357
86099.4	29.2282
86596.4	29.2207
87096.4	29.2134
87599.2	29.2062
88104.9	29.1991
88613.5	29.1921
89125.1	29.1852
89639.6	29.1784
90157.1	29.1717
90677.6	29.1651
91201.1	29.1586
91727.6	29.1521
92257.1	29.1458
92789.7	29.1396
93325.4	29.1335
93864.2	29.1274
94406.1	29.1215
94951.1	29.1156
95499.3	29.1098
96050.6	29.1042
96605.1	29.0986
97162.8	29.0931
97723.7	29.0877
98287.9	29.0823
98855.3	29.0771
99426	29.0719
100000	29.0668
100577	29.0619
101158	29.0569
101742	29.0521
102329	29.0474
102920	29.0427
103514	29.0381
104112	29.0336
104713	29.0292
105317	29.0248
105925	29.0206
106537	29.0164
107152	29.0122
107771	29.0082
108393	29.0042
109018	29.0003
109648	28.9965
110281	28.9927
110917	28.9891
111558	28.9854
112202	28.9819
112850	28.9784
113501	28.975
114156	28.9717
114815	28.9684
115478	28.9652
116145	28.9621
116815	28.959
117490	28.956
118168	28.953
118850	28.9502
119536	28.9473
120226	28.9446
120921	28.9419
121619	28.9393
122321	28.9367
123027	28.9342
123737	28.9317
124451	28.9293
125170	28.927
125893	28.9247
126619	28.9225
127350	28.9203
128086	28.9182
128825	28.9161
129569	28.9141
130317	28.9122
131069	28.9103
131826	28.9084
132587	28.9067
133352	28.9049
134122	28.9032
134896	28.9016
135675	28.9
136458	28.8985
137246	28.897
138038	28.8955
138835	28.8941
139637	28.8928
140443	28.8915
141254	28.8902
142069	28.889
142889	28.8879
143714	28.8868
144544	28.8857
145378	28.8847
146218	28.8837
147062	28.8827
147911	28.8818
148765	28.881
149624	28.8801
150487	28.8794
151356	28.8786
152230	28.8779
153109	28.8773
153993	28.8766
154882	28.8761
155776	28.8755
156675	28.875
157580	28.8745
158489	28.8741
159404	28.8737
160325	28.8734
161250	28.873
162181	28.8727
163117	28.8725
164059	28.8723
165006	28.8721
165959	28.8719
166917	28.8718
167880	28.8717
168850	28.8716
169824	28.8716
170805	28.8716
171791	28.8716
172783	28.8717
173780	28.8718
174783	28.8719
175792	28.8721
176807	28.8723
177828	28.8725
178855	28.8727
179887	28.873
180926	28.8733
181970	28.8736
183021	28.8739
184077	28.8743
185140	28.8747
186209	28.8751
187284	28.8756
188365	28.876
189452	28.8765
190546	28.877
191646	28.8776
192752	28.8781
193865	28.8787
194984	28.8793
196110	28.88
197242	28.8806
198381	28.8813
199526	28.882
200678	28.8827
201837	28.8834
203002	28.8842
204174	28.885
205353	28.8858
206538	28.8866
207730	28.8874
208930	28.8883
210136	28.8891
211349	28.89
212569	28.8909
213796	28.8919
215030	28.8928
216272	28.8938
217520	28.8947
218776	28.8957
220039	28.8967
221309	28.8978
222587	28.8988
223872	28.8998
225165	28.9009
226464	28.902
227772	28.9031
229087	28.9042
230409	28.9053
231739	28.9064
233077	28.9076
234423	28.9088
235776	28.9099
237137	28.9111
238506	28.9123
239883	28.9135
241268	28.9147
242661	28.916
244062	28.9172
245471	28.9185
246888	28.9197
248313	28.921
249747	28.9223
251189	28.9236
252639	28.9249
254097	28.9262
255564	28.9275
257040	28.9289
258523	28.9302
260016	28.9316
261517	28.9329
263027	28.9343
264545	28.9357
266073	28.937
267609	28.9384
269153	28.9398
270707	28.9412
272270	28.9427
273842	28.9441
275423	28.9455
277013	28.9469
278612	28.9484
280221	28.9498
281838	28.9513
283465	28.9527
285102	28.9542
286748	28.9556
288403	28.9571
290068	28.9586
291743	28.96
293427	28.9615
295121	28.963
296825	28.9645
298538	28.966
300262	28.9675
301995	28.969
303739	28.9705
305492	28.972
307256	28.9735
309030	28.975
310814	28.9766
312608	28.9781
314413	28.9796
316228	28.9811
318053	28.9827
319890	28.9842
321736	28.9857
323594	28.9873
325462	28.9888
327341	28.9903
329230	28.9919
331131	28.9934
333043	28.9949
334965	28.9965
336899	28.998
338844	28.9996
340800	29.0011
342768	29.0026
344747	29.0042
346737	29.0057
348739	29.0073
350752	29.0088
352777	29.0103
354813	29.0119
356862	29.0134
358922	29.015
360994	29.0165
363078	29.018
365174	29.0196
367282	29.0211
369403	29.0226
371535	29.0242
373680	29.0257
375837	29.0272
378007	29.0288
380189	29.0303
382384	29.0318
384592	29.0333
386812	29.0349
389045	29.0364
391291	29.0379
393550	29.0394
395822	29.0409
398107	29.0424
400405	29.0439
402717	29.0454
405042	29.0469
407380	29.0484
409732	29.0499
412098	29.0514
414477	29.0529
416869	29.0544
419276	29.0558
421697	29.0573
424131	29.0588
426580	29.0603
429042	29.0617
431519	29.0632
434010	29.0646
436516	29.0661
439036	29.0676
441570	29.069
444120	29.0704
446684	29.0719
449262	29.0733
451856	29.0747
454465	29.0762
457088	29.0776
459727	29.079
462381	29.0804
465050	29.0818
467735	29.0832
470435	29.0846
473151	29.086
475883	29.0874
478630	29.0888
481393	29.0901
484172	29.0915
486968	29.0929
489779	29.0942
492606	29.0956
495450	29.0969
498310	29.0983
501187	29.0996
504081	29.1009
506991	29.1023
509918	29.1036
512861	29.1049
515822	29.1062
518800	29.1075
521795	29.1088
524807	29.1101
527837	29.1114
530884	29.1127
533949	29.114
537032	29.1152
540132	29.1165
543250	29.1177
546387	29.119
549541	29.1202
552713	29.1215
555904	29.1227
559114	29.1239
562341	29.1251
565588	29.1264
568853	29.1276
572137	29.1288
575440	29.13
578762	29.1312
582103	29.1323
585464	29.1335
588844	29.1347
592243	29.1358
595662	29.137
599101	29.1381
602560	29.1393
606038	29.1404
609537	29.1415
613056	29.1427
616595	29.1438
620155	29.1449
623735	29.146
627336	29.1471
630957	29.1482
634600	29.1493
638263	29.1503
641948	29.1514
645654	29.1525
649382	29.1535
653131	29.1546
656901	29.1556
660693	29.1566
664508	29.1577
668344	29.1587
672202	29.1597
676083	29.1607
679986	29.1617
683912	29.1627
687860	29.1637
691831	29.1646
695825	29.1656
699842	29.1666
703882	29.1675
707946	29.1685
712033	29.1694
716143	29.1704
720278	29.1713
724436	29.1722
728618	29.1731
732825	29.174
737055	29.1749
741310	29.1758
745590	29.1767
749894	29.1776
754223	29.1785
758578	29.1793
762957	29.1802
767361	29.181
771792	29.1819
776247	29.1827
780728	29.1836
785236	29.1844
789769	29.1852
794328	29.186
798914	29.1868
803526	29.1876
808165	29.1884
812831	29.1892
817523	29.1899
822243	29.1907
826990	29.1915
831764	29.1922
836566	29.193
841395	29.1937
846253	29.1944
851138	29.1952
856052	29.1959
860994	29.1966
865964	29.1973
870964	29.198
875992	29.1987
881049	29.1994
886135	29.2001
891251	29.2007
896396	29.2014
901571	29.2021
906776	29.2027
912011	29.2033
917276	29.204
922571	29.2046
927897	29.2052
933254	29.2059
938642	29.2065
944061	29.2071
949511	29.2077
954993	29.2083
960506	29.2088
966051	29.2094
971628	29.21
977237	29.2106
982879	29.2111
988553	29.2117
994260	29.2122
1e+06	29.2127
1.00577e+06	29.2133
1.01158e+06	29.2138
1.01742e+06	29.2143
1.02329e+06	29.2148
1.0292e+06	29.2153
1.03514e+06	29.2158
1.04112e+06	29.2163
1.04713e+06	29.2168
1.05317e+06	29.2173
1.05925e+06	29.2178
1.06537e+06	29.2183
1.07152e+06	29.2187
1.07771e+06	29.2192
1.08393e+06	29.2196
1.09018e+06	29.2201
1.09648e+06	29.2205
1.10281e+06	29.2209
1.10917e+06	29.2214
1.11558e+06	29.2218
1.12202e+06	29.2222
1.1285e+06	29.2226
1.13501e+06	29.223
1.14156e+06	29.2234
1.14815e+06	29.2238
1.15478e+06	29.2242
1.16145e+06	29.2246
1.16815e+06	29.2249
1.1749e+06	29.2253
1.18168e+06	29.2257
1.1885e+06	29.226
1.19536e+06	29.2264
1.20226e+06	29.2267
1.20921e+06	29.2271
1.21619e+06	29.2274
1.22321e+06	29.2277
1.23027e+06	29.228
1.23737e+06	29.2284
1.24451e+06	29.2287
1.2517e+06	29.229
1.25893e+06	29.2293
1.26619e+06	29.2296
1.2735e+06	29.2299
1.28086e+06	29.2302
1.28825e+06	29.2304
1.29569e+06	29.2307
1.30317e+06	29.231
1.31069e+06	29.2313
1.31826e+06	29.2315
1.32587e+06	29.2318
1.33352e+06	29.232
1.34122e+06	29.2323
1.34896e+06	29.2325
1.35675e+06	29.2327
1.36458e+06	29.233
1.37246e+06	29.2332
1.38038e+06	29.2334
1.38835e+06	29.2336
1.39637e+06	29.2338
1.40443e+06	29.2341
1.41254e+06	29.2343
1.42069e+06	29.2345
1.42889e+06	29.2346
1.43714e+06	29.2348
1.44544e+06	29.235
1.45378e+06	29.2352
1.46218e+06	29.2354
1.47062e+06	29.2355
1.47911e+06	29.2357
1.48765e+06	29.2359
1.49624e+06	29.236
1.50487e+06	29.2362
1.51356e+06	29.2363
1.5223e+06	29.2365
1.53109e+06	29.2366
1.53993e+06	29.2368
1.54882e+06	29.2369
1.55776e+06	29.237
1.56675e+06	29.2371
1.5758e+06	29.2373
1.58489e+06	29.2374
1.59404e+06	29.2375
1.60325e+06	29.2376
1.6125e+06	29.2377
1.62181e+06	29.2378
1.63117e+06	29.2379
1.64059e+06	29.238
1.65006e+06	29.2381
1.65959e+06	29.2382
1.66917e+06	29.2383
1.6788e+06	29.2384
1.6885e+06	29.2384
1.69824e+06	29.2385
1.70805e+06	29.2386
1.71791e+06	29.2386
1.72783e+06	29.2387
1.7378e+06	29.2388
1.74783e+06	29.2388
1.75792e+06	29.2389
1.76807e+06	29.2389
1.77828e+06	29.239
1.78855e+06	29.239
1.79887e+06	29.2391
1.80926e+06	29.2391
1.8197e+06	29.2391
1.83021e+06	29.2392
1.84077e+06	29.2392
1.8514e+06	29.2392
1.86209e+06	29.2393
1.87284e+06	29.2393
1.88365e+06	29.2393
1.89452e+06	29.2393
1.90546e+06	29.2393
1.91646e+06	29.2394
1.92752e+06	29.2394
1.93865e+06	29.2394
1.94984e+06	29.2394
1.9611e+06	29.2394
1.97242e+06	29.2394
1.98381e+06	29.2394
1.99526e+06	29.2394
2.00678e+06	29.2394
2.01837e+06	29.2394
2.03002e+06	29.2394
2.04174e+06	29.2393
2.05353e+06	29.2393
2.06538e+06	29.2393
2.0773e+06	29.2393
2.0893e+06	29.2393
2.10136e+06	29.2393
2.11349e+06	29.2392
2.12569e+06	29.2392
2.13796e+06	29.2392
2.1503e+06	29.2392
2.16272e+06	29.2391
2.1752e+06	29.2391
2.18776e+06	29.2391
2.20039e+06	29.239
2.21309e+06	29.239
2.22587e+06	29.239
2.23872e+06	29.2389
2.25165e+06	29.2389
2.26464e+06	29.2389
2.27772e+06	29.2388
2.29087e+06	29.2388
2.30409e+06	29.2387
2.31739e+06	29.2387
2.33077e+06	29.2387
2.34423e+06	29.2386
2.35776e+06	29.2386
2.37137e+06	29.2385
2.38506e+06	29.2385
2.39883e+06	29.2384
2.41268e+06	29.2384
2.42661e+06	29.2383
2.44062e+06	29.2383
2.45471e+06	29.2382
2.46888e+06	29.2382
2.48313e+06	29.2381
2.49747e+06	29.2381
2.51189e+06	29.238
2.52639e+06	29.238
2.54097e+06	29.2379
2.55564e+06	29.2379
2.5704e+06	29.2378
2.58523e+06	29.2378
2.60016e+06	29.2377
2.61517e+06	29.2377
2.63027e+06	29.2376
2.64545e+06	29.2376
2.66073e+06	29.2375
2.67609e+06	29.2375
2.69153e+06	29.2374
2.70707e+06	29.2374
2.7227e+06	29.2373
2.73842e+06	29.2373
2.75423e+06	29.2372
2.77013e+06	29.2372
2.78612e+06	29.2372
2.80221e+06	29.2371
2.81838e+06	29.2371
2.83465e+06	29.237
2.85102e+06	29.237
2.86748e+06	29.2369
2.88403e+06	29.2369
2.90068e+06	29.2368
2.91743e+06	29.2368
2.93427e+06	29.2367
2.95121e+06	29.2367
2.96825e+06	29.2367
2.98538e+06	29.2366
3.00262e+06	29.2366
3.01995e+06	29.2365
3.03739e+06	29.2365
3.05492e+06	29.2365
3.07256e+06	29.2364
3.0903e+06	29.2364
3.10814e+06	29.2363
3.12608e+06	29.2363
3.14413e+06	29.2363
3.16228e+06	29.2362
3.18053e+06	29.2362
3.1989e+06	29.2361
3.21736e+06	29.2361
3.23594e+06	29.2361
3.25462e+06	29.236
3.27341e+06	29.236
3.2923e+06	29.236
3.31131e+06	29.2359
3.33043e+06	29.2359
3.34965e+06	29.2359
3.36899e+06	29.2358
3.38844e+06	29.2358
3.408e+06	29.2358
3.42768e+06	29.2357
3.44747e+06	29.2357
3.46737e+06	29.2357
3.48739e+06	29.2356
3.50752e+06	29.2356
3.52777e+06	29.2356
3.54813e+06	29.2355
3.56862e+06	29.2355
3.58922e+06	29.2355
3.60994e+06	29.2354
3.63078e+06	29.2354
3.65174e+06	29.2354
3.67282e+06	29.2353
3.69403e+06	29.2353
3.71535e+06	29.2353
3.7368e+06	29.2352
3.75837e+06	29.2352
3.78007e+06	29.2352
3.80189e+06	29.2352
3.82384e+06	29.2351
3.84592e+06	29.2351
3.86812e+06	29.2351
3.89045e+06	29.235
3.91291e+06	29.235
3.9355e+06	29.235
3.95822e+06	29.235
3.98107e+06	29.2349
4.00405e+06	29.2349
4.02717e+06	29.2349
4.05042e+06	29.2349
4.0738e+06	29.2348
4.09732e+06	29.2348
4.12098e+06	29.2348
4.14477e+06	29.2348
4.16869e+06	29.2347
4.19276e+06	29.2347
4.21697e+06	29.2347
4.24131e+06	29.2347
4.2658e+06	29.2346
4.29042e+06	29.2346
4.31519e+06	29.2346
4.3401e+06	29.2346
4.36516e+06	29.2345
4.39036e+06	29.2345
4.4157e+06	29.2345
4.4412e+06	29.2345
4.46684e+06	29.2344
4.49262e+06	29.2344
4.51856e+06	29.2344
4.54465e+06	29.2344
4.57088e+06	29.2344
4.59727e+06	29.2343
4.62381e+06	29.2343
4.6505e+06	29.2343
4.67735e+06	29.2343
4.70435e+06	29.2342
4.73151e+06	29.2342
4.75883e+06	29.2342
4.7863e+06	29.2342
4.81393e+06	29.2342
4.84172e+06	29.2341
4.86968e+06	29.2341
4.89779e+06	29.2341
4.92606e+06	29.2341
4.9545e+06	29.2341
4.9831e+06	29.234
5.01187e+06	29.234
5.04081e+06	29.234
5.06991e+06	29.234
5.09918e+06	29.234
5.12861e+06	29.2339
5.15822e+06	29.2339
5.188e+06	29.2339
5.21795e+06	29.2339
5.24807e+06	29.2339
5.27837e+06	29.2339
5.30884e+06	29.2338
5.33949e+06	29.2338
5.37032e+06	29.2338
5.40132e+06	29.2338
5.4325e+06	29.2338
5.46387e+06	29.2338
5.49541e+06	29.2337
5.52713e+06	29.2337
5.55904e+06	29.2337
5.59114e+06	29.2337
5.62341e+06	29.2337
5.65588e+06	29.2337
5.68853e+06	29.2336
5.72137e+06	29.2336
5.7544e+06	29.2336
5.78762e+06	29.2336
5.82103e+06	29.2336
5.85464e+06	29.2336
5.88844e+06	29.2335
5.92243e+06	29.2335
5.95662e+06	29.2335
5.99101e+06	29.2335
6.0256e+06	29.2335
6.06038e+06	29.2335
6.09537e+06	29.2335
6.13056e+06	29.2334
6.16595e+06	29.2334
6.20155e+06	29.2334
6.23735e+06	29.2334
6.27336e+06	29.2334
6.30957e+06	29.2334
6.346e+06	29.2334
6.38263e+06	29.2333
6.41948e+06	29.2333
6.45654e+06	29.2333
6.49382e+06	29.2333
6.53131e+06	29.2333
6.56901e+06	29.2333
6.60693e+06	29.2333
6.64508e+06	29.2332
6.68344e+06	29.2332
6.72202e+06	29.2332
6.76083e+06	29.2332
6.79986e+06	29.2332
6.83912e+06	29.2332
6.8786e+06	29.2332
6.91831e+06	29.2332
6.95825e+06	29.2331
6.99842e+06	29.2331
7.03882e+06	29.2331
7.07946e+06	29.2331
7.12033e+06	29.2331
7.16143e+06	29.2331
7.20278e+06	29.2331
7.24436e+06	29.2331
7.28618e+06	29.2331
7.32825e+06	29.233
7.37055e+06	29.233
7.4131e+06	29.233
7.4559e+06	29.233
7.49894e+06	29.233
7.54223e+06	29.233
7.58578e+06	29.233
7.62957e+06	29.233
7.67361e+06	29.233
7.71792e+06	29.2329
7.76247e+06	29.2329
7.80728e+06	29.2329
7.85236e+06	29.2329
7.89769e+06	29.2329
7.94328e+06	29.2329
7.98914e+06	29.2329
8.03526e+06	29.2329
8.08165e+06	29.2329
8.12831e+06	29.2329
8.17523e+06	29.2328
8.22243e+06	29.2328
8.2699e+06	29.2328
8.31764e+06	29.2328
8.36566e+06	29.2328
8.41395e+06	29.2328
8.46253e+06	29.2328
8.51138e+06	29.2328
8.56052e+06	29.2328
8.60994e+06	29.2328
8.65964e+06	29.2327
8.70964e+06	29.2327
8.75992e+06	29.2327
8.81049e+06	29.2327
8.86135e+06	29.2327
8.91251e+06	29.2327
8.96396e+06	29.2327
9.01571e+06	29.2327
9.06776e+06	29.2327
9.12011e+06	29.2327
9.17276e+06	29.2327
9.22571e+06	29.2327
9.27897e+06	29.2326
9.33254e+06	29.2326
9.38642e+06	29.2326
9.44061e+06	29.2326
9.49511e+06	29.2326
9.54993e+06	29.2326
9.60506e+06	29.2326
9.66051e+06	29.2326
9.71628e+06	29.2326
9.77237e+06	29.2326
9.82879e+06	29.2326
9.88553e+06	29.2326
9.9426e+06	29.2325
1e+07	29.2325
