Stopping power dEdx from Ionisation for Ar40[0.0] Z = 18 in G4_TISSUE_SOFT_ICRP, process name: ionIoni
E [MeV]	dEdx [MeV/mm]
0.001	60.4723
0.00100577	60.6466
0.00101158	60.8214
0.00101742	60.9967
0.00102329	61.1725
0.0010292	61.3488
0.00103514	61.5256
0.00104112	61.703
0.00104713	61.8808
0.00105317	62.0592
0.00105925	62.2381
0.00106537	62.4175
0.00107152	62.5974
0.00107771	62.7778
0.00108393	62.9588
0.00109018	63.1402
0.00109648	63.3222
0.00110281	63.5047
0.00110917	63.6878
0.00111558	63.8714
0.00112202	64.0555
0.0011285	64.2401
0.00113501	64.4253
0.00114156	64.611
0.00114815	64.7972
0.00115478	64.984
0.00116145	65.1713
0.00116815	65.3591
0.0011749	65.5475
0.00118168	65.7364
0.0011885	65.9259
0.00119536	66.1159
0.00120226	66.3065
0.00120921	66.4976
0.00121619	66.6893
0.00122321	66.8815
0.00123027	67.0743
0.00123737	67.2676
0.00124451	67.4615
0.0012517	67.656
0.00125893	67.851
0.00126619	68.0466
0.0012735	68.2427
0.00128086	68.4394
0.00128825	68.6367
0.00129569	68.8345
0.00130317	69.0329
0.00131069	69.2319
0.00131826	69.4314
0.00132587	69.6316
0.00133352	69.8323
0.00134122	70.0336
0.00134896	70.2354
0.00135675	70.4379
0.00136458	70.6409
0.00137246	70.8445
0.00138038	71.0487
0.00138835	71.2535
0.00139637	71.4589
0.00140443	71.6648
0.00141254	71.8714
0.00142069	72.0786
0.00142889	72.2863
0.00143714	72.4947
0.00144544	72.7036
0.00145378	72.9132
0.00146218	73.1234
0.00147062	73.3341
0.00147911	73.5455
0.00148765	73.7575
0.00149624	73.9701
0.00150487	74.1833
0.00151356	74.3971
0.0015223	74.6116
0.00153109	74.8266
0.00153993	75.0423
0.00154882	75.2586
0.00155776	75.4755
0.00156675	75.6931
0.0015758	75.9113
0.00158489	76.1301
0.00159404	76.3495
0.00160325	76.5696
0.0016125	76.7903
0.00162181	77.0116
0.00163117	77.2336
0.00164059	77.4562
0.00165006	77.6795
0.00165959	77.9034
0.00166917	78.1279
0.0016788	78.3531
0.0016885	78.5789
0.00169824	78.8054
0.00170805	79.0326
0.00171791	79.2604
0.00172783	79.4888
0.0017378	79.718
0.00174783	79.9477
0.00175792	80.1782
0.00176807	80.4093
0.00177828	80.6411
0.00178855	80.8735
0.00179887	81.1066
0.00180926	81.3404
0.0018197	81.5748
0.00183021	81.81
0.00184077	82.0458
0.0018514	82.2823
0.00186209	82.5194
0.00187284	82.7573
0.00188365	82.9958
0.00189452	83.235
0.00190546	83.475
0.00191646	83.7156
0.00192752	83.9569
0.00193865	84.1989
0.00194984	84.4415
0.0019611	84.6849
0.00197242	84.929
0.00198381	85.1738
0.00199526	85.4193
0.00200678	85.6655
0.00201837	85.9125
0.00203002	86.1601
0.00204174	86.4084
0.00205353	86.6575
0.00206538	86.9073
0.0020773	87.1578
0.0020893	87.409
0.00210136	87.661
0.00211349	87.9136
0.00212569	88.167
0.00213796	88.4212
0.0021503	88.676
0.00216272	88.9316
0.0021752	89.188
0.00218776	89.445
0.00220039	89.7028
0.00221309	89.9614
0.00222587	90.2207
0.00223872	90.4807
0.00225165	90.7415
0.00226464	91.0031
0.00227772	91.2654
0.00229087	91.5285
0.00230409	91.7923
0.00231739	92.0569
0.00233077	92.3222
0.00234423	92.5883
0.00235776	92.8552
0.00237137	93.1228
0.00238506	93.3913
0.00239883	93.6604
0.00241268	93.9304
0.00242661	94.2011
0.00244062	94.4727
0.00245471	94.745
0.00246888	95.0181
0.00248313	95.2919
0.00249747	95.5666
0.00251189	95.8421
0.00252639	96.1183
0.00254097	96.3954
0.00255564	96.6732
0.0025704	96.9519
0.00258523	97.2313
0.00260016	97.5116
0.00261517	97.7926
0.00263027	98.0745
0.00264545	98.3572
0.00266073	98.6407
0.00267609	98.925
0.00269153	99.2102
0.00270707	99.4961
0.0027227	99.7829
0.00273842	100.071
0.00275423	100.359
0.00277013	100.648
0.00278612	100.938
0.00280221	101.229
0.00281838	101.521
0.00283465	101.814
0.00285102	102.107
0.00286748	102.401
0.00288403	102.697
0.00290068	102.993
0.00291743	103.29
0.00293427	103.587
0.00295121	103.886
0.00296825	104.185
0.00298538	104.486
0.00300262	104.787
0.00301995	105.089
0.00303739	105.392
0.00305492	105.695
0.00307256	106
0.0030903	106.306
0.00310814	106.612
0.00312608	106.919
0.00314413	107.228
0.00316228	107.537
0.00318053	107.847
0.0031989	108.157
0.00321736	108.469
0.00323594	108.782
0.00325462	109.095
0.00327341	109.41
0.0032923	109.725
0.00331131	110.041
0.00333043	110.359
0.00334965	110.677
0.00336899	110.996
0.00338844	111.316
0.003408	111.636
0.00342768	111.958
0.00344747	112.281
0.00346737	112.605
0.00348739	112.929
0.00350752	113.255
0.00352777	113.581
0.00354813	113.909
0.00356862	114.237
0.00358922	114.566
0.00360994	114.896
0.00363078	115.228
0.00365174	115.56
0.00367282	115.893
0.00369403	116.227
0.00371535	116.562
0.0037368	116.898
0.00375837	117.235
0.00378007	117.573
0.00380189	117.912
0.00382384	118.251
0.00384592	118.592
0.00386812	118.934
0.00389045	119.277
0.00391291	119.621
0.0039355	119.965
0.00395822	120.311
0.00398107	120.658
0.00400405	121.006
0.00402717	121.355
0.00405042	121.704
0.0040738	122.055
0.00409732	122.407
0.00412098	122.76
0.00414477	123.114
0.00416869	123.469
0.00419276	123.824
0.00421697	124.181
0.00424131	124.539
0.0042658	124.898
0.00429042	125.258
0.00431519	125.619
0.0043401	125.981
0.00436516	126.344
0.00439036	126.709
0.0044157	127.074
0.0044412	127.44
0.00446684	127.807
0.00449262	128.176
0.00451856	128.545
0.00454465	128.916
0.00457088	129.287
0.00459727	129.66
0.00462381	130.034
0.0046505	130.409
0.00467735	130.784
0.00470435	131.161
0.00473151	131.54
0.00475883	131.919
0.0047863	132.299
0.00481393	132.68
0.00484172	133.063
0.00486968	133.446
0.00489779	133.831
0.00492606	134.217
0.0049545	134.603
0.0049831	134.991
0.00501187	135.381
0.00504081	135.771
0.00506991	136.162
0.00509918	136.555
0.00512861	136.948
0.00515822	137.343
0.005188	137.739
0.00521795	138.136
0.00524807	138.534
0.00527837	138.933
0.00530884	139.334
0.00533949	139.735
0.00537032	140.138
0.00540132	140.542
0.0054325	140.947
0.00546387	141.353
0.00549541	141.761
0.00552713	142.169
0.00555904	142.579
0.00559114	142.99
0.00562341	143.402
0.00565588	143.816
0.00568853	144.23
0.00572137	144.646
0.0057544	145.063
0.00578762	145.481
0.00582103	145.9
0.00585464	146.321
0.00588844	146.743
0.00592243	147.166
0.00595662	147.59
0.00599101	148.015
0.0060256	148.442
0.00606038	148.87
0.00609537	149.299
0.00613056	149.729
0.00616595	150.161
0.00620155	150.593
0.00623735	151.028
0.00627336	151.463
0.00630957	151.899
0.006346	152.337
0.00638263	152.776
0.00641948	153.217
0.00645654	153.658
0.00649382	154.101
0.00653131	154.545
0.00656901	154.991
0.00660693	155.438
0.00664508	155.886
0.00668344	156.335
0.00672202	156.786
0.00676083	157.238
0.00679986	157.691
0.00683912	158.145
0.0068786	158.601
0.00691831	159.058
0.00695825	159.517
0.00699842	159.976
0.00703882	160.438
0.00707946	160.9
0.00712033	161.364
0.00716143	161.829
0.00720278	162.295
0.00724436	162.763
0.00728618	163.232
0.00732825	163.703
0.00737055	164.175
0.0074131	164.648
0.0074559	165.122
0.00749894	165.598
0.00754223	166.076
0.00758578	166.554
0.00762957	167.035
0.00767361	167.516
0.00771792	167.999
0.00776247	168.483
0.00780728	168.969
0.00785236	169.456
0.00789769	169.944
0.00794328	170.434
0.00798914	170.925
0.00803526	171.418
0.00808165	171.912
0.00812831	172.408
0.00817523	172.904
0.00822243	173.403
0.0082699	173.903
0.00831764	174.404
0.00836566	174.907
0.00841395	175.411
0.00846253	175.916
0.00851138	176.423
0.00856052	176.932
0.00860994	177.442
0.00865964	177.953
0.00870964	178.466
0.00875992	178.981
0.00881049	179.497
0.00886135	180.014
0.00891251	180.533
0.00896396	181.053
0.00901571	181.575
0.00906776	182.098
0.00912011	182.623
0.00917276	183.15
0.00922571	183.678
0.00927897	184.207
0.00933254	184.738
0.00938642	185.27
0.00944061	185.804
0.00949511	186.34
0.00954993	186.877
0.00960506	187.416
0.00966051	187.956
0.00971628	188.498
0.00977237	189.041
0.00982879	189.586
0.00988553	190.132
0.0099426	190.68
0.01	191.226
0.0100577	191.764
0.0101158	192.304
0.0101742	192.845
0.0102329	193.387
0.010292	193.931
0.0103514	194.477
0.0104112	195.024
0.0104713	195.573
0.0105317	196.123
0.0105925	196.675
0.0106537	197.229
0.0107152	197.784
0.0107771	198.341
0.0108393	198.899
0.0109018	199.459
0.0109648	200.02
0.0110281	200.584
0.0110917	201.148
0.0111558	201.715
0.0112202	202.283
0.011285	202.853
0.0113501	203.424
0.0114156	203.997
0.0114815	204.572
0.0115478	205.148
0.0116145	205.726
0.0116815	206.305
0.011749	206.887
0.0118168	207.47
0.011885	208.054
0.0119536	208.641
0.0120226	209.229
0.0120921	209.818
0.0121619	210.41
0.0122321	211.003
0.0123027	211.598
0.0123737	212.194
0.0124451	212.792
0.012517	213.392
0.0125893	213.994
0.0126619	214.598
0.012735	215.203
0.0128086	215.81
0.0128825	216.419
0.0129569	217.029
0.0130317	217.641
0.0131069	218.255
0.0131826	218.871
0.0132587	219.489
0.0133352	220.108
0.0134122	220.729
0.0134896	221.352
0.0135675	221.977
0.0136458	222.603
0.0137246	223.231
0.0138038	223.861
0.0138835	224.493
0.0139637	225.127
0.0140443	225.763
0.0141254	226.4
0.0142069	227.04
0.0142889	227.681
0.0143714	228.324
0.0144544	228.969
0.0145378	229.615
0.0146218	230.264
0.0147062	230.914
0.0147911	231.567
0.0148765	232.221
0.0149624	232.877
0.0150487	233.535
0.0151356	234.195
0.015223	234.857
0.0153109	235.52
0.0153993	236.186
0.0154882	236.854
0.0155776	237.523
0.0156675	238.195
0.015758	238.868
0.0158489	239.543
0.0159404	240.221
0.0160325	240.9
0.016125	241.581
0.0162181	242.264
0.0163117	242.95
0.0164059	243.637
0.0165006	244.326
0.0165959	245.017
0.0166917	245.71
0.016788	246.405
0.016885	247.103
0.0169824	247.802
0.0170805	248.503
0.0171791	249.206
0.0172783	249.911
0.017378	250.619
0.0174783	251.328
0.0175792	252.04
0.0176807	252.753
0.0177828	253.469
0.0178855	254.186
0.0179887	254.906
0.0180926	255.628
0.018197	256.352
0.0183021	257.078
0.0184077	257.806
0.018514	258.536
0.0186209	259.268
0.0187284	260.003
0.0188365	260.739
0.0189452	261.478
0.0190546	262.219
0.0191646	262.962
0.0192752	263.707
0.0193865	264.454
0.0194984	265.204
0.019611	265.956
0.0197242	266.709
0.0198381	267.465
0.0199526	268.224
0.0200678	268.984
0.0201837	269.747
0.0203002	270.512
0.0204174	271.279
0.0205353	272.048
0.0206538	272.82
0.020773	273.593
0.020893	274.369
0.0210136	275.148
0.0211349	275.928
0.0212569	276.711
0.0213796	277.496
0.021503	278.283
0.0216272	279.073
0.021752	279.865
0.0218776	280.659
0.0220039	281.456
0.0221309	282.255
0.0222587	283.056
0.0223872	283.859
0.0225165	284.665
0.0226464	285.474
0.0227772	286.284
0.0229087	287.097
0.0230409	287.912
0.0231739	288.73
0.0233077	289.55
0.0234423	290.372
0.0235776	291.197
0.0237137	292.024
0.0238506	292.854
0.0239883	293.686
0.0241268	294.52
0.0242661	295.357
0.0244062	296.197
0.0245471	297.038
0.0246888	297.883
0.0248313	298.729
0.0249747	299.578
0.0251189	300.43
0.0252639	301.284
0.0254097	302.141
0.0255564	303
0.025704	303.861
0.0258523	304.725
0.0260016	305.592
0.0261517	306.461
0.0263027	307.333
0.0264545	308.207
0.0266073	309.083
0.0267609	309.963
0.0269153	310.845
0.0270707	311.729
0.027227	312.616
0.0273842	313.506
0.0275423	314.398
0.0277013	315.292
0.0278612	316.19
0.0280221	317.09
0.0281838	317.992
0.0283465	318.898
0.0285102	319.806
0.0286748	320.716
0.0288403	321.629
0.0290068	322.545
0.0291743	323.464
0.0293427	324.385
0.0295121	325.309
0.0296825	326.235
0.0298538	327.165
0.0300262	328.097
0.0301995	329.031
0.0303739	329.969
0.0305492	330.909
0.0307256	331.852
0.030903	332.798
0.0310814	333.746
0.0312608	334.697
0.0314413	335.651
0.0316228	336.608
0.0318053	337.568
0.031989	338.53
0.0321736	339.495
0.0323594	340.463
0.0325462	341.434
0.0327341	342.408
0.032923	343.384
0.0331131	344.364
0.0333043	345.346
0.0334965	346.331
0.0336899	347.319
0.0338844	348.31
0.03408	349.303
0.0342768	350.3
0.0344747	351.3
0.0346737	352.302
0.0348739	353.308
0.0350752	354.316
0.0352777	355.327
0.0354813	356.342
0.0356862	357.359
0.0358922	358.379
0.0360994	359.402
0.0363078	360.428
0.0365174	361.458
0.0367282	362.49
0.0369403	363.525
0.0371535	364.563
0.037368	365.605
0.0375837	366.649
0.0378007	367.696
0.0380189	368.747
0.0382384	369.8
0.0384592	370.857
0.0386812	371.917
0.0389045	372.979
0.0391291	374.045
0.039355	375.114
0.0395822	376.187
0.0398107	377.262
0.0400405	378.023
0.0402717	378.274
0.0405042	378.528
0.040738	378.784
0.0409732	379.043
0.0412098	379.305
0.0414477	379.569
0.0416869	379.836
0.0419276	380.106
0.0421697	380.377
0.0424131	380.652
0.042658	380.928
0.0429042	381.207
0.0431519	381.489
0.043401	381.772
0.0436516	382.058
0.0439036	382.347
0.044157	382.637
0.044412	382.93
0.0446684	383.225
0.0449262	383.521
0.0451856	383.821
0.0454465	384.122
0.0457088	384.425
0.0459727	384.73
0.0462381	385.037
0.046505	385.347
0.0467735	385.658
0.0470435	385.971
0.0473151	386.286
0.0475883	386.603
0.047863	386.922
0.0481393	387.243
0.0484172	387.565
0.0486968	387.889
0.0489779	388.216
0.0492606	388.544
0.049545	388.873
0.049831	389.205
0.0501187	389.538
0.0504081	389.873
0.0506991	390.209
0.0509918	390.547
0.0512861	390.887
0.0515822	391.229
0.05188	391.572
0.0521795	391.917
0.0524807	392.263
0.0527837	392.611
0.0530884	392.96
0.0533949	393.311
0.0537032	393.664
0.0540132	394.018
0.054325	394.374
0.0546387	394.731
0.0549541	395.089
0.0552713	395.449
0.0555904	395.811
0.0559114	396.174
0.0562341	396.538
0.0565588	396.904
0.0568853	397.272
0.0572137	397.64
0.057544	398.011
0.0578762	398.382
0.0582103	398.755
0.0585464	399.13
0.0588844	399.505
0.0592243	399.883
0.0595662	400.261
0.0599101	400.641
0.060256	401.022
0.0606038	401.405
0.0609537	401.789
0.0613056	402.174
0.0616595	402.56
0.0620155	402.948
0.0623735	403.338
0.0627336	403.728
0.0630957	404.12
0.06346	404.513
0.0638263	404.908
0.0641948	405.303
0.0645654	405.701
0.0649382	406.099
0.0653131	406.499
0.0656901	406.9
0.0660693	407.302
0.0664508	407.705
0.0668344	408.11
0.0672202	408.516
0.0676083	408.924
0.0679986	409.332
0.0683912	409.742
0.068786	410.154
0.0691831	410.566
0.0695825	410.98
0.0699842	411.395
0.0703882	411.811
0.0707946	412.229
0.0712033	412.648
0.0716143	413.068
0.0720278	413.49
0.0724436	413.913
0.0728618	414.337
0.0732825	414.762
0.0737055	415.189
0.074131	415.617
0.074559	416.046
0.0749894	416.476
0.0754223	416.908
0.0758578	417.341
0.0762957	417.776
0.0767361	418.212
0.0771792	418.649
0.0776247	419.087
0.0780728	419.527
0.0785236	419.968
0.0789769	420.41
0.0794328	420.854
0.0798914	421.299
0.0803526	421.745
0.0808165	422.193
0.0812831	422.642
0.0817523	423.092
0.0822243	423.544
0.082699	423.997
0.0831764	424.452
0.0836566	424.908
0.0841395	425.365
0.0846253	425.824
0.0851138	426.284
0.0856052	426.745
0.0860994	427.208
0.0865964	427.672
0.0870964	428.138
0.0875992	428.605
0.0881049	429.073
0.0886135	429.543
0.0891251	430.015
0.0896396	430.488
0.0901571	430.962
0.0906776	431.438
0.0912011	431.915
0.0917276	432.394
0.0922571	432.874
0.0927897	433.355
0.0933254	433.839
0.0938642	434.323
0.0944061	434.809
0.0949511	435.297
0.0954993	435.786
0.0960506	436.277
0.0966051	436.769
0.0971628	437.263
0.0977237	437.759
0.0982879	438.256
0.0988553	438.754
0.099426	439.255
0.1	439.756
0.100577	440.26
0.101158	440.765
0.101742	441.272
0.102329	441.78
0.10292	442.29
0.103514	442.801
0.104112	443.315
0.104713	443.829
0.105317	444.346
0.105925	444.864
0.106537	445.384
0.107152	445.906
0.107771	446.429
0.108393	446.954
0.109018	447.481
0.109648	448.01
0.110281	448.54
0.110917	449.072
0.111558	449.606
0.112202	450.142
0.11285	450.68
0.113501	451.219
0.114156	451.76
0.114815	452.303
0.115478	452.848
0.116145	453.394
0.116815	453.943
0.11749	454.493
0.118168	455.046
0.11885	455.6
0.119536	456.156
0.120226	456.714
0.120921	457.274
0.121619	457.836
0.122321	458.399
0.123027	458.965
0.123737	459.533
0.124451	460.102
0.12517	460.674
0.125893	461.248
0.126619	461.823
0.12735	462.401
0.128086	462.981
0.128825	463.563
0.129569	464.147
0.130317	464.732
0.131069	465.32
0.131826	465.911
0.132587	466.503
0.133352	467.097
0.134122	467.693
0.134896	468.292
0.135675	468.893
0.136458	469.495
0.137246	470.101
0.138038	470.708
0.138835	471.317
0.139637	471.929
0.140443	472.543
0.141254	473.159
0.142069	473.777
0.142889	474.397
0.143714	475.02
0.144544	475.645
0.145378	476.273
0.146218	476.902
0.147062	477.534
0.147911	478.169
0.148765	478.805
0.149624	479.444
0.150487	480.086
0.151356	480.729
0.15223	481.375
0.153109	482.024
0.153993	482.675
0.154882	483.328
0.155776	483.984
0.156675	484.642
0.15758	485.302
0.158489	485.965
0.159404	486.631
0.160325	487.299
0.16125	487.97
0.162181	488.643
0.163117	489.318
0.164059	489.996
0.165006	490.677
0.165959	491.36
0.166917	492.046
0.16788	492.734
0.16885	493.425
0.169824	494.119
0.170805	494.815
0.171791	495.514
0.172783	496.215
0.17378	496.919
0.174783	497.626
0.175792	498.336
0.176807	499.048
0.177828	499.763
0.178855	500.48
0.179887	501.201
0.180926	501.924
0.18197	502.65
0.183021	503.378
0.184077	504.109
0.18514	504.844
0.186209	505.58
0.187284	506.32
0.188365	507.063
0.189452	507.808
0.190546	508.556
0.191646	509.308
0.192752	510.061
0.193865	510.818
0.194984	511.578
0.19611	512.341
0.197242	513.106
0.198381	513.875
0.199526	514.646
0.200678	515.421
0.201837	516.198
0.203002	516.978
0.204174	517.762
0.205353	518.548
0.206538	519.338
0.20773	520.13
0.20893	520.925
0.210136	521.724
0.211349	522.525
0.212569	523.33
0.213796	524.138
0.21503	524.949
0.216272	525.763
0.21752	526.58
0.218776	527.4
0.220039	528.223
0.221309	529.05
0.222587	529.879
0.223872	530.712
0.225165	531.548
0.226464	532.387
0.227772	533.23
0.229087	534.075
0.230409	534.924
0.231739	535.776
0.233077	536.632
0.234423	537.491
0.235776	538.353
0.237137	539.218
0.238506	540.086
0.239883	540.958
0.241268	541.833
0.242661	542.712
0.244062	543.594
0.245471	544.479
0.246888	545.368
0.248313	546.26
0.249747	547.156
0.251189	548.054
0.252639	548.957
0.254097	549.862
0.255564	550.772
0.25704	551.684
0.258523	552.6
0.260016	553.52
0.261517	554.443
0.263027	555.37
0.264545	556.3
0.266073	557.233
0.267609	558.17
0.269153	559.111
0.270707	560.055
0.27227	561.003
0.273842	561.955
0.275423	562.909
0.277013	563.868
0.278612	564.83
0.280221	565.796
0.281838	566.766
0.283465	567.739
0.285102	568.715
0.286748	569.696
0.288403	570.68
0.290068	571.668
0.291743	572.659
0.293427	573.654
0.295121	574.653
0.296825	575.656
0.298538	576.662
0.300262	577.672
0.301995	578.686
0.303739	579.704
0.305492	580.725
0.307256	581.75
0.30903	582.779
0.310814	583.812
0.312608	584.849
0.314413	585.889
0.316228	586.934
0.318053	587.982
0.31989	589.034
0.321736	590.09
0.323594	591.149
0.325462	592.213
0.327341	593.281
0.32923	594.352
0.331131	595.427
0.333043	596.507
0.334965	597.59
0.336899	598.677
0.338844	599.768
0.3408	600.863
0.342768	601.962
0.344747	603.066
0.346737	604.173
0.348739	605.284
0.350752	606.399
0.352777	607.518
0.354813	608.641
0.356862	609.768
0.358922	610.899
0.360994	612.035
0.363078	613.174
0.365174	614.317
0.367282	615.465
0.369403	616.616
0.371535	617.772
0.37368	618.932
0.375837	620.096
0.378007	621.264
0.380189	622.436
0.382384	623.612
0.384592	624.792
0.386812	625.977
0.389045	627.166
0.391291	628.358
0.39355	629.556
0.395822	630.757
0.398107	631.962
0.400405	633.172
0.402717	634.386
0.405042	635.604
0.40738	636.826
0.409732	638.052
0.412098	639.283
0.414477	640.518
0.416869	641.757
0.419276	643.001
0.421697	644.248
0.424131	645.5
0.42658	646.757
0.429042	648.017
0.431519	649.282
0.43401	650.551
0.436516	651.824
0.439036	653.102
0.44157	654.384
0.44412	655.67
0.446684	656.961
0.449262	658.256
0.451856	659.555
0.454465	660.859
0.457088	662.167
0.459727	663.479
0.462381	664.796
0.46505	666.117
0.467735	667.442
0.470435	668.772
0.473151	670.106
0.475883	671.444
0.47863	672.787
0.481393	674.134
0.484172	675.485
0.486968	676.841
0.489779	678.201
0.492606	679.566
0.49545	680.935
0.49831	682.309
0.501187	683.686
0.504081	685.069
0.506991	686.455
0.509918	687.846
0.512861	689.242
0.515822	690.641
0.5188	692.046
0.521795	693.454
0.524807	694.867
0.527837	696.285
0.530884	697.707
0.533949	699.133
0.537032	700.563
0.540132	701.999
0.54325	703.438
0.546387	704.882
0.549541	706.33
0.552713	707.783
0.555904	709.24
0.559114	710.702
0.562341	712.168
0.565588	713.638
0.568853	715.113
0.572137	716.592
0.57544	718.075
0.578762	719.563
0.582103	721.056
0.585464	722.552
0.588844	724.053
0.592243	725.559
0.595662	727.069
0.599101	728.583
0.60256	730.102
0.606038	731.625
0.609537	733.152
0.613056	734.684
0.616595	736.22
0.620155	737.761
0.623735	739.305
0.627336	740.855
0.630957	742.408
0.6346	743.966
0.638263	745.528
0.641948	747.095
0.645654	748.665
0.649382	750.24
0.653131	751.82
0.656901	753.404
0.660693	754.992
0.664508	756.584
0.668344	758.18
0.672202	759.781
0.676083	761.386
0.679986	762.995
0.683912	764.609
0.68786	766.227
0.691831	767.848
0.695825	769.475
0.699842	771.105
0.703882	772.739
0.707946	774.378
0.712033	776.021
0.716143	777.668
0.720278	779.319
0.724436	780.974
0.728618	782.633
0.732825	784.297
0.737055	785.964
0.74131	787.636
0.74559	789.311
0.749894	790.991
0.754223	792.674
0.758578	794.362
0.762957	796.053
0.767361	797.749
0.771792	799.449
0.776247	801.152
0.780728	802.859
0.785236	804.571
0.789769	806.286
0.794328	808.005
0.798914	809.727
0.803526	811.454
0.808165	813.185
0.812831	814.919
0.817523	816.657
0.822243	818.398
0.82699	820.144
0.831764	821.893
0.836566	823.646
0.841395	825.402
0.846253	827.162
0.851138	828.926
0.856052	830.693
0.860994	832.464
0.865964	834.238
0.870964	836.016
0.875992	837.797
0.881049	839.582
0.886135	841.37
0.891251	843.162
0.896396	844.957
0.901571	846.755
0.906776	848.557
0.912011	850.361
0.917276	852.17
0.922571	853.981
0.927897	855.795
0.933254	857.613
0.938642	859.434
0.944061	861.257
0.949511	863.084
0.954993	864.914
0.960506	866.747
0.966051	868.583
0.971628	870.422
0.977237	872.263
0.982879	874.108
0.988553	875.955
0.99426	877.805
1	879.658
1.00577	881.514
1.01158	883.372
1.01742	885.232
1.02329	887.096
1.0292	888.962
1.03514	890.83
1.04112	892.701
1.04713	896.366
1.05317	900.338
1.05925	904.332
1.06537	908.348
1.07152	912.386
1.07771	916.447
1.08393	920.53
1.09018	924.636
1.09648	928.764
1.10281	932.915
1.10917	937.089
1.11558	941.285
1.12202	945.505
1.1285	949.747
1.13501	954.012
1.14156	958.301
1.14815	962.613
1.15478	966.948
1.16145	971.306
1.16815	975.688
1.1749	980.093
1.18168	984.522
1.1885	988.975
1.19536	993.451
1.20226	997.951
1.20921	1002.48
1.21619	1007.02
1.22321	1011.6
1.23027	1016.19
1.23737	1020.81
1.24451	1025.46
1.2517	1030.12
1.25893	1034.82
1.26619	1039.53
1.2735	1044.28
1.28086	1049.04
1.28825	1053.83
1.29569	1058.65
1.30317	1063.49
1.31069	1068.36
1.31826	1073.25
1.32587	1078.16
1.33352	1083.1
1.34122	1088.07
1.34896	1093.06
1.35675	1098.07
1.36458	1103.11
1.37246	1108.18
1.38038	1113.27
1.38835	1118.39
1.39637	1123.53
1.40443	1128.69
1.41254	1133.89
1.42069	1139.1
1.42889	1144.35
1.43714	1149.62
1.44544	1154.91
1.45378	1160.23
1.46218	1165.58
1.47062	1170.95
1.47911	1176.35
1.48765	1181.77
1.49624	1187.22
1.50487	1192.7
1.51356	1198.2
1.5223	1203.73
1.53109	1209.28
1.53993	1214.86
1.54882	1220.47
1.55776	1226.1
1.56675	1231.76
1.5758	1237.44
1.58489	1243.15
1.59404	1248.89
1.60325	1254.65
1.6125	1260.44
1.62181	1266.26
1.63117	1272.1
1.64059	1277.96
1.65006	1283.86
1.65959	1289.78
1.66917	1295.72
1.6788	1301.7
1.6885	1307.69
1.69824	1313.72
1.70805	1319.77
1.71791	1325.85
1.72783	1331.95
1.7378	1338.08
1.74783	1344.23
1.75792	1350.42
1.76807	1356.62
1.77828	1362.86
1.78855	1369.12
1.79887	1375.4
1.80926	1381.72
1.8197	1388.05
1.83021	1394.42
1.84077	1400.81
1.8514	1407.22
1.86209	1413.67
1.87284	1420.13
1.88365	1426.63
1.89452	1433.15
1.90546	1439.69
1.91646	1446.26
1.92752	1452.86
1.93865	1459.48
1.94984	1466.13
1.9611	1472.8
1.97242	1479.5
1.98381	1486.22
1.99526	1492.97
2.00678	1499.74
2.01837	1506.54
2.03002	1513.36
2.04174	1520.21
2.05353	1527.08
2.06538	1533.98
2.0773	1540.91
2.0893	1547.85
2.10136	1554.82
2.11349	1561.82
2.12569	1568.84
2.13796	1575.88
2.1503	1582.95
2.16272	1590.04
2.1752	1597.16
2.18776	1604.3
2.20039	1611.46
2.21309	1618.65
2.22587	1625.86
2.23872	1633.09
2.25165	1640.35
2.26464	1647.63
2.27772	1654.93
2.29087	1662.25
2.30409	1669.6
2.31739	1676.97
2.33077	1684.36
2.34423	1691.78
2.35776	1699.21
2.37137	1706.67
2.38506	1714.15
2.39883	1721.65
2.41268	1729.17
2.42661	1736.71
2.44062	1744.27
2.45471	1751.86
2.46888	1759.46
2.48313	1767.09
2.49747	1774.73
2.51189	1782.4
2.52639	1790.08
2.54097	1797.79
2.55564	1805.51
2.5704	1813.25
2.58523	1821.01
2.60016	1828.79
2.61517	1836.59
2.63027	1844.41
2.64545	1852.24
2.66073	1860.09
2.67609	1867.96
2.69153	1875.85
2.70707	1883.75
2.7227	1891.67
2.73842	1899.61
2.75423	1907.56
2.77013	1915.53
2.78612	1923.52
2.80221	1931.52
2.81838	1939.53
2.83465	1947.57
2.85102	1955.61
2.86748	1963.67
2.88403	1971.74
2.90068	1979.83
2.91743	1987.93
2.93427	1996.05
2.95121	2004.17
2.96825	2012.31
2.98538	2020.47
3.00262	2028.63
3.01995	2036.8
3.03739	2044.99
3.05492	2053.19
3.07256	2061.4
3.0903	2069.62
3.10814	2077.85
3.12608	2086.09
3.14413	2094.33
3.16228	2102.59
3.18053	2110.86
3.1989	2119.13
3.21736	2127.41
3.23594	2135.7
3.25462	2144
3.27341	2152.3
3.2923	2160.61
3.31131	2168.93
3.33043	2177.25
3.34965	2185.58
3.36899	2193.91
3.38844	2202.25
3.408	2210.59
3.42768	2218.94
3.44747	2227.29
3.46737	2235.64
3.48739	2243.99
3.50752	2252.35
3.52777	2260.71
3.54813	2269.07
3.56862	2277.43
3.58922	2285.79
3.60994	2294.15
3.63078	2302.52
3.65174	2310.88
3.67282	2319.24
3.69403	2327.6
3.71535	2335.95
3.7368	2344.31
3.75837	2352.66
3.78007	2361.01
3.80189	2369.35
3.82384	2377.7
3.84592	2386.03
3.86812	2394.36
3.89045	2402.69
3.91291	2411.01
3.9355	2419.32
3.95822	2427.63
3.98107	2435.93
4.00405	2444.22
4.02717	2452.51
4.05042	2460.78
4.0738	2469.05
4.09732	2477.31
4.12098	2485.55
4.14477	2493.79
4.16869	2502.01
4.19276	2510.23
4.21697	2518.43
4.24131	2526.62
4.2658	2534.8
4.29042	2542.96
4.31519	2551.11
4.3401	2559.24
4.36516	2567.36
4.39036	2575.47
4.4157	2583.56
4.4412	2591.63
4.46684	2599.69
4.49262	2607.73
4.51856	2615.75
4.54465	2623.76
4.57088	2630.13
4.59727	2638.07
4.62381	2646
4.6505	2653.91
4.67735	2661.8
4.70435	2669.66
4.73151	2677.51
4.75883	2685.33
4.7863	2693.13
4.81393	2700.9
4.84172	2708.66
4.86968	2716.39
4.89779	2724.09
4.92606	2731.77
4.9545	2739.43
4.9831	2747.05
5.01187	2754.65
5.04081	2762.23
5.06991	2769.78
5.09918	2777.3
5.12861	2784.79
5.15822	2792.25
5.188	2799.68
5.21795	2807.09
5.24807	2814.46
5.27837	2821.81
5.30884	2829.12
5.33949	2836.4
5.37032	2843.65
5.40132	2850.86
5.4325	2858.05
5.46387	2865.2
5.49541	2872.31
5.52713	2879.4
5.55904	2886.44
5.59114	2893.46
5.62341	2900.43
5.65588	2907.38
5.68853	2914.28
5.72137	2921.15
5.7544	2927.98
5.78762	2934.78
5.82103	2941.53
5.85464	2948.25
5.88844	2954.93
5.92243	2961.57
5.95662	2968.17
5.99101	2974.73
6.0256	2981.25
6.06038	2987.73
6.09537	2994.17
6.13056	3000.56
6.16595	3006.92
6.20155	3013.23
6.23735	3019.5
6.27336	3025.73
6.30957	3031.91
6.346	3038.05
6.38263	3044.15
6.41948	3050.2
6.45654	3056.21
6.49382	3062.17
6.53131	3068.09
6.56901	3073.96
6.60693	3079.79
6.64508	3085.57
6.68344	3091.3
6.72202	3096.99
6.76083	3102.63
6.79986	3108.22
6.83912	3113.77
6.8786	3119.27
6.91831	3124.71
6.95825	3130.12
6.99842	3135.47
7.03882	3140.77
7.07946	3146.02
7.12033	3151.23
7.16143	3156.38
7.20278	3161.49
7.24436	3166.55
7.28618	3171.55
7.32825	3176.5
7.37055	3181.41
7.4131	3186.26
7.4559	3191.06
7.49894	3195.81
7.54223	3200.51
7.58578	3205.16
7.62957	3209.76
7.67361	3214.3
7.71792	3218.79
7.76247	3223.23
7.80728	3227.62
7.85236	3231.96
7.89769	3236.24
7.94328	3240.47
7.98914	3244.65
8.03526	3248.77
8.08165	3252.84
8.12831	3256.86
8.17523	3260.83
8.22243	3264.74
8.2699	3268.6
8.31764	3272.4
8.36566	3276.15
8.41395	3279.85
8.46253	3283.5
8.51138	3287.09
8.56052	3290.63
8.60994	3294.11
8.65964	3297.54
8.70964	3300.92
8.75992	3304.24
8.81049	3307.51
8.86135	3310.72
8.91251	3313.89
8.96396	3316.99
9.01571	3320.05
9.06776	3323.05
9.12011	3326
9.17276	3328.89
9.22571	3331.73
9.27897	3334.52
9.33254	3337.25
9.38642	3339.93
9.44061	3342.56
9.49511	3345.13
9.54993	3347.65
9.60506	3350.12
9.66051	3352.53
9.71628	3354.9
9.77237	3357.21
9.82879	3359.46
9.88553	3361.67
9.9426	3363.82
10	3365.92
10.0577	3367.97
10.1158	3369.96
10.1742	3371.91
10.2329	3373.8
10.292	3375.64
10.3514	3377.43
10.4112	3379.17
10.4713	3380.86
10.5317	3382.5
10.5925	3384.08
10.6537	3385.62
10.7152	3387.1
10.7771	3388.54
10.8393	3389.93
10.9018	3391.26
10.9648	3392.55
11.0281	3393.79
11.0917	3394.98
11.1558	3396.12
11.2202	3397.21
11.285	3398.26
11.3501	3399.25
11.4156	3400.2
11.4815	3401.1
11.5478	3401.95
11.6145	3402.76
11.6815	3403.52
11.749	3404.23
11.8168	3404.9
11.885	3405.52
11.9536	3406.1
12.0226	3406.63
12.0921	3407.11
12.1619	3407.55
12.2321	3407.95
12.3027	3408.3
12.3737	3408.61
12.4451	3408.87
12.517	3409.09
12.5893	3409.27
12.6619	3409.4
12.735	3409.5
12.8086	3409.55
12.8825	3409.56
12.9569	3409.52
13.0317	3409.45
13.1069	3409.33
13.1826	3397.34
13.2587	3397.27
13.3352	3397.15
13.4122	3397
13.4896	3396.8
13.5675	3396.57
13.6458	3396.29
13.7246	3395.98
13.8038	3395.63
13.8835	3395.24
13.9637	3394.81
14.0443	3394.34
14.1254	3393.84
14.2069	3393.3
14.2889	3392.72
14.3714	3392.11
14.4544	3391.46
14.5378	3390.78
14.6218	3390.06
14.7062	3389.3
14.7911	3388.51
14.8765	3387.69
14.9624	3386.84
15.0487	3385.95
15.1356	3385.02
15.223	3384.07
15.3109	3383.08
15.3993	3382.06
15.4882	3381.01
15.5776	3379.92
15.6675	3378.81
15.758	3377.67
15.8489	3376.49
15.9404	3375.29
16.0325	3374.05
16.125	3372.79
16.2181	3371.5
16.3117	3370.18
16.4059	3368.83
16.5006	3367.46
16.5959	3366.06
16.6917	3364.63
16.788	3363.17
16.885	3361.69
16.9824	3360.18
17.0805	3358.65
17.1791	3357.09
17.2783	3355.51
17.378	3353.9
17.4783	3352.27
17.5792	3350.61
17.6807	3348.93
17.7828	3347.23
17.8855	3345.51
17.9887	3343.76
18.0926	3341.99
18.197	3340.2
18.3021	3338.39
18.4077	3336.55
18.514	3334.7
18.6209	3332.83
18.7284	3330.93
18.8365	3329.02
18.9452	3327.08
19.0546	3325.13
19.1646	3323.16
19.2752	3321.17
19.3865	3319.16
19.4984	3317.14
19.611	3315.09
19.7242	3313.03
19.8381	3310.95
19.9526	3308.86
20.0678	3306.75
20.1837	3304.62
20.3002	3302.48
20.4174	3300.32
20.5353	3298.15
20.6538	3295.96
20.773	3293.76
20.893	3291.54
21.0136	3289.31
21.1349	3287.07
21.2569	3284.81
21.3796	3282.54
21.503	3280.26
21.6272	3277.96
21.752	3275.65
21.8776	3273.33
22.0039	3271
22.1309	3268.65
22.2587	3266.29
22.3872	3263.93
22.5165	3261.55
22.6464	3259.16
22.7772	3256.76
22.9087	3254.35
23.0409	3251.93
23.1739	3249.5
23.3077	3247.06
23.4423	3244.61
23.5776	3242.15
23.7137	3239.68
23.8506	3237.21
23.9883	3234.72
24.1268	3232.23
24.2661	3229.73
24.4062	3227.22
24.5471	3224.7
24.6888	3222.18
24.8313	3219.65
24.9747	3217.11
25.1189	3214.56
25.2639	3212.01
25.4097	3209.45
25.5564	3206.88
25.704	3204.31
25.8523	3201.73
26.0016	3199.14
26.1517	3196.55
26.3027	3193.95
26.4545	3191.35
26.6073	3188.74
26.7609	3186.13
26.9153	3183.51
27.0707	3180.88
27.227	3178.25
27.3842	3175.62
27.5423	3172.98
27.7013	3170.34
27.8612	3167.69
28.0221	3165.04
28.1838	3162.38
28.3465	3159.72
28.5102	3157.05
28.6748	3154.38
28.8403	3151.71
29.0068	3149.03
29.1743	3146.35
29.3427	3143.67
29.5121	3140.98
29.6825	3138.29
29.8538	3135.59
30.0262	3132.89
30.1995	3130.19
30.3739	3127.49
30.5492	3124.78
30.7256	3122.07
30.903	3119.36
31.0814	3116.64
31.2608	3113.92
31.4413	3111.2
31.6228	3108.47
31.8053	3105.74
31.989	3103.01
32.1736	3100.28
32.3594	3097.54
32.5462	3094.8
32.7341	3092.06
32.923	3089.32
33.1131	3086.57
33.3043	3083.83
33.4965	3081.07
33.6899	3078.32
33.8844	3075.57
34.08	3072.81
34.2768	3070.05
34.4747	3067.29
34.6737	3064.52
34.8739	3061.75
35.0752	3058.99
35.2777	3056.21
35.4813	3053.44
35.6862	3050.66
35.8922	3047.89
36.0994	3045.11
36.3078	3042.32
36.5174	3039.54
36.7282	3036.75
36.9403	3033.96
37.1535	3031.17
37.368	3028.38
37.5837	3025.58
37.8007	3022.78
38.0189	3019.98
38.2384	3017.18
38.4592	3014.37
38.6812	3011.57
38.9045	3008.76
39.1291	3005.94
39.355	3003.13
39.5822	3000.31
39.8107	2997.49
40.0405	2994.67
40.2717	2991.85
40.5042	2989.02
40.738	2986.19
40.9732	2983.36
41.2098	2980.52
41.4477	2977.69
41.6869	2974.85
41.9276	2972
42.1697	2969.16
42.4131	2966.31
42.658	2963.46
42.9042	2960.61
43.1519	2957.75
43.401	2954.89
43.6516	2952.03
43.9036	2949.16
44.157	2946.29
44.412	2943.42
44.6684	2940.54
44.9262	2937.67
45.1856	2934.79
45.4465	2931.9
45.7088	2929.01
45.9727	2926.12
46.2381	2923.23
46.505	2920.33
46.7735	2917.43
47.0435	2914.52
47.3151	2911.61
47.5883	2908.7
47.863	2905.79
48.1393	2902.87
48.4172	2899.94
48.6968	2897.02
48.9779	2894.08
49.2606	2891.15
49.545	2888.21
49.831	2885.27
50.1187	2882.32
50.4081	2879.37
50.6991	2876.42
50.9918	2873.46
51.2861	2870.49
51.5822	2867.52
51.88	2864.55
52.1795	2861.57
52.4807	2858.59
52.7837	2855.61
53.0884	2852.62
53.3949	2849.62
53.7032	2846.62
54.0132	2843.62
54.325	2840.61
54.6387	2837.59
54.9541	2834.57
55.2713	2831.55
55.5904	2828.52
55.9114	2825.48
56.2341	2822.44
56.5588	2819.4
56.8853	2816.35
57.2137	2813.3
57.544	2810.23
57.8762	2807.17
58.2103	2804.1
58.5464	2801.02
58.8844	2797.94
59.2243	2794.85
59.5662	2791.76
59.9101	2788.66
60.256	2785.55
60.6038	2782.44
60.9537	2779.33
61.3056	2776.21
61.6595	2773.08
62.0155	2769.94
62.3735	2766.8
62.7336	2763.66
63.0957	2760.51
63.46	2757.35
63.8263	2754.18
64.1948	2751.01
64.5654	2747.83
64.9382	2744.65
65.3131	2741.46
65.6901	2738.26
66.0693	2735.06
66.4508	2731.85
66.8344	2728.64
67.2202	2725.41
67.6083	2722.18
67.9986	2718.95
68.3912	2715.7
68.786	2712.45
69.1831	2709.2
69.5825	2705.93
69.9842	2702.66
70.3882	2699.39
70.7946	2696.1
71.2033	2692.81
71.6143	2689.51
72.0278	2686.2
72.4436	2682.89
72.8618	2679.57
73.2825	2676.24
73.7055	2672.91
74.131	2669.56
74.559	2666.21
74.9894	2662.86
75.4223	2659.49
75.8578	2656.12
76.2957	2652.74
76.7361	2649.35
77.1792	2645.96
77.6247	2642.55
78.0728	2639.14
78.5236	2635.72
78.9769	2632.3
79.4328	2628.55
79.8914	2623.43
80.3526	2618.32
80.8165	2613.22
81.2831	2608.14
81.7523	2603.05
82.2243	2597.97
82.699	2593.05
83.1764	2587.98
83.6566	2582.9
84.1395	2577.84
84.6253	2572.78
85.1138	2567.72
85.6052	2562.66
86.0994	2557.6
86.5964	2552.55
87.0964	2547.5
87.5992	2542.45
88.1049	2537.41
88.6135	2532.71
89.1251	2527.67
89.6396	2522.73
90.1571	2517.69
90.6776	2512.66
91.2011	2507.63
91.7276	2502.6
92.2571	2497.57
92.7897	2492.54
93.3254	2487.52
93.8642	2482.5
94.4061	2477.48
94.9511	2472.46
95.4993	2467.44
96.0506	2462.43
96.6051	2457.41
97.1628	2453.85
97.7237	2448.83
98.2879	2443.81
98.8553	2438.78
99.426	2428.87
100	2423.76
100.577	2419.11
101.158	2414.01
101.742	2408.9
102.329	2403.8
102.92	2398.71
103.514	2393.63
104.112	2388.54
104.713	2383.46
105.317	2378.38
105.925	2373.29
106.537	2368.21
107.152	2363.13
107.771	2358.05
108.393	2352.96
109.018	2347.88
109.648	2342.79
110.281	2337.71
110.917	2332.63
111.558	2327.54
112.202	2322.45
112.85	2317.36
113.501	2312.27
114.156	2307.18
114.815	2302.09
115.478	2297
116.145	2291.9
116.815	2286.81
117.49	2281.71
118.168	2278.08
118.85	2272.97
119.536	2267.87
120.226	2262.76
120.921	2257.65
121.619	2252.54
122.321	2247.43
123.027	2242.32
123.737	2237.21
124.451	2232.09
125.17	2226.97
125.893	2221.86
126.619	2216.74
127.35	2211.62
128.086	2206.5
128.825	2201.38
129.569	2196.26
130.317	2191.14
131.069	2186.02
131.826	2180.9
132.587	2175.78
133.352	2170.65
134.122	2165.53
134.896	2160.5
135.675	2155.38
136.458	2150.25
137.246	2145.13
138.038	2140.01
138.835	2134.89
139.637	2129.84
140.443	2124.95
141.254	2120.05
142.069	2115.15
142.889	2110.25
143.714	2105.34
144.544	2100.44
145.378	2095.53
146.218	2090.62
147.062	2085.71
147.911	2080.8
148.765	2075.89
149.624	2070.97
150.487	2066.06
151.356	2061.14
152.23	2056.22
153.109	2051.31
153.993	2046.39
154.882	2041.47
155.776	2036.55
156.675	2031.63
157.58	2026.71
158.489	2021.79
159.404	2016.87
160.325	2011.95
161.25	2007.03
162.181	2002.68
163.117	1997.75
164.059	1992.82
165.006	1987.9
165.959	1982.97
166.917	1978.04
167.88	1973.11
168.85	1968.19
169.824	1963.27
170.805	1958.35
171.791	1953.43
172.783	1948.51
173.78	1943.59
174.783	1938.67
175.792	1933.76
176.807	1928.85
177.828	1925.29
178.855	1920.37
179.887	1915.45
180.926	1910.54
181.97	1905.63
183.021	1900.72
184.077	1895.81
185.14	1890.91
186.209	1886.01
187.284	1881.11
188.365	1876.21
189.452	1871.32
190.546	1866.43
191.646	1861.55
192.752	1856.67
193.865	1851.79
194.984	1846.91
196.11	1842.04
197.242	1837.18
198.381	1832.31
199.526	1827.45
200.678	1822.59
201.837	1817.74
203.002	1812.89
204.174	1808.04
205.353	1803.2
206.538	1798.36
207.73	1793.53
208.93	1788.7
210.136	1783.87
211.349	1779.05
212.569	1774.23
213.796	1769.41
215.03	1764.6
216.272	1759.79
217.52	1754.99
218.776	1750.19
220.039	1745.4
221.309	1740.61
222.587	1735.82
223.872	1731.04
225.165	1726.3
226.464	1721.52
227.772	1717.13
229.087	1712.36
230.409	1707.59
231.739	1702.83
233.077	1698.07
234.423	1693.32
235.776	1688.57
237.137	1683.82
238.506	1679.08
239.883	1674.34
241.268	1669.61
242.661	1664.88
244.062	1660.16
245.471	1655.44
246.888	1650.72
248.313	1646.01
249.747	1641.31
251.189	1636.61
252.639	1631.91
254.097	1627.22
255.564	1622.53
257.04	1617.84
258.523	1613.17
260.016	1608.49
261.517	1603.82
263.027	1599.16
264.545	1594.5
266.073	1589.84
267.609	1585.19
269.153	1580.54
270.707	1575.9
272.27	1571.27
273.842	1566.63
275.423	1562.01
277.013	1557.39
278.612	1552.77
280.221	1548.16
281.838	1543.55
283.465	1538.95
285.102	1534.35
286.748	1529.76
288.403	1525.17
290.068	1520.59
291.743	1516.01
293.427	1511.44
295.121	1506.87
296.825	1502.31
298.538	1498.25
300.262	1493.69
301.995	1489.14
303.739	1484.59
305.492	1480.04
307.256	1475.51
309.03	1470.97
310.814	1466.44
312.608	1461.92
314.413	1457.4
316.228	1452.91
318.053	1448.41
319.89	1443.91
321.736	1439.41
323.594	1434.92
325.462	1430.43
327.341	1425.95
329.23	1421.48
331.131	1417.01
333.043	1412.55
334.965	1408.1
336.899	1403.64
338.844	1399.2
340.8	1394.76
342.768	1390.33
344.747	1385.9
346.737	1381.48
348.739	1377.06
350.752	1372.65
352.777	1368.24
354.813	1363.84
356.862	1359.45
358.922	1355.06
360.994	1350.68
363.078	1346.3
365.174	1341.93
367.282	1337.57
369.403	1333.21
371.535	1328.86
373.68	1324.51
375.837	1320.18
378.007	1315.84
380.189	1311.51
382.384	1307.19
384.592	1302.88
386.812	1298.57
389.045	1294.27
391.291	1289.97
393.55	1285.68
395.822	1281.4
398.107	1277.13
400.405	1272.86
402.717	1268.59
405.042	1264.34
407.38	1260.09
409.732	1255.85
412.098	1251.61
414.477	1247.38
416.869	1243.16
419.276	1239.26
421.697	1235.05
424.131	1230.84
426.58	1226.65
429.042	1222.45
431.519	1218.27
434.01	1214.09
436.516	1209.92
439.036	1205.76
441.57	1201.6
444.12	1197.45
446.684	1193.31
449.262	1189.18
451.856	1185.05
454.465	1180.94
457.088	1176.82
459.727	1173.3
462.381	1169.2
465.05	1165.11
467.735	1161.02
470.435	1156.94
473.151	1152.87
475.883	1148.81
478.63	1144.76
481.393	1140.71
484.172	1136.67
486.968	1132.64
489.779	1128.62
492.606	1124.6
495.45	1120.6
498.31	1116.6
501.187	1112.61
504.081	1108.63
506.991	1104.65
509.918	1100.69
512.861	1096.73
515.822	1092.78
518.8	1088.84
521.795	1084.91
524.807	1080.98
527.837	1077.07
530.884	1073.16
533.949	1069.26
537.032	1065.37
540.132	1061.49
543.25	1057.61
546.387	1053.75
549.541	1049.89
552.713	1046.05
555.904	1042.21
559.114	1038.38
562.341	1034.55
565.588	1030.74
568.853	1026.94
572.137	1023.14
575.44	1019.36
578.762	1015.58
582.103	1011.81
585.464	1008.05
588.844	1004.3
592.243	1000.56
595.662	996.822
599.101	993.096
602.56	989.381
606.038	985.676
609.537	981.979
613.056	978.292
616.595	974.614
620.155	970.944
623.735	967.284
627.336	963.633
630.957	959.991
634.6	956.358
638.263	952.734
641.948	949.119
645.654	945.513
649.382	941.916
653.131	938.329
656.901	934.751
660.693	931.182
664.508	927.623
668.344	924.073
672.202	920.532
676.083	917.001
679.986	913.478
683.912	909.965
687.86	906.461
691.831	902.967
695.825	899.481
699.842	896.005
703.882	892.538
707.946	889.081
712.033	885.633
716.143	882.194
720.278	878.764
724.436	875.344
728.618	871.933
732.825	868.532
737.055	865.14
741.31	861.757
745.59	858.384
749.894	855.02
754.223	851.665
758.578	848.321
762.957	844.985
767.361	841.659
771.792	838.342
776.247	835.034
780.728	831.737
785.236	828.448
789.769	825.169
794.328	821.899
798.914	818.639
803.526	815.388
808.165	812.147
812.831	808.916
817.523	805.693
822.243	802.481
826.99	799.277
831.764	796.084
836.566	792.899
841.395	789.725
846.253	786.56
851.138	783.404
856.052	780.258
860.994	777.121
865.964	773.994
870.964	770.877
875.992	767.768
881.049	764.67
886.135	761.581
891.251	758.501
896.396	755.431
901.571	752.371
906.776	749.32
912.011	746.278
917.276	743.246
922.571	740.224
927.897	737.211
933.254	734.208
938.642	731.214
944.061	728.23
949.511	725.255
954.993	722.29
960.506	719.334
966.051	716.388
971.628	713.451
977.237	710.524
982.879	707.606
988.553	704.698
994.26	701.8
1000	698.911
1005.77	696.031
1011.58	693.161
1017.42	690.3
1023.29	687.449
1029.2	684.607
1035.14	681.775
1041.12	678.953
1047.13	676.14
1053.17	673.336
1059.25	670.542
1065.37	667.758
1071.52	664.983
1077.71	662.217
1083.93	659.461
1090.18	656.714
1096.48	653.977
1102.81	651.249
1109.17	648.531
1115.58	645.822
1122.02	643.122
1128.5	640.432
1135.01	637.751
1141.56	635.08
1148.15	632.417
1154.78	629.764
1161.45	627.121
1168.15	624.487
1174.9	621.862
1181.68	619.247
1188.5	616.641
1195.36	614.044
1202.26	611.456
1209.21	608.878
1216.19	606.309
1223.21	603.749
1230.27	601.198
1237.37	598.657
1244.51	596.125
1251.7	593.603
1258.93	591.089
1266.19	588.585
1273.5	586.089
1280.86	583.603
1288.25	581.127
1295.69	578.659
1303.17	576.2
1310.69	573.751
1318.26	571.31
1325.87	568.879
1333.52	566.457
1341.22	564.044
1348.96	561.639
1356.75	559.244
1364.58	556.858
1372.46	554.481
1380.38	552.113
1388.35	549.754
1396.37	547.403
1404.43	545.062
1412.54	542.73
1420.69	540.406
1428.89	538.092
1437.14	535.786
1445.44	533.489
1453.78	531.201
1462.18	528.922
1470.62	526.651
1479.11	524.39
1487.65	522.137
1496.24	519.893
1504.87	517.657
1513.56	515.431
1522.3	513.213
1531.09	511.004
1539.93	508.803
1548.82	506.611
1557.76	504.428
1566.75	502.253
1575.8	500.087
1584.89	497.93
1594.04	495.781
1603.25	493.641
1612.5	491.509
1621.81	489.385
1631.17	487.27
1640.59	485.164
1650.06	483.066
1659.59	480.977
1669.17	478.896
1678.8	476.823
1688.5	474.759
1698.24	472.703
1708.05	470.655
1717.91	468.616
1727.83	466.585
1737.8	464.563
1747.83	462.548
1757.92	460.542
1768.07	458.544
1778.28	456.555
1788.55	454.573
1798.87	452.6
1809.26	450.635
1819.7	448.678
1830.21	446.729
1840.77	444.788
1851.4	442.855
1862.09	440.93
1872.84	439.014
1883.65	437.105
1894.52	435.204
1905.46	433.312
1916.46	431.427
1927.52	429.55
1938.65	427.681
1949.84	425.82
1961.1	423.967
1972.42	422.121
1983.81	420.284
1995.26	418.454
2006.78	416.632
2018.37	414.818
2030.02	413.011
2041.74	411.212
2053.53	409.421
2065.38	407.638
2077.3	405.862
2089.3	404.094
2101.36	402.333
2113.49	400.58
2125.69	398.835
2137.96	397.097
2150.3	395.367
2162.72	393.644
2175.2	391.929
2187.76	390.221
2200.39	388.52
2213.09	386.827
2225.87	385.142
2238.72	383.463
2251.65	381.792
2264.64	380.129
2277.72	378.472
2290.87	376.823
2304.09	375.181
2317.39	373.547
2330.77	371.92
2344.23	370.299
2357.76	368.686
2371.37	367.081
2385.06	365.482
2398.83	363.89
2412.68	362.306
2426.61	360.728
2440.62	359.158
2454.71	357.594
2468.88	356.038
2483.13	354.488
2497.47	352.946
2511.89	351.41
2526.39	349.881
2540.97	348.359
2555.64	346.844
2570.4	345.336
2585.23	343.835
2600.16	342.34
2615.17	340.852
2630.27	339.371
2645.45	337.897
2660.73	336.429
2676.09	334.968
2691.53	333.514
2707.07	332.066
2722.7	330.625
2738.42	329.19
2754.23	327.762
2770.13	326.341
2786.12	324.926
2802.21	323.518
2818.38	322.116
2834.65	320.72
2851.02	319.331
2867.48	317.948
2884.03	316.572
2900.68	315.202
2917.43	313.838
2934.27	312.481
2951.21	311.13
2968.25	309.785
2985.38	308.447
3002.62	307.115
3019.95	305.788
3037.39	304.469
3054.92	303.155
3072.56	301.847
3090.3	300.546
3108.14	299.25
3126.08	297.961
3144.13	296.677
3162.28	295.4
3180.53	294.129
3198.9	292.863
3217.36	291.604
3235.94	290.351
3254.62	289.103
3273.41	287.861
3292.3	286.625
3311.31	285.395
3330.43	284.171
3349.65	282.953
3368.99	281.74
3388.44	280.534
3408	279.332
3427.68	278.137
3447.47	276.947
3467.37	275.763
3487.39	274.585
3507.52	273.412
3527.77	272.245
3548.13	271.083
3568.62	269.927
3589.22	268.777
3609.94	267.632
3630.78	266.492
3651.74	265.358
3672.82	264.23
3694.03	263.106
3715.35	261.989
3736.8	260.876
3758.37	259.769
3780.07	258.668
3801.89	257.571
3823.84	256.48
3845.92	255.395
3868.12	254.314
3890.45	253.239
3912.91	252.169
3935.5	251.104
3958.22	250.044
3981.07	248.99
4004.05	247.94
4027.17	246.896
4050.42	245.857
4073.8	244.823
4097.32	243.793
4120.98	242.769
4144.77	241.75
4168.69	240.736
4192.76	239.727
4216.97	238.723
4241.31	237.724
4265.8	236.729
4290.42	235.74
4315.19	234.755
4340.1	233.776
4365.16	232.801
4390.36	231.831
4415.7	230.865
4441.2	229.905
4466.84	228.949
4492.62	227.998
4518.56	227.052
4544.65	226.11
4570.88	225.173
4597.27	224.241
4623.81	223.313
4650.5	222.39
4677.35	221.471
4704.35	220.557
4731.51	219.648
4758.83	218.743
4786.3	217.842
4813.93	216.946
4841.72	216.055
4869.68	215.168
4897.79	214.285
4926.06	213.407
4954.5	212.534
4983.1	211.664
5011.87	210.799
5040.81	209.939
5069.91	209.082
5099.18	208.23
5128.61	207.382
5158.22	206.539
5188	205.7
5217.95	204.865
5248.07	204.034
5278.37	203.207
5308.84	202.385
5339.49	201.566
5370.32	200.752
5401.32	199.942
5432.5	199.136
5463.87	198.334
5495.41	197.537
5527.13	196.743
5559.04	195.953
5591.14	195.168
5623.41	194.386
5655.88	193.608
5688.53	192.834
5721.37	192.064
5754.4	191.299
5787.62	190.537
5821.03	189.778
5854.64	189.024
5888.44	188.274
5922.43	187.527
5956.62	186.785
5991.01	186.046
6025.6	185.311
6060.38	184.579
6095.37	183.852
6130.56	183.128
6165.95	182.408
6201.55	181.691
6237.35	180.978
6273.36	180.269
6309.57	179.564
6346	178.862
6382.63	178.164
6419.48	177.469
6456.54	176.778
6493.82	176.091
6531.31	175.407
6569.01	174.727
6606.93	174.05
6645.08	173.377
6683.44	172.707
6722.02	172.041
6760.83	171.378
6799.86	170.719
6839.12	170.063
6878.6	169.41
6918.31	168.761
6958.25	168.115
6998.42	167.473
7038.82	166.834
7079.46	166.198
7120.33	165.566
7161.43	164.937
7202.78	164.311
7244.36	163.689
7286.18	163.069
7328.25	162.453
7370.55	161.841
7413.1	161.231
7455.9	160.625
7498.94	160.022
7542.23	159.422
7585.78	158.825
7629.57	158.231
7673.61	157.641
7717.92	157.054
7762.47	156.469
7807.28	155.888
7852.36	155.31
7897.69	154.735
7943.28	154.163
7989.14	153.594
8035.26	153.028
8081.65	152.465
8128.31	151.906
8175.23	151.349
8222.43	150.795
8269.9	150.244
8317.64	149.696
8365.66	149.15
8413.95	148.608
8462.53	148.069
8511.38	147.532
8560.52	146.999
8609.94	146.468
8659.64	145.94
8709.64	145.415
8759.92	144.893
8810.49	144.374
8861.35	143.857
8912.51	143.343
8963.96	142.832
9015.71	142.324
9067.76	141.818
9120.11	141.316
9172.76	140.816
9225.71	140.318
9278.97	139.823
9332.54	139.331
9386.42	138.842
9440.61	138.355
9495.11	137.871
9549.93	137.39
9605.06	136.911
9660.51	136.435
9716.28	135.962
9772.37	135.491
9828.79	135.022
9885.53	134.556
9942.6	134.093
10000	133.632
10057.7	133.174
10115.8	132.718
10174.2	132.265
10232.9	131.814
10292	131.366
10351.4	130.92
10411.2	130.477
10471.3	130.036
10531.7	129.598
10592.5	129.162
10653.7	128.728
10715.2	128.297
10777.1	127.868
10839.3	127.442
10901.8	127.018
10964.8	126.596
11028.1	126.177
11091.7	125.76
11155.8	125.345
11220.2	124.933
11285	124.523
11350.1	124.115
11415.6	123.709
11481.5	123.306
11547.8	122.905
11614.5	122.507
11681.5	122.11
11749	121.716
11816.8	121.324
11885	120.934
11953.6	120.547
12022.6	120.161
12092.1	119.778
12161.9	119.397
12232.1	119.018
12302.7	118.642
12373.7	118.267
12445.1	117.894
12517	117.524
12589.3	117.156
12661.9	116.79
12735	116.426
12808.6	116.064
12882.5	115.704
12956.9	115.346
13031.7	114.991
13106.9	114.637
13182.6	114.285
13258.7	113.936
13335.2	113.588
13412.2	113.242
13489.6	112.899
13567.5	112.557
13645.8	112.217
13724.6	111.88
13803.8	111.544
13883.5	111.21
13963.7	110.879
14044.3	110.549
14125.4	110.221
14206.9	109.895
14288.9	109.571
14371.4	109.248
14454.4	108.928
14537.8	108.61
14621.8	108.293
14706.2	107.978
14791.1	107.666
14876.5	107.355
14962.4	107.045
15048.7	106.738
15135.6	106.433
15223	106.129
15310.9	105.827
15399.3	105.527
15488.2	105.229
15577.6	104.932
15667.5	104.638
15758	104.345
15848.9	104.053
15940.4	103.764
16032.5	103.476
16125	103.19
16218.1	102.906
16311.7	102.623
16405.9	102.343
16500.6	102.064
16595.9	101.786
16691.7	101.51
16788	101.236
16885	100.964
16982.4	100.693
17080.5	100.424
17179.1	100.157
17278.3	99.891
17378	99.6269
17478.3	99.3644
17579.2	99.1035
17680.7	98.8442
17782.8	98.5865
17885.5	98.3305
17988.7	98.076
18092.6	97.8231
18197	97.5718
18302.1	97.322
18407.7	97.0738
18514	96.8272
18620.9	96.5821
18728.4	96.3386
18836.5	96.0966
18945.2	95.8561
19054.6	95.6171
19164.6	95.3797
19275.2	95.1437
19386.5	94.9093
19498.4	94.6763
19611	94.4448
19724.2	94.2149
19838.1	93.9863
19952.6	93.7593
20067.8	93.5337
20183.7	93.3096
20300.2	93.0869
20417.4	92.8656
20535.3	92.6458
20653.8	92.4274
20773	92.2104
20893	91.9948
21013.6	91.7807
21134.9	91.5679
21256.9	91.3566
21379.6	91.1466
21503	90.938
21627.2	90.7308
21752	90.5249
21877.6	90.3205
22003.9	90.1173
22130.9	89.9156
22258.7	89.7151
22387.2	89.516
22516.5	89.3183
22646.4	89.1218
22777.2	88.9267
22908.7	88.7329
23040.9	88.5404
23173.9	88.3493
23307.7	88.1594
23442.3	87.9708
23577.6	87.7835
23713.7	87.5974
23850.6	87.4127
23988.3	87.2292
24126.8	87.047
24266.1	86.866
24406.2	86.6863
24547.1	86.5078
24688.8	86.3306
24831.3	86.1546
24974.7	85.9798
25118.9	85.8063
25263.9	85.6339
25409.7	85.4628
25556.4	85.2929
25704	85.1242
25852.3	84.9567
26001.6	84.7904
26151.7	84.6252
26302.7	84.4613
26454.5	84.2985
26607.3	84.1369
26760.9	83.9764
26915.3	83.8171
27070.7	83.659
27227	83.502
27384.2	83.3462
27542.3	83.1915
27701.3	83.0379
27861.2	82.8854
28022.1	82.7341
28183.8	82.5839
28346.5	82.4348
28510.2	82.2869
28674.8	82.14
28840.3	81.9942
29006.8	81.8495
29174.3	81.7059
29342.7	81.5634
29512.1	81.422
29682.5	81.2816
29853.8	81.1423
30026.2	81.0041
30199.5	80.8669
30373.9	80.7308
30549.2	80.5957
30725.6	80.4617
30903	80.3287
31081.4	80.1968
31260.8	80.0658
31441.3	79.936
31622.8	79.8071
31805.3	79.6792
31989	79.5524
32173.6	79.4266
32359.4	79.3017
32546.2	79.1779
32734.1	79.0551
32923	78.9332
33113.1	78.8124
33304.3	78.6925
33496.5	78.5736
33689.9	78.4557
33884.4	78.3387
34080	78.2227
34276.8	78.1077
34474.7	77.9936
34673.7	77.8805
34873.9	77.7683
35075.2	77.6571
35277.7	77.5468
35481.3	77.4374
35686.2	77.329
35892.2	77.2214
36099.4	77.1148
36307.8	77.0092
36517.4	76.9044
36728.2	76.8006
36940.3	76.6976
37153.5	76.5956
37368	76.4944
37583.7	76.3941
37800.7	76.2948
38018.9	76.1963
38238.4	76.0987
38459.2	76.0019
38681.2	75.9021
38904.5	75.7991
39129.1	75.6969
39355	75.5955
39582.2	75.495
39810.7	75.3954
40040.5	75.2965
40271.7	75.1985
40504.2	75.1014
40738	75.005
40973.2	74.9095
41209.8	74.8148
41447.7	74.7209
41686.9	74.6278
41927.6	74.5356
42169.7	74.4441
42413.1	74.3534
42658	74.2635
42904.2	74.1744
43151.9	74.0861
43401	73.9986
43651.6	73.9118
43903.6	73.8258
44157	73.7406
44412	73.6562
44668.4	73.5725
44926.2	73.4896
45185.6	73.4074
45446.5	73.326
45708.8	73.2453
45972.7	73.1654
46238.1	73.0862
46505	73.0078
46773.5	72.9301
47043.5	72.8531
47315.1	72.7768
47588.3	72.7013
47863	72.6265
48139.3	72.5524
48417.2	72.479
48696.8	72.4063
48977.9	72.3343
49260.6	72.2631
49545	72.1925
49831	72.1226
50118.7	72.0534
50408.1	71.9849
50699.1	71.9171
50991.8	71.85
51286.1	71.7835
51582.2	71.7177
51880	71.6526
52179.5	71.5882
52480.7	71.5244
52783.7	71.4612
53088.4	71.3988
53394.9	71.337
53703.2	71.2758
54013.2	71.2153
54325	71.1554
54638.7	71.0962
54954.1	71.0376
55271.3	70.9796
55590.4	70.9223
55911.4	70.8656
56234.1	70.8095
56558.8	70.754
56885.3	70.6992
57213.7	70.645
57544	70.5914
57876.2	70.5383
58210.3	70.4859
58546.4	70.4341
58884.4	70.3829
59224.3	70.3323
59566.2	70.2823
59910.1	70.2329
60256	70.1841
60603.8	70.1358
60953.7	70.0881
61305.6	70.041
61659.5	69.9945
62015.5	69.9486
62373.5	69.9032
62733.6	69.8584
63095.7	69.8141
63460	69.7704
63826.3	69.7273
64194.8	69.6847
64565.4	69.6427
64938.2	69.6012
65313.1	69.5602
65690.1	69.5198
66069.3	69.48
66450.8	69.4406
66834.4	69.4018
67220.2	69.3636
67608.3	69.3258
67998.6	69.2886
68391.2	69.2519
68786	69.2158
69183.1	69.1801
69582.5	69.145
69984.2	69.1103
70388.2	69.0762
70794.6	69.0426
71203.3	69.0095
71614.3	68.9768
72027.8	68.9447
72443.6	68.9131
72861.8	68.8819
73282.5	68.8513
73705.5	68.8211
74131	68.7914
74559	68.7622
74989.4	68.7335
75422.3	68.7052
75857.8	68.6775
76295.7	68.6502
76736.1	68.6233
77179.2	68.5969
77624.7	68.571
78072.8	68.5456
78523.6	68.5206
78976.9	68.496
79432.8	68.4719
79891.4	68.4483
80352.6	68.4251
80816.5	68.4023
81283.1	68.38
81752.3	68.3581
82224.3	68.3366
82699	68.3156
83176.4	68.295
83656.6	68.2749
84139.5	68.2552
84625.3	68.2359
85113.8	68.217
85605.2	68.1985
86099.4	68.1805
86596.4	68.1628
87096.4	68.1456
87599.2	68.1288
88104.9	68.1124
88613.5	68.0964
89125.1	68.0808
89639.6	68.0656
90157.1	68.0507
90677.6	68.0363
91201.1	68.0223
91727.6	68.0087
92257.1	67.9954
92789.7	67.9826
93325.4	67.9701
93864.2	67.958
94406.1	67.9463
94951.1	67.9349
95499.3	67.924
96050.6	67.9134
96605.1	67.9031
97162.8	67.8933
97723.7	67.8838
98287.9	67.8746
98855.3	67.8658
99426	67.8574
100000	67.8493
100577	67.8416
101158	67.8343
101742	67.8273
102329	67.8206
102920	67.8143
103514	67.8083
104112	67.8027
104713	67.7973
105317	67.7924
105925	67.7877
106537	67.7834
107152	67.7795
107771	67.7758
108393	67.7725
109018	67.7695
109648	67.7668
110281	67.7645
110917	67.7625
111558	67.7607
112202	67.7593
112850	67.7582
113501	67.7574
114156	67.7569
114815	67.7568
115478	67.7569
116145	67.7573
116815	67.758
117490	67.7591
118168	67.7604
118850	67.762
119536	67.7639
120226	67.7661
120921	67.7686
121619	67.7713
122321	67.7744
123027	67.7777
123737	67.7813
124451	67.7852
125170	67.7893
125893	67.7938
126619	67.7985
127350	67.8034
128086	67.8087
128825	67.8142
129569	67.82
130317	67.826
131069	67.8323
131826	67.8389
132587	67.8457
133352	67.8528
134122	67.8601
134896	67.8677
135675	67.8755
136458	67.8836
137246	67.8919
138038	67.9005
138835	67.9093
139637	67.9183
140443	67.9276
141254	67.9371
142069	67.9469
142889	67.9569
143714	67.9671
144544	67.9776
145378	67.9883
146218	67.9992
147062	68.0104
147911	68.0218
148765	68.0334
149624	68.0452
150487	68.0572
151356	68.0695
152230	68.082
153109	68.0947
153993	68.1076
154882	68.1207
155776	68.134
156675	68.1475
157580	68.1613
158489	68.1752
159404	68.1894
160325	68.2037
161250	68.2183
162181	68.2331
163117	68.248
164059	68.2632
165006	68.2785
165959	68.2941
166917	68.3098
167880	68.3257
168850	68.3418
169824	68.3581
170805	68.3746
171791	68.3913
172783	68.4081
173780	68.4252
174783	68.4424
175792	68.4598
176807	68.4774
177828	68.4951
178855	68.5131
179887	68.5312
180926	68.5494
181970	68.5679
183021	68.5865
184077	68.6053
185140	68.6242
186209	68.6433
187284	68.6626
188365	68.6821
189452	68.7017
190546	68.7214
191646	68.7413
192752	68.7614
193865	68.7817
194984	68.802
196110	68.8226
197242	68.8433
198381	68.8641
199526	68.8851
200678	68.9063
201837	68.9276
203002	68.949
204174	68.9706
205353	68.9923
206538	69.0142
207730	69.0362
208930	69.0584
210136	69.0807
211349	69.1031
212569	69.1257
213796	69.1484
215030	69.1712
216272	69.1942
217520	69.2173
218776	69.2405
220039	69.2639
221309	69.2874
222587	69.311
223872	69.3348
225165	69.3587
226464	69.3827
227772	69.4068
229087	69.431
230409	69.4554
231739	69.4799
233077	69.5045
234423	69.5292
235776	69.554
237137	69.579
238506	69.6041
239883	69.6293
241268	69.6546
242661	69.68
244062	69.7055
245471	69.7311
246888	69.7568
248313	69.7827
249747	69.8086
251189	69.8347
252639	69.8609
254097	69.8871
255564	69.9135
257040	69.94
258523	69.9665
260016	69.9932
261517	70.02
263027	70.0469
264545	70.0738
266073	70.1009
267609	70.128
269153	70.1553
270707	70.1826
272270	70.2101
273842	70.2376
275423	70.2652
277013	70.2929
278612	70.3207
280221	70.3486
281838	70.3766
283465	70.4047
285102	70.4328
286748	70.461
288403	70.4894
290068	70.5178
291743	70.5462
293427	70.5748
295121	70.6034
296825	70.6322
298538	70.661
300262	70.6899
301995	70.7188
303739	70.7479
305492	70.777
307256	70.8061
309030	70.8354
310814	70.8647
312608	70.8942
314413	70.9236
316228	70.9532
318053	70.9828
319890	71.0125
321736	71.0423
323594	71.0721
325462	71.102
327341	71.1319
329230	71.162
331131	71.1921
333043	71.2222
334965	71.2525
336899	71.2827
338844	71.3131
340800	71.3435
342768	71.374
344747	71.4045
346737	71.4351
348739	71.4658
350752	71.4965
352777	71.5272
354813	71.5581
356862	71.589
358922	71.6199
360994	71.6509
363078	71.6819
365174	71.713
367282	71.7442
369403	71.7754
371535	71.8067
373680	71.838
375837	71.8694
378007	71.9008
380189	71.9323
382384	71.9638
384592	71.9953
386812	72.0269
389045	72.0586
391291	72.0903
393550	72.1221
395822	72.1539
398107	72.1857
400405	72.2176
402717	72.2495
405042	72.2815
407380	72.3136
409732	72.3456
412098	72.3777
414477	72.4099
416869	72.4421
419276	72.4743
421697	72.5066
424131	72.5389
426580	72.5712
429042	72.6036
431519	72.636
434010	72.6685
436516	72.701
439036	72.7335
441570	72.7661
444120	72.7987
446684	72.8314
449262	72.864
451856	72.8968
454465	72.9295
457088	72.9623
459727	72.9951
462381	73.0279
465050	73.0608
467735	73.0937
470435	73.1267
473151	73.1596
475883	73.1926
478630	73.2257
481393	73.2587
484172	73.2918
486968	73.3249
489779	73.3581
492606	73.3912
495450	73.4244
498310	73.4577
501187	73.4909
504081	73.5242
506991	73.5575
509918	73.5908
512861	73.6242
515822	73.6575
518800	73.6909
521795	73.7244
524807	73.7578
527837	73.7913
530884	73.8248
533949	73.8583
537032	73.8918
540132	73.9254
543250	73.959
546387	73.9926
549541	74.0262
552713	74.0598
555904	74.0935
559114	74.1272
562341	74.1609
565588	74.1946
568853	74.2283
572137	74.2621
575440	74.2958
578762	74.3296
582103	74.3634
585464	74.3972
588844	74.4311
592243	74.4649
595662	74.4988
599101	74.5327
602560	74.5666
606038	74.6005
609537	74.6344
613056	74.6684
616595	74.7023
620155	74.7363
623735	74.7703
627336	74.8043
630957	74.8383
634600	74.8723
638263	74.9063
641948	74.9404
645654	74.9744
649382	75.0085
653131	75.0426
656901	75.0767
660693	75.1108
664508	75.1449
668344	75.179
672202	75.2131
676083	75.2473
679986	75.2814
683912	75.3156
687860	75.3497
691831	75.3839
695825	75.4181
699842	75.4523
703882	75.4865
707946	75.5207
712033	75.5549
716143	75.5891
720278	75.6233
724436	75.6576
728618	75.6918
732825	75.7261
737055	75.7603
741310	75.7946
745590	75.8288
749894	75.8631
754223	75.8974
758578	75.9317
762957	75.9659
767361	76.0002
771792	76.0345
776247	76.0688
780728	76.1031
785236	76.1374
789769	76.1717
794328	76.206
798914	76.2403
803526	76.2746
808165	76.309
812831	76.3433
817523	76.3776
822243	76.4119
826990	76.4463
831764	76.4806
836566	76.5149
841395	76.5492
846253	76.5836
851138	76.6179
856052	76.6522
860994	76.6866
865964	76.7209
870964	76.7552
875992	76.7896
881049	76.8239
886135	76.8582
891251	76.8926
896396	76.9269
901571	76.9612
906776	76.9956
912011	77.0299
917276	77.0642
922571	77.0986
927897	77.1329
933254	77.1672
938642	77.2015
944061	77.2359
949511	77.2702
954993	77.3045
960506	77.3388
966051	77.3731
971628	77.4074
977237	77.4417
982879	77.476
988553	77.5103
994260	77.5446
1e+06	77.5789
1.00577e+06	77.6132
1.01158e+06	77.6475
1.01742e+06	77.6818
1.02329e+06	77.7161
1.0292e+06	77.7503
1.03514e+06	77.7846
1.04112e+06	77.8189
1.04713e+06	77.8531
1.05317e+06	77.8874
1.05925e+06	77.9217
1.06537e+06	77.9559
1.07152e+06	77.9902
1.07771e+06	78.0244
1.08393e+06	78.0586
1.09018e+06	78.0929
1.09648e+06	78.1271
1.10281e+06	78.1613
1.10917e+06	78.1955
1.11558e+06	78.2297
1.12202e+06	78.2639
1.1285e+06	78.2981
1.13501e+06	78.3323
1.14156e+06	78.3665
1.14815e+06	78.4007
1.15478e+06	78.4349
1.16145e+06	78.469
1.16815e+06	78.5032
1.1749e+06	78.5373
1.18168e+06	78.5715
1.1885e+06	78.6056
1.19536e+06	78.6398
1.20226e+06	78.6739
1.20921e+06	78.708
1.21619e+06	78.7421
1.22321e+06	78.7762
1.23027e+06	78.8103
1.23737e+06	78.8444
1.24451e+06	78.8785
1.2517e+06	78.9126
1.25893e+06	78.9466
1.26619e+06	78.9807
1.2735e+06	79.0148
1.28086e+06	79.0488
1.28825e+06	79.0828
1.29569e+06	79.1169
1.30317e+06	79.1509
1.31069e+06	79.1849
1.31826e+06	79.2189
1.32587e+06	79.2529
1.33352e+06	79.2869
1.34122e+06	79.3209
1.34896e+06	79.3548
1.35675e+06	79.3888
1.36458e+06	79.4228
1.37246e+06	79.4567
1.38038e+06	79.4906
1.38835e+06	79.5246
1.39637e+06	79.5585
1.40443e+06	79.5924
1.41254e+06	79.6263
1.42069e+06	79.6602
1.42889e+06	79.6941
1.43714e+06	79.728
1.44544e+06	79.7618
1.45378e+06	79.7957
1.46218e+06	79.8295
1.47062e+06	79.8634
1.47911e+06	79.8972
1.48765e+06	79.931
1.49624e+06	79.9648
1.50487e+06	79.9986
1.51356e+06	80.0324
1.5223e+06	80.0662
1.53109e+06	80.0999
1.53993e+06	80.1337
1.54882e+06	80.1674
1.55776e+06	80.2012
1.56675e+06	80.2349
1.5758e+06	80.2686
1.58489e+06	80.3023
1.59404e+06	80.336
1.60325e+06	80.3697
1.6125e+06	80.4034
1.62181e+06	80.437
1.63117e+06	80.4707
1.64059e+06	80.5043
1.65006e+06	80.538
1.65959e+06	80.5716
1.66917e+06	80.6052
1.6788e+06	80.6388
1.6885e+06	80.6724
1.69824e+06	80.706
1.70805e+06	80.7395
1.71791e+06	80.7731
1.72783e+06	80.8066
1.7378e+06	80.8402
1.74783e+06	80.8737
1.75792e+06	80.9072
1.76807e+06	80.9407
1.77828e+06	80.9742
1.78855e+06	81.0077
1.79887e+06	81.0411
1.80926e+06	81.0746
1.8197e+06	81.108
1.83021e+06	81.1415
1.84077e+06	81.1749
1.8514e+06	81.2083
1.86209e+06	81.2417
1.87284e+06	81.2751
1.88365e+06	81.3085
1.89452e+06	81.3418
1.90546e+06	81.3752
1.91646e+06	81.4085
1.92752e+06	81.4418
1.93865e+06	81.4752
1.94984e+06	81.5085
1.9611e+06	81.5417
1.97242e+06	81.575
1.98381e+06	81.6083
1.99526e+06	81.6415
2.00678e+06	81.6748
2.01837e+06	81.708
2.03002e+06	81.7412
2.04174e+06	81.7745
2.05353e+06	81.8076
2.06538e+06	81.8408
2.0773e+06	81.874
2.0893e+06	81.9072
2.10136e+06	81.9403
2.11349e+06	81.9734
2.12569e+06	82.0066
2.13796e+06	82.0397
2.1503e+06	82.0728
2.16272e+06	82.1058
2.1752e+06	82.1389
2.18776e+06	82.172
2.20039e+06	82.205
2.21309e+06	82.2381
2.22587e+06	82.2711
2.23872e+06	82.3041
2.25165e+06	82.3371
2.26464e+06	82.3701
2.27772e+06	82.403
2.29087e+06	82.436
2.30409e+06	82.4689
2.31739e+06	82.5019
2.33077e+06	82.5348
2.34423e+06	82.5677
2.35776e+06	82.6006
2.37137e+06	82.6335
2.38506e+06	82.6663
2.39883e+06	82.6992
2.41268e+06	82.732
2.42661e+06	82.7649
2.44062e+06	82.7977
2.45471e+06	82.8305
2.46888e+06	82.8633
2.48313e+06	82.896
2.49747e+06	82.9288
2.51189e+06	82.9616
2.52639e+06	82.9943
2.54097e+06	83.027
2.55564e+06	83.0597
2.5704e+06	83.0924
2.58523e+06	83.1251
2.60016e+06	83.1578
2.61517e+06	83.1904
2.63027e+06	83.2231
2.64545e+06	83.2557
2.66073e+06	83.2883
2.67609e+06	83.3209
2.69153e+06	83.3535
2.70707e+06	83.3861
2.7227e+06	83.4187
2.73842e+06	83.4512
2.75423e+06	83.4838
2.77013e+06	83.5163
2.78612e+06	83.5488
2.80221e+06	83.5813
2.81838e+06	83.6138
2.83465e+06	83.6463
2.85102e+06	83.6787
2.86748e+06	83.7112
2.88403e+06	83.7436
2.90068e+06	83.776
2.91743e+06	83.8084
2.93427e+06	83.8408
2.95121e+06	83.8732
2.96825e+06	83.9055
2.98538e+06	83.9379
3.00262e+06	83.9702
3.01995e+06	84.0025
3.03739e+06	84.0348
3.05492e+06	84.0671
3.07256e+06	84.0994
3.0903e+06	84.1317
3.10814e+06	84.1639
3.12608e+06	84.1962
3.14413e+06	84.2284
3.16228e+06	84.2606
3.18053e+06	84.2928
3.1989e+06	84.325
3.21736e+06	84.3572
3.23594e+06	84.3893
3.25462e+06	84.4215
3.27341e+06	84.4536
3.2923e+06	84.4857
3.31131e+06	84.5178
3.33043e+06	84.5499
3.34965e+06	84.582
3.36899e+06	84.614
3.38844e+06	84.6461
3.408e+06	84.6781
3.42768e+06	84.7101
3.44747e+06	84.7421
3.46737e+06	84.7741
3.48739e+06	84.8061
3.50752e+06	84.838
3.52777e+06	84.87
3.54813e+06	84.9019
3.56862e+06	84.9338
3.58922e+06	84.9657
3.60994e+06	84.9976
3.63078e+06	85.0295
3.65174e+06	85.0614
3.67282e+06	85.0932
3.69403e+06	85.125
3.71535e+06	85.1569
3.7368e+06	85.1887
3.75837e+06	85.2205
3.78007e+06	85.2522
3.80189e+06	85.284
3.82384e+06	85.3157
3.84592e+06	85.3475
3.86812e+06	85.3792
3.89045e+06	85.4109
3.91291e+06	85.4426
3.9355e+06	85.4743
3.95822e+06	85.5059
3.98107e+06	85.5376
4.00405e+06	85.5692
4.02717e+06	85.6008
4.05042e+06	85.6324
4.0738e+06	85.664
4.09732e+06	85.6956
4.12098e+06	85.7272
4.14477e+06	85.7587
4.16869e+06	85.7902
4.19276e+06	85.8218
4.21697e+06	85.8533
4.24131e+06	85.8848
4.2658e+06	85.9162
4.29042e+06	85.9477
4.31519e+06	85.9791
4.3401e+06	86.0106
4.36516e+06	86.042
4.39036e+06	86.0734
4.4157e+06	86.1048
4.4412e+06	86.1362
4.46684e+06	86.1675
4.49262e+06	86.1989
4.51856e+06	86.2302
4.54465e+06	86.2615
4.57088e+06	86.2928
4.59727e+06	86.3241
4.62381e+06	86.3554
4.6505e+06	86.3866
4.67735e+06	86.4179
4.70435e+06	86.4491
4.73151e+06	86.4803
4.75883e+06	86.5115
4.7863e+06	86.5427
4.81393e+06	86.5739
4.84172e+06	86.605
4.86968e+06	86.6362
4.89779e+06	86.6673
4.92606e+06	86.6984
4.9545e+06	86.7295
4.9831e+06	86.7606
5.01187e+06	86.7917
5.04081e+06	86.8227
5.06991e+06	86.8538
5.09918e+06	86.8848
5.12861e+06	86.9158
5.15822e+06	86.9468
5.188e+06	86.9778
5.21795e+06	87.0087
5.24807e+06	87.0397
5.27837e+06	87.0706
5.30884e+06	87.1015
5.33949e+06	87.1324
5.37032e+06	87.1633
5.40132e+06	87.1942
5.4325e+06	87.2251
5.46387e+06	87.2559
5.49541e+06	87.2867
5.52713e+06	87.3175
5.55904e+06	87.3483
5.59114e+06	87.3791
5.62341e+06	87.4099
5.65588e+06	87.4407
5.68853e+06	87.4714
5.72137e+06	87.5021
5.7544e+06	87.5328
5.78762e+06	87.5635
5.82103e+06	87.5942
5.85464e+06	87.6249
5.88844e+06	87.6555
5.92243e+06	87.6862
5.95662e+06	87.7168
5.99101e+06	87.7474
6.0256e+06	87.778
6.06038e+06	87.8086
6.09537e+06	87.8391
6.13056e+06	87.8697
6.16595e+06	87.9002
6.20155e+06	87.9307
6.23735e+06	87.9612
6.27336e+06	87.9917
6.30957e+06	88.0222
6.346e+06	88.0526
6.38263e+06	88.0831
6.41948e+06	88.1135
6.45654e+06	88.1439
6.49382e+06	88.1743
6.53131e+06	88.2047
6.56901e+06	88.235
6.60693e+06	88.2654
6.64508e+06	88.2957
6.68344e+06	88.326
6.72202e+06	88.3563
6.76083e+06	88.3866
6.79986e+06	88.4169
6.83912e+06	88.4472
6.8786e+06	88.4774
6.91831e+06	88.5076
6.95825e+06	88.5378
6.99842e+06	88.568
7.03882e+06	88.5982
7.07946e+06	88.6284
7.12033e+06	88.6585
7.16143e+06	88.6887
7.20278e+06	88.7188
7.24436e+06	88.7489
7.28618e+06	88.779
7.32825e+06	88.809
7.37055e+06	88.8391
7.4131e+06	88.8691
7.4559e+06	88.8992
7.49894e+06	88.9292
7.54223e+06	88.9592
7.58578e+06	88.9891
7.62957e+06	89.0191
7.67361e+06	89.0491
7.71792e+06	89.079
7.76247e+06	89.1089
7.80728e+06	89.1388
7.85236e+06	89.1687
7.89769e+06	89.1986
7.94328e+06	89.2284
7.98914e+06	89.2583
8.03526e+06	89.2881
8.08165e+06	89.3179
8.12831e+06	89.3477
8.17523e+06	89.3775
8.22243e+06	89.4072
8.2699e+06	89.437
8.31764e+06	89.4667
8.36566e+06	89.4964
8.41395e+06	89.5261
8.46253e+06	89.5558
8.51138e+06	89.5854
8.56052e+06	89.6151
8.60994e+06	89.6447
8.65964e+06	89.6744
8.70964e+06	89.704
8.75992e+06	89.7335
8.81049e+06	89.7631
8.86135e+06	89.7927
8.91251e+06	89.8222
8.96396e+06	89.8517
9.01571e+06	89.8812
9.06776e+06	89.9107
9.12011e+06	89.9402
9.17276e+06	89.9697
9.22571e+06	89.9991
9.27897e+06	90.0285
9.33254e+06	90.058
9.38642e+06	90.0873
9.44061e+06	90.1167
9.49511e+06	90.1461
9.54993e+06	90.1754
9.60506e+06	90.2048
9.66051e+06	90.2341
9.71628e+06	90.2634
9.77237e+06	90.2927
9.82879e+06	90.3219
9.88553e+06	90.3512
9.9426e+06	90.3804
1e+07	90.4096
