Stopping power dEdx from Ionisation for B11[0.0] Z = 5 in G4_TISSUE_SOFT_ICRP, process name: ionIoni
E [MeV]	dEdx [MeV/mm]
0.001	34.8431
0.00100577	34.9436
0.00101158	35.0443
0.00101742	35.1453
0.00102329	35.2466
0.0010292	35.3482
0.00103514	35.4501
0.00104112	35.5522
0.00104713	35.6547
0.00105317	35.7575
0.00105925	35.8606
0.00106537	35.9639
0.00107152	36.0676
0.00107771	36.1715
0.00108393	36.2758
0.00109018	36.3804
0.00109648	36.4852
0.00110281	36.5904
0.00110917	36.6959
0.00111558	36.8016
0.00112202	36.9077
0.0011285	37.0141
0.00113501	37.1208
0.00114156	37.2278
0.00114815	37.3351
0.00115478	37.4427
0.00116145	37.5506
0.00116815	37.6589
0.0011749	37.7674
0.00118168	37.8763
0.0011885	37.9854
0.00119536	38.0949
0.00120226	38.2047
0.00120921	38.3148
0.00121619	38.4253
0.00122321	38.536
0.00123027	38.6471
0.00123737	38.7585
0.00124451	38.8702
0.0012517	38.9823
0.00125893	39.0946
0.00126619	39.2073
0.0012735	39.3203
0.00128086	39.4337
0.00128825	39.5473
0.00129569	39.6613
0.00130317	39.7756
0.00131069	39.8903
0.00131826	40.0053
0.00132587	40.1206
0.00133352	40.2362
0.00134122	40.3522
0.00134896	40.4685
0.00135675	40.5851
0.00136458	40.7021
0.00137246	40.8194
0.00138038	40.9371
0.00138835	41.0551
0.00139637	41.1734
0.00140443	41.2921
0.00141254	41.4111
0.00142069	41.5305
0.00142889	41.6502
0.00143714	41.7703
0.00144544	41.8906
0.00145378	42.0114
0.00146218	42.1325
0.00147062	42.2539
0.00147911	42.3757
0.00148765	42.4979
0.00149624	42.6204
0.00150487	42.7432
0.00151356	42.8664
0.0015223	42.99
0.00153109	43.1139
0.00153993	43.2381
0.00154882	43.3628
0.00155776	43.4878
0.00156675	43.6131
0.0015758	43.7388
0.00158489	43.8649
0.00159404	43.9913
0.00160325	44.1181
0.0016125	44.2453
0.00162181	44.3728
0.00163117	44.5007
0.00164059	44.629
0.00165006	44.7576
0.00165959	44.8866
0.00166917	45.016
0.0016788	45.1458
0.0016885	45.2759
0.00169824	45.4064
0.00170805	45.5373
0.00171791	45.6685
0.00172783	45.8002
0.0017378	45.9322
0.00174783	46.0646
0.00175792	46.1974
0.00176807	46.3305
0.00177828	46.4641
0.00178855	46.598
0.00179887	46.7323
0.00180926	46.867
0.0018197	47.0021
0.00183021	47.1376
0.00184077	47.2734
0.0018514	47.4097
0.00186209	47.5463
0.00187284	47.6834
0.00188365	47.8208
0.00189452	47.9587
0.00190546	48.0969
0.00191646	48.2355
0.00192752	48.3746
0.00193865	48.514
0.00194984	48.6538
0.0019611	48.7941
0.00197242	48.9347
0.00198381	49.0758
0.00199526	49.2172
0.00200678	49.3591
0.00201837	49.5014
0.00203002	49.644
0.00204174	49.7871
0.00205353	49.9306
0.00206538	50.0746
0.0020773	50.2189
0.0020893	50.3636
0.00210136	50.5088
0.00211349	50.6544
0.00212569	50.8004
0.00213796	50.9468
0.0021503	51.0937
0.00216272	51.2409
0.0021752	51.3886
0.00218776	51.5368
0.00220039	51.6853
0.00221309	51.8343
0.00222587	51.9837
0.00223872	52.1335
0.00225165	52.2838
0.00226464	52.4345
0.00227772	52.5856
0.00229087	52.7372
0.00230409	52.8892
0.00231739	53.0417
0.00233077	53.1945
0.00234423	53.3479
0.00235776	53.5016
0.00237137	53.6559
0.00238506	53.8105
0.00239883	53.9656
0.00241268	54.1212
0.00242661	54.2772
0.00244062	54.4336
0.00245471	54.5905
0.00246888	54.7479
0.00248313	54.9057
0.00249747	55.0639
0.00251189	55.2226
0.00252639	55.3818
0.00254097	55.5414
0.00255564	55.7015
0.0025704	55.8621
0.00258523	56.0231
0.00260016	56.1846
0.00261517	56.3465
0.00263027	56.5089
0.00264545	56.6718
0.00266073	56.8352
0.00267609	56.999
0.00269153	57.1633
0.00270707	57.328
0.0027227	57.4933
0.00273842	57.659
0.00275423	57.8243
0.00277013	57.9869
0.00278612	58.15
0.00280221	58.3136
0.00281838	58.4776
0.00283465	58.6422
0.00285102	58.8072
0.00286748	58.9726
0.00288403	59.1386
0.00290068	59.305
0.00291743	59.4719
0.00293427	59.6393
0.00295121	59.8071
0.00296825	59.9755
0.00298538	60.1443
0.00300262	60.3136
0.00301995	60.4834
0.00303739	60.6537
0.00305492	60.8245
0.00307256	60.9958
0.0030903	61.1676
0.00310814	61.3398
0.00312608	61.5126
0.00314413	61.6859
0.00316228	61.8596
0.00318053	62.0339
0.0031989	62.2086
0.00321736	62.3839
0.00323594	62.5597
0.00325462	62.736
0.00327341	62.9128
0.0032923	63.09
0.00331131	63.2679
0.00333043	63.4462
0.00334965	63.625
0.00336899	63.8044
0.00338844	63.9842
0.003408	64.1646
0.00342768	64.3455
0.00344747	64.527
0.00346737	64.7089
0.00348739	64.8914
0.00350752	65.0744
0.00352777	65.2579
0.00354813	65.442
0.00356862	65.6266
0.00358922	65.8117
0.00360994	65.9974
0.00363078	66.1836
0.00365174	66.3703
0.00367282	66.5576
0.00369403	66.7454
0.00371535	66.9337
0.0037368	67.1226
0.00375837	67.3121
0.00378007	67.5021
0.00380189	67.6926
0.00382384	67.8837
0.00384592	68.0754
0.00386812	68.2676
0.00389045	68.4603
0.00391291	68.6536
0.0039355	68.8475
0.00395822	69.0419
0.00398107	69.2369
0.00400405	69.4325
0.00402717	69.6286
0.00405042	69.8253
0.0040738	70.0226
0.00409732	70.2204
0.00412098	70.4188
0.00414477	70.6178
0.00416869	70.8173
0.00419276	71.0174
0.00421697	71.2181
0.00424131	71.4194
0.0042658	71.6213
0.00429042	71.8237
0.00431519	72.0268
0.0043401	72.2304
0.00436516	72.4346
0.00439036	72.6394
0.0044157	72.8448
0.0044412	73.0508
0.00446684	73.2574
0.00449262	73.4646
0.00451856	73.6724
0.00454465	73.8808
0.00457088	74.0898
0.00459727	74.2994
0.00462381	74.5096
0.0046505	74.7204
0.00467735	74.9318
0.00470435	75.1438
0.00473151	75.3565
0.00475883	75.5698
0.0047863	75.7836
0.00481393	75.9981
0.00484172	76.2133
0.00486968	76.429
0.00489779	76.6454
0.00492606	76.8624
0.0049545	77.08
0.0049831	77.2983
0.00501187	77.5172
0.00504081	77.7367
0.00506991	77.9569
0.00509918	78.1777
0.00512861	78.3991
0.00515822	78.6212
0.005188	78.8439
0.00521795	79.0673
0.00524807	79.2914
0.00527837	79.516
0.00530884	79.7414
0.00533949	79.9673
0.00537032	80.194
0.00540132	80.4213
0.0054325	80.6492
0.00546387	80.8778
0.00549541	81.1071
0.00552713	81.3371
0.00555904	81.5677
0.00559114	81.799
0.00562341	82.0309
0.00565588	82.2635
0.00568853	82.4968
0.00572137	82.7308
0.0057544	82.9655
0.00578762	83.2008
0.00582103	83.4368
0.00585464	83.6736
0.00588844	83.9109
0.00592243	84.149
0.00595662	84.3878
0.00599101	84.6273
0.0060256	84.8675
0.00606038	85.1083
0.00609537	85.3499
0.00613056	85.5922
0.00616595	85.8351
0.00620155	86.0788
0.00623735	86.3232
0.00627336	86.5683
0.00630957	86.8141
0.006346	87.0606
0.00638263	87.3079
0.00641948	87.5559
0.00645654	87.8045
0.00649382	88.0539
0.00653131	88.3041
0.00656901	88.5549
0.00660693	88.8065
0.00664508	89.0589
0.00668344	89.3119
0.00672202	89.5657
0.00676083	89.8202
0.00679986	90.0755
0.00683912	90.3315
0.0068786	90.5883
0.00691831	90.8458
0.00695825	91.1041
0.00699842	91.3631
0.00703882	91.6228
0.00707946	91.8834
0.00712033	92.1446
0.00716143	92.4067
0.00720278	92.6695
0.00724436	92.933
0.00728618	93.1974
0.00732825	93.4625
0.00737055	93.7284
0.0074131	93.995
0.0074559	94.2625
0.00749894	94.5307
0.00754223	94.7997
0.00758578	95.0694
0.00762957	95.34
0.00767361	95.6114
0.00771792	95.8835
0.00776247	96.1564
0.00780728	96.4302
0.00785236	96.7047
0.00789769	96.98
0.00794328	97.2562
0.00798914	97.5331
0.00803526	97.8109
0.00808165	98.0894
0.00812831	98.3688
0.00817523	98.649
0.00822243	98.93
0.0082699	99.2118
0.00831764	99.4944
0.00836566	99.7779
0.00841395	100.062
0.00846253	100.347
0.00851138	100.633
0.00856052	100.92
0.00860994	101.208
0.00865964	101.496
0.00870964	101.786
0.00875992	102.076
0.00881049	102.367
0.00886135	102.659
0.00891251	102.951
0.00896396	103.245
0.00901571	103.539
0.00906776	103.835
0.00912011	104.131
0.00917276	104.428
0.00922571	104.726
0.00927897	105.024
0.00933254	105.324
0.00938642	105.624
0.00944061	105.926
0.00949511	106.228
0.00954993	106.531
0.00960506	106.835
0.00966051	107.14
0.00971628	107.446
0.00977237	107.753
0.00982879	108.06
0.00988553	108.369
0.0099426	108.678
0.01	108.988
0.0100577	109.3
0.0101158	109.612
0.0101742	109.925
0.0102329	110.239
0.010292	110.554
0.0103514	110.869
0.0104112	111.186
0.0104713	111.504
0.0105317	111.822
0.0105925	112.142
0.0106537	112.462
0.0107152	112.784
0.0107771	113.106
0.0108393	113.429
0.0109018	113.753
0.0109648	114.079
0.0110281	114.32
0.0110917	114.395
0.0111558	114.472
0.0112202	114.55
0.011285	114.628
0.0113501	114.707
0.0114156	114.787
0.0114815	114.868
0.0115478	114.949
0.0116145	115.031
0.0116815	115.114
0.011749	115.198
0.0118168	115.282
0.011885	115.367
0.0119536	115.453
0.0120226	115.539
0.0120921	115.627
0.0121619	115.714
0.0122321	115.803
0.0123027	115.892
0.0123737	115.982
0.0124451	116.072
0.012517	116.163
0.0125893	116.255
0.0126619	116.347
0.012735	116.44
0.0128086	116.534
0.0128825	116.628
0.0129569	116.722
0.0130317	116.818
0.0131069	116.913
0.0131826	117.01
0.0132587	117.107
0.0133352	117.204
0.0134122	117.302
0.0134896	117.401
0.0135675	117.5
0.0136458	117.6
0.0137246	117.7
0.0138038	117.801
0.0138835	117.902
0.0139637	118.004
0.0140443	118.106
0.0141254	118.209
0.0142069	118.312
0.0142889	118.416
0.0143714	118.52
0.0144544	118.625
0.0145378	118.73
0.0146218	118.836
0.0147062	118.942
0.0147911	119.048
0.0148765	119.155
0.0149624	119.263
0.0150487	119.371
0.0151356	119.479
0.015223	119.588
0.0153109	119.698
0.0153993	119.807
0.0154882	119.918
0.0155776	120.028
0.0156675	120.139
0.015758	120.251
0.0158489	120.363
0.0159404	120.475
0.0160325	120.588
0.016125	120.701
0.0162181	120.815
0.0163117	120.929
0.0164059	121.043
0.0165006	121.158
0.0165959	121.273
0.0166917	121.389
0.016788	121.505
0.016885	121.622
0.0169824	121.738
0.0170805	121.856
0.0171791	121.973
0.0172783	122.092
0.017378	122.21
0.0174783	122.329
0.0175792	122.448
0.0176807	122.568
0.0177828	122.688
0.0178855	122.808
0.0179887	122.929
0.0180926	123.051
0.018197	123.172
0.0183021	123.294
0.0184077	123.417
0.018514	123.539
0.0186209	123.663
0.0187284	123.786
0.0188365	123.91
0.0189452	124.034
0.0190546	124.159
0.0191646	124.284
0.0192752	124.41
0.0193865	124.536
0.0194984	124.662
0.019611	124.789
0.0197242	124.916
0.0198381	125.043
0.0199526	125.171
0.0200678	125.299
0.0201837	125.428
0.0203002	125.557
0.0204174	125.686
0.0205353	125.816
0.0206538	125.946
0.020773	126.077
0.020893	126.208
0.0210136	126.339
0.0211349	126.471
0.0212569	126.603
0.0213796	126.736
0.021503	126.869
0.0216272	127.002
0.021752	127.136
0.0218776	127.27
0.0220039	127.405
0.0221309	127.54
0.0222587	127.675
0.0223872	127.811
0.0225165	127.947
0.0226464	128.084
0.0227772	128.221
0.0229087	128.358
0.0230409	128.496
0.0231739	128.634
0.0233077	128.773
0.0234423	128.912
0.0235776	129.051
0.0237137	129.191
0.0238506	129.332
0.0239883	129.473
0.0241268	129.614
0.0242661	129.756
0.0244062	129.898
0.0245471	130.04
0.0246888	130.183
0.0248313	130.327
0.0249747	130.47
0.0251189	130.615
0.0252639	130.759
0.0254097	130.905
0.0255564	131.05
0.025704	131.196
0.0258523	131.343
0.0260016	131.49
0.0261517	131.637
0.0263027	131.785
0.0264545	131.934
0.0266073	132.083
0.0267609	132.232
0.0269153	132.382
0.0270707	132.532
0.027227	132.683
0.0273842	132.834
0.0275423	132.986
0.0277013	133.138
0.0278612	133.291
0.0280221	133.444
0.0281838	133.598
0.0283465	133.752
0.0285102	133.907
0.0286748	134.062
0.0288403	134.217
0.0290068	134.374
0.0291743	134.53
0.0293427	134.688
0.0295121	134.845
0.0296825	135.004
0.0298538	135.162
0.0300262	135.322
0.0301995	135.482
0.0303739	135.642
0.0305492	135.803
0.0307256	135.964
0.030903	136.126
0.0310814	136.289
0.0312608	136.452
0.0314413	136.616
0.0316228	136.78
0.0318053	136.944
0.031989	137.11
0.0321736	137.276
0.0323594	137.442
0.0325462	137.609
0.0327341	137.777
0.032923	137.945
0.0331131	138.113
0.0333043	138.283
0.0334965	138.453
0.0336899	138.623
0.0338844	138.794
0.03408	138.966
0.0342768	139.138
0.0344747	139.311
0.0346737	139.484
0.0348739	139.658
0.0350752	139.833
0.0352777	140.008
0.0354813	140.184
0.0356862	140.361
0.0358922	140.538
0.0360994	140.716
0.0363078	140.894
0.0365174	141.073
0.0367282	141.253
0.0369403	141.433
0.0371535	141.614
0.037368	141.796
0.0375837	141.978
0.0378007	142.161
0.0380189	142.345
0.0382384	142.529
0.0384592	142.714
0.0386812	142.9
0.0389045	143.086
0.0391291	143.273
0.039355	143.461
0.0395822	143.649
0.0398107	143.838
0.0400405	144.028
0.0402717	144.218
0.0405042	144.409
0.040738	144.601
0.0409732	144.793
0.0412098	144.987
0.0414477	145.18
0.0416869	145.375
0.0419276	145.57
0.0421697	145.767
0.0424131	145.963
0.042658	146.161
0.0429042	146.359
0.0431519	146.558
0.043401	146.758
0.0436516	146.958
0.0439036	147.16
0.044157	147.362
0.044412	147.564
0.0446684	147.768
0.0449262	147.972
0.0451856	148.177
0.0454465	148.383
0.0457088	148.59
0.0459727	148.797
0.0462381	149.005
0.046505	149.214
0.0467735	149.424
0.0470435	149.634
0.0473151	149.846
0.0475883	150.058
0.047863	150.271
0.0481393	150.484
0.0484172	150.699
0.0486968	150.914
0.0489779	151.13
0.0492606	151.347
0.049545	151.565
0.049831	151.784
0.0501187	152.003
0.0504081	152.224
0.0506991	152.445
0.0509918	152.667
0.0512861	152.89
0.0515822	153.113
0.05188	153.338
0.0521795	153.563
0.0524807	153.789
0.0527837	154.016
0.0530884	154.244
0.0533949	154.473
0.0537032	154.703
0.0540132	154.934
0.054325	155.165
0.0546387	155.398
0.0549541	155.631
0.0552713	155.865
0.0555904	156.1
0.0559114	156.336
0.0562341	156.573
0.0565588	156.811
0.0568853	157.049
0.0572137	157.289
0.057544	157.529
0.0578762	157.771
0.0582103	158.013
0.0585464	158.257
0.0588844	158.501
0.0592243	158.746
0.0595662	158.992
0.0599101	159.239
0.060256	159.487
0.0606038	159.736
0.0609537	159.986
0.0613056	160.237
0.0616595	160.489
0.0620155	160.741
0.0623735	160.995
0.0627336	161.25
0.0630957	161.506
0.06346	161.762
0.0638263	162.02
0.0641948	162.279
0.0645654	162.538
0.0649382	162.799
0.0653131	163.061
0.0656901	163.323
0.0660693	163.587
0.0664508	163.851
0.0668344	164.117
0.0672202	164.384
0.0676083	164.651
0.0679986	164.92
0.0683912	165.19
0.068786	165.461
0.0691831	165.732
0.0695825	166.005
0.0699842	166.279
0.0703882	166.554
0.0707946	166.83
0.0712033	167.107
0.0716143	167.385
0.0720278	167.664
0.0724436	167.944
0.0728618	168.226
0.0732825	168.508
0.0737055	168.791
0.074131	169.076
0.074559	169.361
0.0749894	169.648
0.0754223	169.936
0.0758578	170.224
0.0762957	170.514
0.0767361	170.805
0.0771792	171.097
0.0776247	171.39
0.0780728	171.684
0.0785236	171.98
0.0789769	172.276
0.0794328	172.574
0.0798914	172.872
0.0803526	173.172
0.0808165	173.473
0.0812831	173.775
0.0817523	174.078
0.0822243	174.383
0.082699	174.688
0.0831764	174.995
0.0836566	175.302
0.0841395	175.611
0.0846253	175.921
0.0851138	176.232
0.0856052	176.545
0.0860994	176.858
0.0865964	177.173
0.0870964	177.489
0.0875992	177.805
0.0881049	178.124
0.0886135	178.443
0.0891251	178.763
0.0896396	179.085
0.0901571	179.408
0.0906776	179.732
0.0912011	180.057
0.0917276	180.383
0.0922571	180.711
0.0927897	181.04
0.0933254	181.369
0.0938642	181.701
0.0944061	182.033
0.0949511	182.366
0.0954993	182.701
0.0960506	183.037
0.0966051	183.374
0.0971628	183.713
0.0977237	184.052
0.0982879	184.393
0.0988553	184.735
0.099426	185.078
0.1	185.423
0.100577	185.769
0.101158	186.116
0.101742	186.464
0.102329	186.813
0.10292	187.164
0.103514	187.516
0.104112	187.869
0.104713	188.224
0.105317	188.579
0.105925	188.936
0.106537	189.294
0.107152	189.654
0.107771	190.014
0.108393	190.376
0.109018	190.74
0.109648	191.104
0.110281	191.47
0.110917	191.837
0.111558	192.205
0.112202	192.575
0.11285	192.946
0.113501	193.318
0.114156	193.691
0.114815	194.066
0.115478	194.442
0.116145	194.819
0.116815	195.198
0.11749	195.578
0.118168	195.959
0.11885	196.341
0.119536	196.725
0.120226	197.11
0.120921	197.496
0.121619	197.884
0.122321	198.273
0.123027	198.663
0.123737	199.055
0.124451	199.448
0.12517	199.842
0.125893	200.237
0.126619	200.634
0.12735	201.032
0.128086	201.432
0.128825	201.832
0.129569	202.234
0.130317	202.638
0.131069	203.043
0.131826	203.449
0.132587	203.856
0.133352	204.265
0.134122	204.675
0.134896	205.086
0.135675	205.499
0.136458	205.913
0.137246	206.328
0.138038	206.744
0.138835	207.162
0.139637	207.582
0.140443	208.002
0.141254	208.424
0.142069	208.848
0.142889	209.272
0.143714	209.698
0.144544	210.125
0.145378	210.761
0.146218	211.403
0.147062	212.049
0.147911	212.698
0.148765	213.352
0.149624	214.009
0.150487	214.67
0.151356	215.335
0.15223	216.003
0.153109	216.676
0.153993	217.352
0.154882	218.032
0.155776	218.716
0.156675	219.404
0.15758	220.097
0.158489	220.793
0.159404	221.493
0.160325	222.197
0.16125	222.906
0.162181	223.618
0.163117	224.335
0.164059	225.056
0.165006	225.781
0.165959	226.51
0.166917	227.244
0.16788	227.982
0.16885	228.724
0.169824	229.47
0.170805	230.221
0.171791	230.977
0.172783	231.737
0.17378	232.501
0.174783	233.27
0.175792	234.044
0.176807	234.822
0.177828	235.604
0.178855	236.392
0.179887	237.184
0.180926	237.98
0.18197	238.782
0.183021	239.588
0.184077	240.399
0.18514	241.215
0.186209	242.036
0.187284	242.861
0.188365	243.692
0.189452	244.527
0.190546	245.368
0.191646	246.214
0.192752	247.065
0.193865	247.92
0.194984	248.782
0.19611	249.648
0.197242	250.519
0.198381	251.396
0.199526	252.278
0.200678	253.166
0.201837	254.058
0.203002	254.957
0.204174	255.86
0.205353	256.77
0.206538	257.684
0.20773	258.605
0.20893	259.531
0.210136	260.462
0.211349	261.4
0.212569	262.343
0.213796	263.292
0.21503	264.247
0.216272	265.207
0.21752	266.174
0.218776	267.146
0.220039	268.125
0.221309	269.109
0.222587	270.1
0.223872	271.096
0.225165	272.099
0.226464	273.108
0.227772	274.124
0.229087	275.145
0.230409	276.173
0.231739	277.208
0.233077	278.249
0.234423	279.296
0.235776	280.35
0.237137	281.411
0.238506	282.478
0.239883	283.552
0.241268	284.632
0.242661	285.72
0.244062	286.814
0.245471	287.915
0.246888	289.023
0.248313	290.138
0.249747	291.26
0.251189	292.389
0.252639	293.525
0.254097	294.669
0.255564	295.82
0.25704	296.978
0.258523	298.143
0.260016	299.316
0.261517	300.496
0.263027	301.684
0.264545	302.879
0.266073	304.082
0.267609	305.293
0.269153	306.511
0.270707	307.737
0.27227	308.971
0.273842	310.213
0.275423	311.463
0.277013	312.671
0.278612	313.768
0.280221	314.869
0.281838	315.976
0.283465	317.087
0.285102	318.203
0.286748	319.325
0.288403	320.451
0.290068	321.582
0.291743	322.719
0.293427	323.86
0.295121	325.007
0.296825	326.158
0.298538	327.315
0.300262	328.476
0.301995	329.643
0.303739	330.815
0.305492	331.991
0.307256	333.173
0.30903	334.36
0.310814	335.552
0.312608	336.749
0.314413	337.952
0.316228	339.159
0.318053	340.372
0.31989	341.589
0.321736	342.812
0.323594	344.04
0.325462	345.273
0.327341	346.511
0.32923	347.755
0.331131	349.003
0.333043	350.257
0.334965	351.516
0.336899	352.78
0.338844	354.049
0.3408	355.323
0.342768	356.603
0.344747	357.887
0.346737	359.177
0.348739	360.472
0.350752	361.772
0.352777	363.077
0.354813	364.388
0.356862	365.704
0.358922	367.024
0.360994	368.35
0.363078	369.682
0.365174	371.018
0.367282	372.359
0.369403	373.706
0.371535	375.058
0.37368	376.415
0.375837	377.777
0.378007	379.144
0.380189	380.516
0.382384	381.894
0.384592	383.276
0.386812	384.664
0.389045	386.057
0.391291	387.454
0.39355	388.857
0.395822	390.266
0.398107	391.679
0.400405	393.097
0.402717	394.52
0.405042	395.948
0.40738	397.382
0.409732	398.82
0.412098	400.264
0.414477	401.712
0.416869	403.165
0.419276	404.624
0.421697	406.087
0.424131	407.555
0.42658	409.029
0.429042	410.507
0.431519	411.99
0.43401	413.478
0.436516	414.971
0.439036	416.468
0.44157	417.971
0.44412	419.478
0.446684	420.99
0.449262	422.507
0.451856	424.029
0.454465	425.555
0.457088	427.087
0.459727	428.622
0.462381	430.163
0.46505	431.708
0.467735	433.258
0.470435	434.812
0.473151	436.371
0.475883	437.935
0.47863	439.503
0.481393	441.076
0.484172	442.653
0.486968	444.234
0.489779	445.82
0.492606	447.411
0.49545	449.005
0.49831	450.604
0.501187	452.208
0.504081	453.815
0.506991	455.427
0.509918	457.043
0.512861	458.664
0.515822	460.288
0.5188	461.916
0.521795	463.549
0.524807	465.185
0.527837	466.826
0.530884	468.47
0.533949	470.119
0.537032	471.771
0.540132	473.427
0.54325	475.087
0.546387	476.751
0.549541	478.418
0.552713	480.089
0.555904	481.764
0.559114	483.442
0.562341	485.124
0.565588	486.809
0.568853	488.498
0.572137	490.19
0.57544	491.885
0.578762	493.584
0.582103	495.286
0.585464	496.991
0.588844	498.699
0.592243	500.41
0.595662	502.125
0.599101	503.842
0.60256	505.562
0.606038	507.285
0.609537	509.011
0.613056	510.74
0.616595	512.471
0.620155	514.205
0.623735	515.942
0.627336	517.681
0.630957	519.422
0.6346	521.166
0.638263	522.913
0.641948	524.661
0.645654	526.412
0.649382	528.165
0.653131	529.92
0.656901	531.677
0.660693	533.435
0.664508	535.196
0.668344	536.959
0.672202	538.723
0.676083	540.489
0.679986	542.256
0.683912	544.025
0.68786	545.796
0.691831	547.567
0.695825	549.34
0.699842	551.115
0.703882	552.89
0.707946	554.667
0.712033	556.444
0.716143	558.222
0.720278	560.001
0.724436	561.781
0.728618	563.562
0.732825	565.343
0.737055	567.124
0.74131	568.906
0.74559	570.688
0.749894	572.471
0.754223	574.254
0.758578	576.036
0.762957	577.819
0.767361	579.601
0.771792	581.384
0.776247	583.166
0.780728	584.947
0.785236	586.728
0.789769	588.509
0.794328	590.289
0.798914	592.068
0.803526	593.846
0.808165	595.623
0.812831	597.4
0.817523	599.175
0.822243	600.949
0.82699	602.721
0.831764	604.492
0.836566	606.262
0.841395	608.029
0.846253	609.796
0.851138	611.56
0.856052	613.322
0.860994	615.082
0.865964	616.84
0.870964	618.596
0.875992	620.35
0.881049	622.101
0.886135	623.849
0.891251	625.595
0.896396	627.338
0.901571	629.078
0.906776	630.815
0.912011	632.549
0.917276	634.279
0.922571	636.006
0.927897	637.73
0.933254	639.451
0.938642	641.167
0.944061	642.88
0.949511	644.589
0.954993	646.294
0.960506	647.995
0.966051	649.691
0.971628	651.384
0.977237	653.071
0.982879	654.755
0.988553	656.433
0.99426	658.107
1	659.776
1.00577	661.439
1.01158	663.098
1.01742	664.751
1.02329	666.399
1.0292	668.042
1.03514	669.679
1.04112	671.31
1.04713	672.935
1.05317	674.554
1.05925	676.167
1.06537	677.774
1.07152	679.375
1.07771	680.969
1.08393	682.557
1.09018	684.138
1.09648	685.712
1.10281	687.279
1.10917	688.84
1.11558	690.393
1.12202	691.938
1.1285	693.477
1.13501	695.008
1.14156	696.531
1.14815	698.047
1.15478	699.554
1.16145	701.054
1.16815	702.546
1.1749	704.029
1.18168	705.504
1.1885	706.971
1.19536	708.429
1.20226	709.879
1.20921	711.319
1.21619	712.751
1.22321	714.174
1.23027	715.588
1.23737	716.992
1.24451	718.387
1.2517	719.773
1.25893	721.149
1.26619	722.515
1.2735	723.872
1.28086	725.218
1.28825	726.555
1.29569	727.881
1.30317	729.198
1.31069	730.504
1.31826	731.799
1.32587	733.084
1.33352	734.358
1.34122	735.622
1.34896	736.874
1.35675	738.116
1.36458	739.346
1.37246	740.566
1.38038	741.774
1.38835	742.97
1.39637	744.155
1.40443	745.329
1.41254	746.491
1.42069	747.641
1.42889	748.779
1.43714	749.905
1.44544	751.02
1.45378	752.122
1.46218	753.211
1.47062	754.289
1.47911	755.354
1.48765	756.406
1.49624	757.446
1.50487	758.474
1.51356	759.488
1.5223	760.49
1.53109	761.478
1.53993	762.454
1.54882	763.416
1.55776	764.366
1.56675	765.302
1.5758	766.225
1.58489	767.134
1.59404	768.03
1.60325	768.912
1.6125	769.781
1.62181	770.636
1.63117	771.477
1.64059	772.304
1.65006	773.118
1.65959	773.917
1.66917	774.703
1.6788	775.474
1.6885	776.232
1.69824	776.975
1.70805	777.704
1.71791	778.418
1.72783	779.119
1.7378	779.804
1.74783	780.476
1.75792	781.133
1.76807	781.775
1.77828	782.403
1.78855	783.016
1.79887	783.614
1.80926	784.198
1.8197	784.766
1.83021	785.321
1.84077	785.86
1.8514	786.384
1.86209	786.894
1.87284	787.388
1.88365	787.868
1.89452	788.333
1.90546	788.782
1.91646	789.217
1.92752	789.636
1.93865	790.041
1.94984	790.43
1.9611	790.804
1.97242	791.164
1.98381	791.508
1.99526	791.837
2.00678	792.15
2.01837	792.449
2.03002	792.732
2.04174	793.001
2.05353	793.254
2.06538	793.491
2.0773	793.714
2.0893	793.922
2.10136	794.114
2.11349	794.291
2.12569	794.454
2.13796	794.6
2.1503	794.732
2.16272	794.849
2.1752	794.951
2.18776	795.037
2.20039	795.109
2.21309	795.165
2.22587	795.206
2.23872	795.233
2.25165	795.244
2.26464	795.241
2.27772	795.222
2.29087	795.189
2.30409	795.141
2.31739	795.078
2.33077	795
2.34423	794.907
2.35776	794.8
2.37137	794.678
2.38506	794.542
2.39883	794.39
2.41268	794.225
2.42661	794.044
2.44062	793.85
2.45471	793.641
2.46888	793.417
2.48313	793.179
2.49747	792.927
2.51189	792.661
2.52639	792.381
2.54097	792.086
2.55564	791.778
2.5704	791.455
2.58523	791.119
2.60016	790.769
2.61517	790.405
2.63027	790.027
2.64545	789.636
2.66073	789.231
2.67609	788.813
2.69153	788.381
2.70707	787.936
2.7227	787.477
2.73842	787.005
2.75423	786.521
2.77013	786.023
2.78612	785.512
2.80221	784.988
2.81838	784.451
2.83465	783.902
2.85102	783.34
2.86748	781.813
2.88403	781.242
2.90068	780.659
2.91743	780.062
2.93427	779.453
2.95121	778.832
2.96825	778.199
2.98538	777.553
3.00262	776.896
3.01995	776.226
3.03739	775.545
3.05492	774.851
3.07256	774.146
3.0903	773.429
3.10814	772.701
3.12608	771.961
3.14413	771.21
3.16228	770.448
3.18053	769.675
3.1989	768.891
3.21736	768.095
3.23594	767.289
3.25462	766.472
3.27341	765.645
3.2923	764.807
3.31131	763.959
3.33043	763.1
3.34965	762.231
3.36899	761.352
3.38844	760.463
3.408	759.564
3.42768	758.656
3.44747	757.737
3.46737	756.81
3.48739	755.872
3.50752	754.926
3.52777	753.97
3.54813	753.005
3.56862	752.031
3.58922	751.048
3.60994	750.056
3.63078	749.056
3.65174	748.047
3.67282	747.029
3.69403	746.003
3.71535	744.969
3.7368	743.927
3.75837	742.877
3.78007	741.818
3.80189	740.752
3.82384	739.678
3.84592	738.597
3.86812	737.508
3.89045	736.412
3.91291	735.308
3.9355	734.198
3.95822	733.08
3.98107	731.955
4.00405	730.824
4.02717	729.685
4.05042	728.54
4.0738	727.389
4.09732	726.231
4.12098	725.067
4.14477	723.897
4.16869	722.72
4.19276	721.538
4.21697	720.35
4.24131	719.155
4.2658	717.956
4.29042	716.75
4.31519	715.54
4.3401	714.324
4.36516	713.102
4.39036	711.876
4.4157	710.644
4.4412	709.408
4.46684	708.166
4.49262	706.92
4.51856	705.67
4.54465	704.414
4.57088	703.155
4.59727	701.891
4.62381	700.622
4.6505	699.35
4.67735	698.073
4.70435	696.793
4.73151	695.509
4.75883	694.221
4.7863	692.929
4.81393	691.634
4.84172	690.335
4.86968	689.033
4.89779	687.727
4.92606	686.419
4.9545	685.107
4.9831	683.792
5.01187	682.474
5.04081	681.153
5.06991	679.83
5.09918	678.504
5.12861	677.175
5.15822	675.844
5.188	674.51
5.21795	673.174
5.24807	671.836
5.27837	670.496
5.30884	669.153
5.33949	667.809
5.37032	666.462
5.40132	665.114
5.4325	663.764
5.46387	662.412
5.49541	661.058
5.52713	659.703
5.55904	658.347
5.59114	656.989
5.62341	655.629
5.65588	654.269
5.68853	652.907
5.72137	651.544
5.7544	650.18
5.78762	648.815
5.82103	647.449
5.85464	646.082
5.88844	644.715
5.92243	643.346
5.95662	641.977
5.99101	640.607
6.0256	639.237
6.06038	637.866
6.09537	636.495
6.13056	635.124
6.16595	633.752
6.20155	632.379
6.23735	631.007
6.27336	629.634
6.30957	628.262
6.346	626.889
6.38263	625.516
6.41948	624.143
6.45654	622.771
6.49382	621.398
6.53131	620.026
6.56901	618.654
6.60693	617.282
6.64508	615.911
6.68344	614.539
6.72202	613.169
6.76083	611.799
6.79986	610.429
6.83912	609.06
6.8786	607.691
6.91831	606.323
6.95825	604.956
6.99842	603.589
7.03882	602.223
7.07946	600.858
7.12033	599.493
7.16143	598.13
7.20278	596.767
7.24436	595.405
7.28618	594.044
7.32825	592.684
7.37055	591.325
7.4131	589.967
7.4559	588.61
7.49894	587.255
7.54223	585.9
7.58578	584.546
7.62957	583.194
7.67361	581.842
7.71792	580.492
7.76247	579.143
7.80728	577.796
7.85236	576.449
7.89769	575.104
7.94328	573.761
7.98914	572.418
8.03526	571.077
8.08165	569.737
8.12831	568.399
8.17523	567.062
8.22243	565.726
8.2699	564.392
8.31764	563.059
8.36566	561.728
8.41395	560.398
8.46253	559.07
8.51138	557.743
8.56052	556.417
8.60994	555.093
8.65964	553.771
8.70964	552.45
8.75992	551.131
8.81049	549.813
8.86135	548.497
8.91251	547.183
8.96396	545.87
9.01571	544.558
9.06776	543.249
9.12011	541.94
9.17276	540.634
9.22571	539.329
9.27897	538.026
9.33254	536.724
9.38642	535.424
9.44061	534.125
9.49511	532.829
9.54993	531.533
9.60506	530.24
9.66051	528.948
9.71628	527.658
9.77237	526.369
9.82879	525.082
9.88553	523.797
9.9426	522.513
10	521.231
10.0577	519.951
10.1158	518.672
10.1742	517.395
10.2329	516.119
10.292	514.846
10.3514	513.574
10.4112	512.303
10.4713	511.034
10.5317	509.767
10.5925	508.502
10.6537	507.238
10.7152	505.975
10.7771	504.715
10.8393	503.456
10.9018	502.198
10.9648	500.942
11.0281	499.688
11.0917	498.436
11.1558	497.185
11.2202	495.935
11.285	494.688
11.3501	493.442
11.4156	492.197
11.4815	490.954
11.5478	489.713
11.6145	488.473
11.6815	487.235
11.749	485.998
11.8168	484.763
11.885	483.529
11.9536	482.297
12.0226	481.067
12.0921	479.838
12.1619	478.611
12.2321	477.385
12.3027	476.161
12.3737	474.938
12.4451	473.717
12.517	472.497
12.5893	471.279
12.6619	470.062
12.735	468.847
12.8086	467.633
12.8825	466.421
12.9569	465.21
13.0317	464.001
13.1069	462.793
13.1826	461.587
13.2587	460.382
13.3352	459.178
13.4122	457.976
13.4896	456.776
13.5675	455.577
13.6458	454.379
13.7246	453.183
13.8038	451.988
13.8835	450.794
13.9637	449.611
14.0443	448.419
14.1254	447.229
14.2069	446.041
14.2889	444.854
14.3714	443.668
14.4544	442.484
14.5378	441.302
14.6218	440.12
14.7062	438.94
14.7911	437.762
14.8765	436.584
14.9624	435.409
15.0487	434.234
15.1356	433.061
15.223	431.889
15.3109	430.719
15.3993	429.55
15.4882	428.382
15.5776	427.216
15.6675	426.051
15.758	424.887
15.8489	423.725
15.9404	422.564
16.0325	421.404
16.125	420.246
16.2181	419.089
16.3117	417.933
16.4059	416.778
16.5006	415.625
16.5959	414.473
16.6917	413.323
16.788	412.173
16.885	411.025
16.9824	409.879
17.0805	408.733
17.1791	407.589
17.2783	406.446
17.378	405.305
17.4783	404.164
17.5792	403.025
17.6807	401.887
17.7828	400.751
17.8855	399.616
17.9887	398.482
18.0926	397.349
18.197	396.218
18.3021	395.088
18.4077	393.959
18.514	392.831
18.6209	391.705
18.7284	390.58
18.8365	389.456
18.9452	388.333
19.0546	387.212
19.1646	386.092
19.2752	384.973
19.3865	383.856
19.4984	382.74
19.611	381.625
19.7242	380.511
19.8381	379.399
19.9526	378.288
20.0678	377.178
20.1837	376.07
20.3002	374.962
20.4174	373.856
20.5353	372.752
20.6538	371.648
20.773	370.546
20.893	369.445
21.0136	368.346
21.1349	367.248
21.2569	366.151
21.3796	365.055
21.503	363.961
21.6272	362.868
21.752	361.776
21.8776	360.681
22.0039	359.56
22.1309	358.44
22.2587	357.321
22.3872	356.202
22.5165	355.084
22.6464	353.968
22.7772	352.872
22.9087	351.756
23.0409	350.64
23.1739	349.526
23.3077	348.412
23.4423	347.299
23.5776	346.187
23.7137	345.075
23.8506	343.964
23.9883	342.854
24.1268	341.745
24.2661	340.637
24.4062	339.574
24.5471	338.467
24.6888	337.374
24.8313	336.269
24.9747	335.165
25.1189	334.062
25.2639	332.959
25.4097	331.858
25.5564	330.758
25.704	329.658
25.8523	328.561
26.0016	327.464
26.1517	326.367
26.3027	325.272
26.4545	324.178
26.6073	323.085
26.7609	322.182
26.9153	321.089
27.0707	319.998
27.227	318.908
27.3842	317.192
27.5423	316.095
27.7013	315.056
27.8612	313.961
28.0221	312.867
28.1838	311.776
28.3465	310.686
28.5102	309.598
28.6748	308.512
28.8403	307.427
29.0068	306.344
29.1743	305.262
29.3427	304.182
29.5121	303.103
29.6825	302.025
29.8538	300.949
30.0262	299.875
30.1995	298.802
30.3739	297.731
30.5492	296.661
30.7256	295.593
30.903	294.526
31.0814	293.461
31.2608	292.398
31.4413	291.336
31.6228	290.276
31.8053	289.218
31.989	288.161
32.1736	287.106
32.3594	286.052
32.5462	285.179
32.7341	284.128
32.923	283.079
33.1131	282.032
33.3043	280.987
33.4965	279.943
33.6899	278.902
33.8844	277.862
34.08	276.824
34.2768	275.782
34.4747	274.748
34.6737	273.715
34.8739	272.684
35.0752	271.656
35.2777	270.629
35.4813	269.604
35.6862	268.581
35.8922	267.561
36.0994	266.542
36.3078	265.525
36.5174	264.511
36.7282	263.499
36.9403	262.488
37.1535	261.491
37.368	260.485
37.5837	259.48
37.8007	258.478
38.0189	257.479
38.2384	256.481
38.4592	255.493
38.6812	254.527
38.9045	253.562
39.1291	252.599
39.355	251.637
39.5822	250.678
39.8107	249.72
40.0405	248.765
40.2717	247.811
40.5042	246.859
40.738	245.909
40.9732	244.962
41.2098	244.016
41.4477	243.072
41.6869	242.131
41.9276	241.191
42.1697	240.254
42.4131	239.318
42.658	238.385
42.9042	237.454
43.1519	236.525
43.401	235.598
43.6516	234.674
43.9036	233.751
44.157	232.831
44.412	231.913
44.6684	231.061
44.9262	230.146
45.1856	229.233
45.4465	228.324
45.7088	227.416
45.9727	226.51
46.2381	225.607
46.505	224.706
46.7735	223.807
47.0435	222.911
47.3151	222.017
47.5883	221.126
47.863	220.236
48.1393	219.35
48.4172	218.465
48.6968	217.584
48.9779	216.85
49.2606	215.971
49.545	215.095
49.831	214.221
50.1187	213.35
50.4081	212.481
50.6991	211.615
50.9918	210.751
51.2861	209.89
51.5822	209.031
51.88	208.174
52.1795	207.321
52.4807	206.469
52.7837	205.62
53.0884	204.774
53.3949	203.93
53.7032	203.089
54.0132	202.251
54.325	201.415
54.6387	200.581
54.9541	199.75
55.2713	198.922
55.5904	198.096
55.9114	197.273
56.2341	196.452
56.5588	195.634
56.8853	194.819
57.2137	194.006
57.544	193.195
57.8762	192.387
58.2103	191.582
58.5464	190.78
58.8844	189.98
59.2243	189.182
59.5662	188.387
59.9101	187.595
60.256	186.805
60.6038	186.018
60.9537	185.234
61.3056	184.452
61.6595	183.673
62.0155	182.899
62.3735	182.125
62.7336	181.392
63.0957	180.622
63.46	179.855
63.8263	179.091
64.1948	178.329
64.5654	177.57
64.9382	176.813
65.3131	176.059
65.6901	175.307
66.0693	174.558
66.4508	173.812
66.8344	173.068
67.2202	172.327
67.6083	171.588
67.9986	170.852
68.3912	170.119
68.786	169.388
69.1831	168.659
69.5825	167.934
69.9842	167.21
70.3882	166.49
70.7946	165.771
71.2033	165.056
71.6143	164.343
72.0278	163.632
72.4436	162.924
72.8618	162.219
73.2825	161.516
73.7055	160.816
74.131	160.118
74.559	159.423
74.9894	158.73
75.4223	158.04
75.8578	157.352
76.2957	156.667
76.7361	155.984
77.1792	155.304
77.6247	154.627
78.0728	153.951
78.5236	153.279
78.9769	152.609
79.4328	151.941
79.8914	151.276
80.3526	150.613
80.8165	149.953
81.2831	149.295
81.7523	148.64
82.2243	148.034
82.699	147.383
83.1764	146.734
83.6566	146.088
84.1395	145.444
84.6253	144.803
85.1138	144.164
85.6052	143.527
86.0994	142.893
86.5964	142.261
87.0964	141.634
87.5992	141.007
88.1049	140.383
88.6135	139.761
89.1251	139.141
89.6396	138.524
90.1571	137.909
90.6776	137.296
91.2011	136.686
91.7276	136.079
92.2571	135.474
92.7897	134.871
93.3254	134.27
93.8642	133.672
94.4061	133.076
94.9511	132.483
95.4993	131.891
96.0506	131.302
96.6051	130.716
97.1628	130.132
97.7237	129.55
98.2879	128.97
98.8553	128.393
99.426	127.818
100	127.245
100.577	126.674
101.158	126.106
101.742	125.54
102.329	124.976
102.92	124.415
103.514	123.856
104.112	123.299
104.713	122.744
105.317	122.192
105.925	121.641
106.537	121.093
107.152	120.548
107.771	120.004
108.393	119.463
109.018	118.923
109.648	118.386
110.281	117.852
110.917	117.319
111.558	116.789
112.202	116.26
112.85	115.734
113.501	115.21
114.156	114.688
114.815	114.169
115.478	113.68
116.145	113.164
116.815	112.65
117.49	112.139
118.168	111.629
118.85	111.122
119.536	110.617
120.226	110.114
120.921	109.612
121.619	109.114
122.321	108.617
123.027	108.122
123.737	107.629
124.451	107.139
125.17	106.65
125.893	106.164
126.619	105.679
127.35	105.197
128.086	104.716
128.825	104.238
129.569	103.762
130.317	103.288
131.069	102.815
131.826	102.345
132.587	101.877
133.352	101.41
134.122	100.946
134.896	100.484
135.675	100.024
136.458	99.5652
137.246	99.1088
138.038	98.6545
138.835	98.202
139.637	97.7515
140.443	97.3029
141.254	96.8562
142.069	96.4115
142.889	95.9687
143.714	95.5278
144.544	95.0888
145.378	94.6517
146.218	94.2165
147.062	93.7832
147.911	93.3517
148.765	92.9222
149.624	92.4945
150.487	92.0687
151.356	91.6447
152.23	91.2226
153.109	90.8023
153.993	90.3839
154.882	89.9673
155.776	89.5526
156.675	89.1396
157.58	88.7285
158.489	88.3191
159.404	87.9116
160.325	87.5059
161.25	87.102
162.181	86.6998
163.117	86.2994
164.059	85.9008
165.006	85.5038
165.959	85.1087
166.917	84.7155
167.88	84.324
168.85	83.9342
169.824	83.5462
170.805	83.1599
171.791	82.7753
172.783	82.3924
173.78	82.0112
174.783	81.6317
175.792	81.2539
176.807	80.8778
177.828	80.5033
178.855	80.1305
179.887	79.7594
180.926	79.39
181.97	79.0222
183.021	78.6561
184.077	78.2916
185.14	77.9288
186.209	77.5676
187.284	77.208
188.365	76.85
189.452	76.4936
190.546	76.1388
191.646	75.7856
192.752	75.434
193.865	75.084
194.984	74.7356
196.11	74.3888
197.242	74.0435
198.381	73.6997
199.526	73.3576
200.678	73.017
201.837	72.6779
203.002	72.3403
204.174	72.0043
205.353	71.6698
206.538	71.3369
207.73	71.0054
208.93	70.6755
210.136	70.3471
211.349	70.0201
212.569	69.6947
213.796	69.3707
215.03	69.0482
216.272	68.7272
217.52	68.4076
218.776	68.0895
220.039	67.7729
221.309	67.4577
222.587	67.1439
223.872	66.8316
225.165	66.5207
226.464	66.2113
227.772	65.9032
229.087	65.5966
230.409	65.2914
231.739	64.9876
233.077	64.6852
234.423	64.3842
235.776	64.0845
237.137	63.7863
238.506	63.4894
239.883	63.1939
241.268	62.8998
242.661	62.607
244.062	62.3155
245.471	62.0255
246.888	61.7367
248.313	61.4493
249.747	61.1632
251.189	60.8785
252.639	60.595
254.097	60.3129
255.564	60.0321
257.04	59.7526
258.523	59.4744
260.016	59.1975
261.517	58.9219
263.027	58.6475
264.545	58.3745
266.073	58.1027
267.609	57.8321
269.153	57.5629
270.707	57.2949
272.27	57.0281
273.842	56.7626
275.423	56.4983
277.013	56.2353
278.612	55.9735
280.221	55.7128
281.838	55.4534
283.465	55.1953
285.102	54.9384
286.748	54.6826
288.403	54.4281
290.068	54.1748
291.743	53.9226
293.427	53.6717
295.121	53.4219
296.825	53.1733
298.538	52.9258
300.262	52.6796
301.995	52.4344
303.739	52.1905
305.492	51.9477
307.256	51.706
309.03	51.4655
310.814	51.2261
312.608	50.9878
314.413	50.7507
316.228	50.5146
318.053	50.2797
319.89	50.0459
321.736	49.8133
323.594	49.5817
325.462	49.3512
327.341	49.1218
329.23	48.8935
331.131	48.6662
333.043	48.44
334.965	48.2149
336.899	47.9909
338.844	47.768
340.8	47.5461
342.768	47.3252
344.747	47.1055
346.737	46.8867
348.739	46.669
350.752	46.4523
352.777	46.2367
354.813	46.0221
356.862	45.8085
358.922	45.596
360.994	45.3844
363.078	45.1738
365.174	44.9643
367.282	44.7558
369.403	44.5482
371.535	44.3416
373.68	44.1361
375.837	43.9315
378.007	43.7279
380.189	43.5252
382.384	43.3236
384.592	43.1229
386.812	42.9231
389.045	42.7243
391.291	42.5265
393.55	42.3296
395.822	42.1337
398.107	41.9387
400.405	41.7446
402.717	41.5515
405.042	41.3593
407.38	41.168
409.732	40.9776
412.098	40.7881
414.477	40.5996
416.869	40.412
419.276	40.2252
421.697	40.0394
424.131	39.8544
426.58	39.6704
429.042	39.4872
431.519	39.3049
434.01	39.1235
436.516	38.943
439.036	38.7633
441.57	38.5845
444.12	38.4066
446.684	38.2295
449.262	38.0533
451.856	37.8779
454.465	37.7034
457.088	37.5297
459.727	37.3569
462.381	37.1849
465.05	37.0137
467.735	36.8434
470.435	36.6739
473.151	36.5052
475.883	36.3373
478.63	36.1703
481.393	36.004
484.172	35.8385
486.968	35.6739
489.779	35.5101
492.606	35.347
495.45	35.1847
498.31	35.0233
501.187	34.8626
504.081	34.7027
506.991	34.5436
509.918	34.3852
512.861	34.2276
515.822	34.0708
518.8	33.9147
521.795	33.7594
524.807	33.6049
527.837	33.4511
530.884	33.2981
533.949	33.1458
537.032	32.9942
540.132	32.8434
543.25	32.6933
546.387	32.544
549.541	32.3954
552.713	32.2475
555.904	32.1003
559.114	31.9539
562.341	31.8081
565.588	31.6631
568.853	31.5188
572.137	31.3752
575.44	31.2323
578.762	31.0901
582.103	30.9486
585.464	30.8078
588.844	30.6677
592.243	30.5282
595.662	30.3895
599.101	30.2514
602.56	30.114
606.038	29.9773
609.537	29.8413
613.056	29.7059
616.595	29.5712
620.155	29.4371
623.735	29.3037
627.336	29.171
630.957	29.0389
634.6	28.9075
638.263	28.7767
641.948	28.6465
645.654	28.517
649.382	28.3882
653.131	28.2599
656.901	28.1323
660.693	28.0054
664.508	27.879
668.344	27.7533
672.202	27.6282
676.083	27.5037
679.986	27.3799
683.912	27.2566
687.86	27.1339
691.831	27.0119
695.825	26.8905
699.842	26.7696
703.882	26.6494
707.946	26.5298
712.033	26.4107
716.143	26.2922
720.278	26.1744
724.436	26.0571
728.618	25.9404
732.825	25.8242
737.055	25.7087
741.31	25.5937
745.59	25.4793
749.894	25.3654
754.223	25.2522
758.578	25.1395
762.957	25.0273
767.361	24.9157
771.792	24.8047
776.247	24.6942
780.728	24.5842
785.236	24.4748
789.769	24.366
794.328	24.2577
798.914	24.1499
803.526	24.0427
808.165	23.936
812.831	23.8298
817.523	23.7242
822.243	23.6191
826.99	23.5145
831.764	23.4104
836.566	23.3069
841.395	23.2039
846.253	23.1014
851.138	22.9994
856.052	22.8979
860.994	22.7969
865.964	22.6965
870.964	22.5965
875.992	22.497
881.049	22.398
886.135	22.2996
891.251	22.2016
896.396	22.1041
901.571	22.0071
906.776	21.9106
912.011	21.8146
917.276	21.719
922.571	21.6239
927.897	21.5294
933.254	21.4352
938.642	21.3416
944.061	21.2484
949.511	21.1557
954.993	21.0635
960.506	20.9717
966.051	20.8804
971.628	20.7896
977.237	20.6992
982.879	20.6092
988.553	20.5198
994.26	20.4307
1000	20.3422
1005.77	20.254
1011.58	20.1663
1017.42	20.0791
1023.29	19.9923
1029.2	19.9059
1035.14	19.82
1041.12	19.7345
1047.13	19.6494
1053.17	19.5648
1059.25	19.4806
1065.37	19.3968
1071.52	19.3135
1077.71	19.2306
1083.93	19.148
1090.18	19.066
1096.48	18.9843
1102.81	18.903
1109.17	18.8222
1115.58	18.7418
1122.02	18.6617
1128.5	18.5821
1135.01	18.5029
1141.56	18.4241
1148.15	18.3457
1154.78	18.2677
1161.45	18.1901
1168.15	18.1128
1174.9	18.036
1181.68	17.9596
1188.5	17.8836
1195.36	17.8079
1202.26	17.7326
1209.21	17.6578
1216.19	17.5833
1223.21	17.5091
1230.27	17.4354
1237.37	17.362
1244.51	17.2891
1251.7	17.2164
1258.93	17.1442
1266.19	17.0723
1273.5	17.0008
1280.86	16.9297
1288.25	16.8589
1295.69	16.7885
1303.17	16.7185
1310.69	16.6488
1318.26	16.5795
1325.87	16.5105
1333.52	16.4419
1341.22	16.3736
1348.96	16.3057
1356.75	16.2381
1364.58	16.1709
1372.46	16.1041
1380.38	16.0375
1388.35	15.9714
1396.37	15.9055
1404.43	15.84
1412.54	15.7749
1420.69	15.71
1428.89	15.6456
1437.14	15.5814
1445.44	15.5176
1453.78	15.4541
1462.18	15.3909
1470.62	15.3281
1479.11	15.2656
1487.65	15.2034
1496.24	15.1415
1504.87	15.08
1513.56	15.0188
1522.3	14.9579
1531.09	14.8973
1539.93	14.837
1548.82	14.777
1557.76	14.7174
1566.75	14.6581
1575.8	14.599
1584.89	14.5403
1594.04	14.4819
1603.25	14.4238
1612.5	14.366
1621.81	14.3085
1631.17	14.2513
1640.59	14.1944
1650.06	14.1378
1659.59	14.0815
1669.17	14.0254
1678.8	13.9697
1688.5	13.9143
1698.24	13.8591
1708.05	13.8043
1717.91	13.7497
1727.83	13.6955
1737.8	13.6415
1747.83	13.5878
1757.92	13.5343
1768.07	13.4812
1778.28	13.4283
1788.55	13.3757
1798.87	13.3234
1809.26	13.2714
1819.7	13.2196
1830.21	13.1682
1840.77	13.1169
1851.4	13.066
1862.09	13.0153
1872.84	12.9649
1883.65	12.9148
1894.52	12.8649
1905.46	12.8153
1916.46	12.766
1927.52	12.7169
1938.65	12.668
1949.84	12.6195
1961.1	12.5712
1972.42	12.5231
1983.81	12.4753
1995.26	12.4278
2006.78	12.3805
2018.37	12.3335
2030.02	12.2867
2041.74	12.2402
2053.53	12.1939
2065.38	12.1478
2077.3	12.1021
2089.3	12.0565
2101.36	12.0112
2113.49	11.9661
2125.69	11.9213
2137.96	11.8767
2150.3	11.8324
2162.72	11.7883
2175.2	11.7444
2187.76	11.7008
2200.39	11.6574
2213.09	11.6143
2225.87	11.5713
2238.72	11.5286
2251.65	11.4862
2264.64	11.4439
2277.72	11.4019
2290.87	11.3601
2304.09	11.3186
2317.39	11.2773
2330.77	11.2362
2344.23	11.1953
2357.76	11.1546
2371.37	11.1142
2385.06	11.0739
2398.83	11.0339
2412.68	10.9942
2426.61	10.9546
2440.62	10.9152
2454.71	10.8761
2468.88	10.8372
2483.13	10.7984
2497.47	10.7599
2511.89	10.7217
2526.39	10.6836
2540.97	10.6457
2555.64	10.608
2570.4	10.5706
2585.23	10.5333
2600.16	10.4963
2615.17	10.4594
2630.27	10.4228
2645.45	10.3863
2660.73	10.3501
2676.09	10.3141
2691.53	10.2782
2707.07	10.2426
2722.7	10.2071
2738.42	10.1719
2754.23	10.1368
2770.13	10.102
2786.12	10.0673
2802.21	10.0328
2818.38	9.99853
2834.65	9.96444
2851.02	9.93054
2867.48	9.89682
2884.03	9.86329
2900.68	9.82995
2917.43	9.7968
2934.27	9.76383
2951.21	9.73105
2968.25	9.69845
2985.38	9.66603
3002.62	9.63379
3019.95	9.60174
3037.39	9.56986
3054.92	9.53817
3072.56	9.50665
3090.3	9.47531
3108.14	9.44415
3126.08	9.41316
3144.13	9.38235
3162.28	9.35171
3180.53	9.32125
3198.9	9.29096
3217.36	9.26084
3235.94	9.23089
3254.62	9.20111
3273.41	9.1715
3292.3	9.14206
3311.31	9.11279
3330.43	9.08369
3349.65	9.05475
3368.99	9.02597
3388.44	8.99737
3408	8.96892
3427.68	8.94064
3447.47	8.91252
3467.37	8.88457
3487.39	8.85677
3507.52	8.82913
3527.77	8.80166
3548.13	8.77434
3568.62	8.74718
3589.22	8.72018
3609.94	8.69333
3630.78	8.66664
3651.74	8.64011
3672.82	8.61373
3694.03	8.5875
3715.35	8.56143
3736.8	8.53551
3758.37	8.50973
3780.07	8.48412
3801.89	8.45865
3823.84	8.43333
3845.92	8.40815
3868.12	8.38313
3890.45	8.35825
3912.91	8.33353
3935.5	8.30894
3958.22	8.2845
3981.07	8.26021
4004.05	8.23606
4027.17	8.21205
4050.42	8.18819
4073.8	8.16447
4097.32	8.14089
4120.98	8.11745
4144.77	8.09415
4168.69	8.07099
4192.76	8.04796
4216.97	8.02508
4241.31	8.00233
4265.8	7.97972
4290.42	7.95725
4315.19	7.93491
4340.1	7.91271
4365.16	7.89064
4390.36	7.8687
4415.7	7.8469
4441.2	7.82523
4466.84	7.80369
4492.62	7.78228
4518.56	7.76101
4544.65	7.73986
4570.88	7.71884
4597.27	7.69795
4623.81	7.67719
4650.5	7.65656
4677.35	7.63606
4704.35	7.61568
4731.51	7.59542
4758.83	7.57529
4786.3	7.55529
4813.93	7.53541
4841.72	7.51566
4869.68	7.49602
4897.79	7.47651
4926.06	7.45712
4954.5	7.43786
4983.1	7.41871
5011.87	7.39968
5040.81	7.38078
5069.91	7.36199
5099.18	7.34332
5128.61	7.32477
5158.22	7.30634
5188	7.28802
5217.95	7.26982
5248.07	7.25173
5278.37	7.23376
5308.84	7.21591
5339.49	7.19817
5370.32	7.18054
5401.32	7.16303
5432.5	7.14563
5463.87	7.12834
5495.41	7.11116
5527.13	7.0941
5559.04	7.07714
5591.14	7.0603
5623.41	7.04356
5655.88	7.02694
5688.53	7.01042
5721.37	6.99401
5754.4	6.97771
5787.62	6.96152
5821.03	6.94543
5854.64	6.92945
5888.44	6.91357
5922.43	6.8978
5956.62	6.88214
5991.01	6.86658
6025.6	6.85112
6060.38	6.83576
6095.37	6.82051
6130.56	6.80536
6165.95	6.79032
6201.55	6.77537
6237.35	6.76053
6273.36	6.74578
6309.57	6.73114
6346	6.7166
6382.63	6.70215
6419.48	6.68781
6456.54	6.67356
6493.82	6.65941
6531.31	6.64536
6569.01	6.6314
6606.93	6.61754
6645.08	6.60378
6683.44	6.59011
6722.02	6.57654
6760.83	6.56306
6799.86	6.54968
6839.12	6.53639
6878.6	6.52319
6918.31	6.51009
6958.25	6.49708
6998.42	6.48416
7038.82	6.47134
7079.46	6.4586
7120.33	6.44596
7161.43	6.43341
7202.78	6.42094
7244.36	6.40857
7286.18	6.39629
7328.25	6.38409
7370.55	6.37199
7413.1	6.35997
7455.9	6.34804
7498.94	6.3362
7542.23	6.32444
7585.78	6.31277
7629.57	6.30119
7673.61	6.28969
7717.92	6.27828
7762.47	6.26696
7807.28	6.25571
7852.36	6.24456
7897.69	6.23348
7943.28	6.22249
7989.14	6.21159
8035.26	6.20076
8081.65	6.19002
8128.31	6.17936
8175.23	6.16878
8222.43	6.15828
8269.9	6.14787
8317.64	6.13753
8365.66	6.12728
8413.95	6.1171
8462.53	6.10701
8511.38	6.09699
8560.52	6.08705
8609.94	6.07719
8659.64	6.06741
8709.64	6.0577
8759.92	6.04808
8810.49	6.03853
8861.35	6.02905
8912.51	6.01966
8963.96	6.01034
9015.71	6.00109
9067.76	5.99192
9120.11	5.98282
9172.76	5.9738
9225.71	5.96486
9278.97	5.95599
9332.54	5.94719
9386.42	5.93846
9440.61	5.92981
9495.11	5.92123
9549.93	5.91272
9605.06	5.90428
9660.51	5.89592
9716.28	5.88763
9772.37	5.8794
9828.79	5.87125
9885.53	5.86317
9942.6	5.85516
10000	5.84722
10057.7	5.83935
10115.8	5.83154
10174.2	5.82381
10232.9	5.81614
10292	5.80854
10351.4	5.80101
10411.2	5.79355
10471.3	5.78616
10531.7	5.77883
10592.5	5.77157
10653.7	5.76409
10715.2	5.75634
10777.1	5.74865
10839.3	5.74103
10901.8	5.73347
10964.8	5.72598
11028.1	5.71855
11091.7	5.71118
11155.8	5.70388
11220.2	5.69664
11285	5.68946
11350.1	5.68234
11415.6	5.67528
11481.5	5.66829
11547.8	5.66136
11614.5	5.65448
11681.5	5.64767
11749	5.64092
11816.8	5.63423
11885	5.6276
11953.6	5.62102
12022.6	5.61451
12092.1	5.60806
12161.9	5.60166
12232.1	5.59532
12302.7	5.58904
12373.7	5.58282
12445.1	5.57665
12517	5.57055
12589.3	5.56449
12661.9	5.5585
12735	5.55256
12808.6	5.54668
12882.5	5.54085
12956.9	5.53508
13031.7	5.52936
13106.9	5.5237
13182.6	5.51809
13258.7	5.51254
13335.2	5.50704
13412.2	5.5016
13489.6	5.49621
13567.5	5.49087
13645.8	5.48558
13724.6	5.48035
13803.8	5.47517
13883.5	5.47004
13963.7	5.46497
14044.3	5.45994
14125.4	5.45497
14206.9	5.45005
14288.9	5.44518
14371.4	5.44036
14454.4	5.43559
14537.8	5.43087
14621.8	5.4262
14706.2	5.42158
14791.1	5.41701
14876.5	5.41249
14962.4	5.40801
15048.7	5.40359
15135.6	5.39922
15223	5.39489
15310.9	5.39061
15399.3	5.38638
15488.2	5.38219
15577.6	5.37805
15667.5	5.37396
15758	5.36992
15848.9	5.36592
15940.4	5.36197
16032.5	5.35806
16125	5.3542
16218.1	5.35039
16311.7	5.34662
16405.9	5.3429
16500.6	5.33922
16595.9	5.33558
16691.7	5.33199
16788	5.32844
16885	5.32494
16982.4	5.32148
17080.5	5.31807
17179.1	5.31469
17278.3	5.31136
17378	5.30808
17478.3	5.30483
17579.2	5.30163
17680.7	5.29847
17782.8	5.29535
17885.5	5.29227
17988.7	5.28924
18092.6	5.28624
18197	5.28329
18302.1	5.28038
18407.7	5.2775
18514	5.27467
18620.9	5.27188
18728.4	5.26912
18836.5	5.26641
18945.2	5.26374
19054.6	5.2611
19164.6	5.25851
19275.2	5.25595
19386.5	5.25343
19498.4	5.25095
19611	5.24851
19724.2	5.2461
19838.1	5.24374
19952.6	5.24141
20067.8	5.23912
20183.7	5.23686
20300.2	5.23464
20417.4	5.23246
20535.3	5.23032
20653.8	5.22821
20773	5.22613
20893	5.2241
21013.6	5.2221
21134.9	5.22013
21256.9	5.2182
21379.6	5.2163
21503	5.21444
21627.2	5.21262
21752	5.21082
21877.6	5.20907
22003.9	5.20734
22130.9	5.20565
22258.7	5.204
22387.2	5.20237
22516.5	5.20078
22646.4	5.19923
22777.2	5.1977
22908.7	5.19621
23040.9	5.19475
23173.9	5.19333
23307.7	5.19193
23442.3	5.19057
23577.6	5.18924
23713.7	5.18794
23850.6	5.18668
23988.3	5.18544
24126.8	5.18423
24266.1	5.18306
24406.2	5.18192
24547.1	5.1808
24688.8	5.17972
24831.3	5.17867
24974.7	5.17764
25118.9	5.17665
25263.9	5.17568
25409.7	5.17475
25556.4	5.17384
25704	5.17297
25852.3	5.17212
26001.6	5.1713
26151.7	5.17051
26302.7	5.16975
26454.5	5.16902
26607.3	5.16831
26760.9	5.16763
26915.3	5.16698
27070.7	5.16636
27227	5.16576
27384.2	5.16519
27542.3	5.16465
27701.3	5.16414
27861.2	5.16365
28022.1	5.16319
28183.8	5.16275
28346.5	5.16234
28510.2	5.16196
28674.8	5.1616
28840.3	5.16127
29006.8	5.16096
29174.3	5.16068
29342.7	5.16042
29512.1	5.16019
29682.5	5.15998
29853.8	5.1598
30026.2	5.15965
30199.5	5.15951
30373.9	5.1594
30549.2	5.15932
30725.6	5.15926
30903	5.15922
31081.4	5.15921
31260.8	5.15922
31441.3	5.15925
31622.8	5.15931
31805.3	5.15939
31989	5.15949
32173.6	5.15961
32359.4	5.15976
32546.2	5.15993
32734.1	5.16012
32923	5.16033
33113.1	5.16057
33304.3	5.16083
33496.5	5.16111
33689.9	5.16141
33884.4	5.16173
34080	5.16207
34276.8	5.16244
34474.7	5.16282
34673.7	5.16323
34873.9	5.16365
35075.2	5.1641
35277.7	5.16457
35481.3	5.16505
35686.2	5.16556
35892.2	5.16609
36099.4	5.16664
36307.8	5.1672
36517.4	5.16779
36728.2	5.16839
36940.3	5.16902
37153.5	5.16966
37368	5.17033
37583.7	5.17101
37800.7	5.17171
38018.9	5.17243
38238.4	5.17316
38459.2	5.17392
38681.2	5.17469
38904.5	5.17548
39129.1	5.17629
39355	5.17712
39582.2	5.17797
39810.7	5.17883
40040.5	5.17971
40271.7	5.18061
40504.2	5.18152
40738	5.18245
40973.2	5.1834
41209.8	5.18437
41447.7	5.18535
41686.9	5.18635
41927.6	5.18736
42169.7	5.18839
42413.1	5.18944
42658	5.19051
42904.2	5.19158
43151.9	5.19268
43401	5.19379
43651.6	5.19492
43903.6	5.19606
44157	5.19722
44412	5.19839
44668.4	5.19958
44926.2	5.20078
45185.6	5.202
45446.5	5.20323
45708.8	5.20448
45972.7	5.20574
46238.1	5.20701
46505	5.2083
46773.5	5.20961
47043.5	5.21093
47315.1	5.21226
47588.3	5.2136
47863	5.21497
48139.3	5.21634
48417.2	5.21773
48696.8	5.21913
48977.9	5.22054
49260.6	5.22197
49545	5.22341
49831	5.22486
50118.7	5.22633
50408.1	5.22781
50699.1	5.2293
50991.8	5.23081
51286.1	5.23232
51582.2	5.23385
51880	5.23539
52179.5	5.23695
52480.7	5.23851
52783.7	5.24009
53088.4	5.24168
53394.9	5.24328
53703.2	5.2449
54013.2	5.24652
54325	5.24816
54638.7	5.24981
54954.1	5.25147
55271.3	5.25314
55590.4	5.25482
55911.4	5.25651
56234.1	5.25822
56558.8	5.25993
56885.3	5.26166
57213.7	5.2634
57544	5.26514
57876.2	5.2669
58210.3	5.26867
58546.4	5.27045
58884.4	5.27224
59224.3	5.27403
59566.2	5.27584
59910.1	5.27766
60256	5.27949
60603.8	5.28133
60953.7	5.28318
61305.6	5.28503
61659.5	5.2869
62015.5	5.28878
62373.5	5.29067
62733.6	5.29256
63095.7	5.29447
63460	5.29638
63826.3	5.2983
64194.8	5.30023
64565.4	5.30218
64938.2	5.30413
65313.1	5.30608
65690.1	5.30805
66069.3	5.31003
66450.8	5.31201
66834.4	5.314
67220.2	5.316
67608.3	5.31801
67998.6	5.32003
68391.2	5.32206
68786	5.32409
69183.1	5.32613
69582.5	5.32818
69984.2	5.33024
70388.2	5.3323
70794.6	5.33438
71203.3	5.33646
71614.3	5.33854
72027.8	5.34064
72443.6	5.34274
72861.8	5.34485
73282.5	5.34697
73705.5	5.34909
74131	5.35122
74559	5.35336
74989.4	5.35551
75422.3	5.35766
75857.8	5.35982
76295.7	5.36199
76736.1	5.36416
77179.2	5.36634
77624.7	5.36852
78072.8	5.37072
78523.6	5.37292
78976.9	5.37512
79432.8	5.37733
79891.4	5.37955
80352.6	5.38178
80816.5	5.38401
81283.1	5.38624
81752.3	5.38848
82224.3	5.39073
82699	5.39299
83176.4	5.39525
83656.6	5.39751
84139.5	5.39978
84625.3	5.40206
85113.8	5.40434
85605.2	5.40663
86099.4	5.40892
86596.4	5.41122
87096.4	5.41353
87599.2	5.41584
88104.9	5.41815
88613.5	5.42047
89125.1	5.4228
89639.6	5.42513
90157.1	5.42746
90677.6	5.4298
91201.1	5.43215
91727.6	5.4345
92257.1	5.43686
92789.7	5.43921
93325.4	5.44158
93864.2	5.44395
94406.1	5.44632
94951.1	5.4487
95499.3	5.45108
96050.6	5.45347
96605.1	5.45586
97162.8	5.45826
97723.7	5.46066
98287.9	5.46306
98855.3	5.46547
99426	5.46788
100000	5.4703
100577	5.47272
101158	5.47515
101742	5.47758
102329	5.48001
102920	5.48245
103514	5.48489
104112	5.48733
104713	5.48978
105317	5.49223
105925	5.49469
106537	5.49714
107152	5.49961
107771	5.50207
108393	5.50454
109018	5.50702
109648	5.50949
110281	5.51197
110917	5.51445
111558	5.51694
112202	5.51943
112850	5.52192
113501	5.52442
114156	5.52692
114815	5.52942
115478	5.53193
116145	5.53443
116815	5.53694
117490	5.53946
118168	5.54197
118850	5.54449
119536	5.54702
120226	5.54954
120921	5.55207
121619	5.5546
122321	5.55713
123027	5.55967
123737	5.56221
124451	5.56475
125170	5.56729
125893	5.56984
126619	5.57239
127350	5.57494
128086	5.57749
128825	5.58004
129569	5.5826
130317	5.58516
131069	5.58772
131826	5.59029
132587	5.59285
133352	5.59542
134122	5.59799
134896	5.60057
135675	5.60314
136458	5.60572
137246	5.6083
138038	5.61088
138835	5.61346
139637	5.61604
140443	5.61863
141254	5.62122
142069	5.62381
142889	5.6264
143714	5.62899
144544	5.63159
145378	5.63419
146218	5.63678
147062	5.63938
147911	5.64199
148765	5.64459
149624	5.64719
150487	5.6498
151356	5.65241
152230	5.65502
153109	5.65763
153993	5.66024
154882	5.66285
155776	5.66547
156675	5.66808
157580	5.6707
158489	5.67332
159404	5.67594
160325	5.67856
161250	5.68118
162181	5.68381
163117	5.68643
164059	5.68906
165006	5.69169
165959	5.69431
166917	5.69694
167880	5.69957
168850	5.7022
169824	5.70484
170805	5.70747
171791	5.7101
172783	5.71274
173780	5.71537
174783	5.71801
175792	5.72065
176807	5.72329
177828	5.72593
178855	5.72857
179887	5.73121
180926	5.73385
181970	5.73649
183021	5.73913
184077	5.74178
185140	5.74442
186209	5.74707
187284	5.74971
188365	5.75236
189452	5.75501
190546	5.75766
191646	5.7603
192752	5.76295
193865	5.7656
194984	5.76825
196110	5.7709
197242	5.77355
198381	5.7762
199526	5.77886
200678	5.78151
201837	5.78416
203002	5.78681
204174	5.78947
205353	5.79212
206538	5.79478
207730	5.79743
208930	5.80008
210136	5.80274
211349	5.80539
212569	5.80805
213796	5.81071
215030	5.81336
216272	5.81602
217520	5.81867
218776	5.82133
220039	5.82399
221309	5.82664
222587	5.8293
223872	5.83196
225165	5.83462
226464	5.83727
227772	5.83993
229087	5.84259
230409	5.84525
231739	5.8479
233077	5.85056
234423	5.85322
235776	5.85588
237137	5.85854
238506	5.86119
239883	5.86385
241268	5.86651
242661	5.86917
244062	5.87182
245471	5.87448
246888	5.87714
248313	5.8798
249747	5.88245
251189	5.88511
252639	5.88777
254097	5.89042
255564	5.89308
257040	5.89574
258523	5.89839
260016	5.90105
261517	5.90371
263027	5.90636
264545	5.90902
266073	5.91167
267609	5.91433
269153	5.91698
270707	5.91964
272270	5.92229
273842	5.92494
275423	5.9276
277013	5.93025
278612	5.9329
280221	5.93556
281838	5.93821
283465	5.94086
285102	5.94351
286748	5.94616
288403	5.94881
290068	5.95146
291743	5.95411
293427	5.95676
295121	5.95941
296825	5.96206
298538	5.96471
300262	5.96736
301995	5.97001
303739	5.97265
305492	5.9753
307256	5.97795
309030	5.98059
310814	5.98324
312608	5.98588
314413	5.98853
316228	5.99117
318053	5.99381
319890	5.99646
321736	5.9991
323594	6.00174
325462	6.00438
327341	6.00702
329230	6.00966
331131	6.0123
333043	6.01494
334965	6.01758
336899	6.02021
338844	6.02285
340800	6.02549
342768	6.02812
344747	6.03076
346737	6.03339
348739	6.03603
350752	6.03866
352777	6.04129
354813	6.04393
356862	6.04656
358922	6.04919
360994	6.05182
363078	6.05445
365174	6.05708
367282	6.0597
369403	6.06233
371535	6.06496
373680	6.06758
375837	6.07021
378007	6.07283
380189	6.07546
382384	6.07808
384592	6.0807
386812	6.08333
389045	6.08595
391291	6.08857
393550	6.09119
395822	6.09381
398107	6.09642
400405	6.09904
402717	6.10166
405042	6.10427
407380	6.10689
409732	6.1095
412098	6.11212
414477	6.11473
416869	6.11734
419276	6.11995
421697	6.12256
424131	6.12517
426580	6.12778
429042	6.13039
431519	6.133
434010	6.1356
436516	6.13821
439036	6.14081
441570	6.14341
444120	6.14602
446684	6.14862
449262	6.15122
451856	6.15382
454465	6.15642
457088	6.15902
459727	6.16162
462381	6.16421
465050	6.16681
467735	6.16941
470435	6.172
473151	6.17459
475883	6.17719
478630	6.17978
481393	6.18237
484172	6.18496
486968	6.18755
489779	6.19014
492606	6.19272
495450	6.19531
498310	6.1979
501187	6.20048
504081	6.20306
506991	6.20565
509918	6.20823
512861	6.21081
515822	6.21339
518800	6.21597
521795	6.21855
524807	6.22112
527837	6.2237
530884	6.22628
533949	6.22885
537032	6.23142
540132	6.234
543250	6.23657
546387	6.23914
549541	6.24171
552713	6.24428
555904	6.24684
559114	6.24941
562341	6.25198
565588	6.25454
568853	6.25711
572137	6.25967
575440	6.26223
578762	6.26479
582103	6.26735
585464	6.26991
588844	6.27247
592243	6.27503
595662	6.27758
599101	6.28014
602560	6.28269
606038	6.28524
609537	6.2878
613056	6.29035
616595	6.2929
620155	6.29545
623735	6.298
627336	6.30054
630957	6.30309
634600	6.30563
638263	6.30818
641948	6.31072
645654	6.31326
649382	6.31581
653131	6.31835
656901	6.32088
660693	6.32342
664508	6.32596
668344	6.3285
672202	6.33103
676083	6.33357
679986	6.3361
683912	6.33863
687860	6.34116
691831	6.34369
695825	6.34622
699842	6.34875
703882	6.35127
707946	6.3538
712033	6.35633
716143	6.35885
720278	6.36137
724436	6.36389
728618	6.36641
732825	6.36893
737055	6.37145
741310	6.37397
745590	6.37649
749894	6.379
754223	6.38152
758578	6.38403
762957	6.38654
767361	6.38905
771792	6.39156
776247	6.39407
780728	6.39658
785236	6.39909
789769	6.40159
794328	6.4041
798914	6.4066
803526	6.4091
808165	6.41161
812831	6.41411
817523	6.41661
822243	6.4191
826990	6.4216
831764	6.4241
836566	6.42659
841395	6.42909
846253	6.43158
851138	6.43407
856052	6.43656
860994	6.43905
865964	6.44154
870964	6.44403
875992	6.44652
881049	6.449
886135	6.45149
891251	6.45397
896396	6.45645
901571	6.45893
906776	6.46141
912011	6.46389
917276	6.46637
922571	6.46885
927897	6.47132
933254	6.4738
938642	6.47627
944061	6.47875
949511	6.48122
954993	6.48369
960506	6.48616
966051	6.48862
971628	6.49109
977237	6.49356
982879	6.49602
988553	6.49849
994260	6.50095
1e+06	6.50341
1.00577e+06	6.50587
1.01158e+06	6.50833
1.01742e+06	6.51079
1.02329e+06	6.51325
1.0292e+06	6.5157
1.03514e+06	6.51816
1.04112e+06	6.52061
1.04713e+06	6.52306
1.05317e+06	6.52552
1.05925e+06	6.52797
1.06537e+06	6.53042
1.07152e+06	6.53286
1.07771e+06	6.53531
1.08393e+06	6.53776
1.09018e+06	6.5402
1.09648e+06	6.54265
1.10281e+06	6.54509
1.10917e+06	6.54753
1.11558e+06	6.54997
1.12202e+06	6.55241
1.1285e+06	6.55485
1.13501e+06	6.55729
1.14156e+06	6.55972
1.14815e+06	6.56216
1.15478e+06	6.56459
1.16145e+06	6.56702
1.16815e+06	6.56945
1.1749e+06	6.57188
1.18168e+06	6.57431
1.1885e+06	6.57674
1.19536e+06	6.57917
1.20226e+06	6.5816
1.20921e+06	6.58402
1.21619e+06	6.58644
1.22321e+06	6.58887
1.23027e+06	6.59129
1.23737e+06	6.59371
1.24451e+06	6.59613
1.2517e+06	6.59855
1.25893e+06	6.60096
1.26619e+06	6.60338
1.2735e+06	6.60579
1.28086e+06	6.60821
1.28825e+06	6.61062
1.29569e+06	6.61303
1.30317e+06	6.61544
1.31069e+06	6.61785
1.31826e+06	6.62026
1.32587e+06	6.62266
1.33352e+06	6.62507
1.34122e+06	6.62747
1.34896e+06	6.62988
1.35675e+06	6.63228
1.36458e+06	6.63468
1.37246e+06	6.63708
1.38038e+06	6.63948
1.38835e+06	6.64188
1.39637e+06	6.64427
1.40443e+06	6.64667
1.41254e+06	6.64906
1.42069e+06	6.65145
1.42889e+06	6.65385
1.43714e+06	6.65624
1.44544e+06	6.65863
1.45378e+06	6.66101
1.46218e+06	6.6634
1.47062e+06	6.66579
1.47911e+06	6.66817
1.48765e+06	6.67056
1.49624e+06	6.67294
1.50487e+06	6.67532
1.51356e+06	6.6777
1.5223e+06	6.68008
1.53109e+06	6.68246
1.53993e+06	6.68483
1.54882e+06	6.68721
1.55776e+06	6.68958
1.56675e+06	6.69196
1.5758e+06	6.69433
1.58489e+06	6.6967
1.59404e+06	6.69907
1.60325e+06	6.70144
1.6125e+06	6.70381
1.62181e+06	6.70617
1.63117e+06	6.70854
1.64059e+06	6.7109
1.65006e+06	6.71326
1.65959e+06	6.71563
1.66917e+06	6.71799
1.6788e+06	6.72035
1.6885e+06	6.7227
1.69824e+06	6.72506
1.70805e+06	6.72742
1.71791e+06	6.72977
1.72783e+06	6.73213
1.7378e+06	6.73448
1.74783e+06	6.73683
1.75792e+06	6.73918
1.76807e+06	6.74153
1.77828e+06	6.74387
1.78855e+06	6.74622
1.79887e+06	6.74857
1.80926e+06	6.75091
1.8197e+06	6.75325
1.83021e+06	6.75559
1.84077e+06	6.75794
1.8514e+06	6.76027
1.86209e+06	6.76261
1.87284e+06	6.76495
1.88365e+06	6.76729
1.89452e+06	6.76962
1.90546e+06	6.77195
1.91646e+06	6.77429
1.92752e+06	6.77662
1.93865e+06	6.77895
1.94984e+06	6.78127
1.9611e+06	6.7836
1.97242e+06	6.78593
1.98381e+06	6.78825
1.99526e+06	6.79058
2.00678e+06	6.7929
2.01837e+06	6.79522
2.03002e+06	6.79754
2.04174e+06	6.79986
2.05353e+06	6.80218
2.06538e+06	6.80449
2.0773e+06	6.80681
2.0893e+06	6.80912
2.10136e+06	6.81144
2.11349e+06	6.81375
2.12569e+06	6.81606
2.13796e+06	6.81837
2.1503e+06	6.82068
2.16272e+06	6.82298
2.1752e+06	6.82529
2.18776e+06	6.82759
2.20039e+06	6.8299
2.21309e+06	6.8322
2.22587e+06	6.8345
2.23872e+06	6.8368
2.25165e+06	6.8391
2.26464e+06	6.8414
2.27772e+06	6.84369
2.29087e+06	6.84599
2.30409e+06	6.84828
2.31739e+06	6.85057
2.33077e+06	6.85286
2.34423e+06	6.85515
2.35776e+06	6.85744
2.37137e+06	6.85973
2.38506e+06	6.86202
2.39883e+06	6.8643
2.41268e+06	6.86659
2.42661e+06	6.86887
2.44062e+06	6.87115
2.45471e+06	6.87343
2.46888e+06	6.87571
2.48313e+06	6.87799
2.49747e+06	6.88026
2.51189e+06	6.88254
2.52639e+06	6.88481
2.54097e+06	6.88708
2.55564e+06	6.88936
2.5704e+06	6.89163
2.58523e+06	6.8939
2.60016e+06	6.89616
2.61517e+06	6.89843
2.63027e+06	6.9007
2.64545e+06	6.90296
2.66073e+06	6.90522
2.67609e+06	6.90748
2.69153e+06	6.90974
2.70707e+06	6.912
2.7227e+06	6.91426
2.73842e+06	6.91652
2.75423e+06	6.91877
2.77013e+06	6.92103
2.78612e+06	6.92328
2.80221e+06	6.92553
2.81838e+06	6.92778
2.83465e+06	6.93003
2.85102e+06	6.93228
2.86748e+06	6.93453
2.88403e+06	6.93677
2.90068e+06	6.93902
2.91743e+06	6.94126
2.93427e+06	6.9435
2.95121e+06	6.94574
2.96825e+06	6.94798
2.98538e+06	6.95022
3.00262e+06	6.95245
3.01995e+06	6.95469
3.03739e+06	6.95692
3.05492e+06	6.95916
3.07256e+06	6.96139
3.0903e+06	6.96362
3.10814e+06	6.96585
3.12608e+06	6.96807
3.14413e+06	6.9703
3.16228e+06	6.97252
3.18053e+06	6.97475
3.1989e+06	6.97697
3.21736e+06	6.97919
3.23594e+06	6.98141
3.25462e+06	6.98363
3.27341e+06	6.98585
3.2923e+06	6.98806
3.31131e+06	6.99028
3.33043e+06	6.99249
3.34965e+06	6.99471
3.36899e+06	6.99692
3.38844e+06	6.99913
3.408e+06	7.00133
3.42768e+06	7.00354
3.44747e+06	7.00575
3.46737e+06	7.00795
3.48739e+06	7.01015
3.50752e+06	7.01236
3.52777e+06	7.01456
3.54813e+06	7.01676
3.56862e+06	7.01895
3.58922e+06	7.02115
3.60994e+06	7.02335
3.63078e+06	7.02554
3.65174e+06	7.02773
3.67282e+06	7.02993
3.69403e+06	7.03212
3.71535e+06	7.0343
3.7368e+06	7.03649
3.75837e+06	7.03868
3.78007e+06	7.04086
3.80189e+06	7.04305
3.82384e+06	7.04523
3.84592e+06	7.04741
3.86812e+06	7.04959
3.89045e+06	7.05177
3.91291e+06	7.05395
3.9355e+06	7.05612
3.95822e+06	7.0583
3.98107e+06	7.06047
4.00405e+06	7.06264
4.02717e+06	7.06481
4.05042e+06	7.06698
4.0738e+06	7.06915
4.09732e+06	7.07132
4.12098e+06	7.07348
4.14477e+06	7.07565
4.16869e+06	7.07781
4.19276e+06	7.07997
4.21697e+06	7.08213
4.24131e+06	7.08429
4.2658e+06	7.08644
4.29042e+06	7.0886
4.31519e+06	7.09076
4.3401e+06	7.09291
4.36516e+06	7.09506
4.39036e+06	7.09721
4.4157e+06	7.09936
4.4412e+06	7.10151
4.46684e+06	7.10365
4.49262e+06	7.1058
4.51856e+06	7.10794
4.54465e+06	7.11009
4.57088e+06	7.11223
4.59727e+06	7.11437
4.62381e+06	7.11651
4.6505e+06	7.11864
4.67735e+06	7.12078
4.70435e+06	7.12291
4.73151e+06	7.12505
4.75883e+06	7.12718
4.7863e+06	7.12931
4.81393e+06	7.13144
4.84172e+06	7.13356
4.86968e+06	7.13569
4.89779e+06	7.13782
4.92606e+06	7.13994
4.9545e+06	7.14206
4.9831e+06	7.14418
5.01187e+06	7.1463
5.04081e+06	7.14842
5.06991e+06	7.15054
5.09918e+06	7.15265
5.12861e+06	7.15476
5.15822e+06	7.15688
5.188e+06	7.15899
5.21795e+06	7.1611
5.24807e+06	7.16321
5.27837e+06	7.16531
5.30884e+06	7.16742
5.33949e+06	7.16952
5.37032e+06	7.17163
5.40132e+06	7.17373
5.4325e+06	7.17583
5.46387e+06	7.17793
5.49541e+06	7.18002
5.52713e+06	7.18212
5.55904e+06	7.18421
5.59114e+06	7.18631
5.62341e+06	7.1884
5.65588e+06	7.19049
5.68853e+06	7.19258
5.72137e+06	7.19466
5.7544e+06	7.19675
5.78762e+06	7.19884
5.82103e+06	7.20092
5.85464e+06	7.203
5.88844e+06	7.20508
5.92243e+06	7.20716
5.95662e+06	7.20924
5.99101e+06	7.21131
6.0256e+06	7.21339
6.06038e+06	7.21546
6.09537e+06	7.21753
6.13056e+06	7.2196
6.16595e+06	7.22167
6.20155e+06	7.22374
6.23735e+06	7.22581
6.27336e+06	7.22787
6.30957e+06	7.22993
6.346e+06	7.232
6.38263e+06	7.23406
6.41948e+06	7.23612
6.45654e+06	7.23817
6.49382e+06	7.24023
6.53131e+06	7.24228
6.56901e+06	7.24434
6.60693e+06	7.24639
6.64508e+06	7.24844
6.68344e+06	7.25049
6.72202e+06	7.25254
6.76083e+06	7.25458
6.79986e+06	7.25663
6.83912e+06	7.25867
6.8786e+06	7.26071
6.91831e+06	7.26275
6.95825e+06	7.26479
6.99842e+06	7.26683
7.03882e+06	7.26886
7.07946e+06	7.2709
7.12033e+06	7.27293
7.16143e+06	7.27496
7.20278e+06	7.27699
7.24436e+06	7.27902
7.28618e+06	7.28105
7.32825e+06	7.28307
7.37055e+06	7.2851
7.4131e+06	7.28712
7.4559e+06	7.28914
7.49894e+06	7.29116
7.54223e+06	7.29318
7.58578e+06	7.29519
7.62957e+06	7.29721
7.67361e+06	7.29922
7.71792e+06	7.30123
7.76247e+06	7.30324
7.80728e+06	7.30525
7.85236e+06	7.30726
7.89769e+06	7.30927
7.94328e+06	7.31127
7.98914e+06	7.31327
8.03526e+06	7.31527
8.08165e+06	7.31727
8.12831e+06	7.31927
8.17523e+06	7.32127
8.22243e+06	7.32327
8.2699e+06	7.32526
8.31764e+06	7.32725
8.36566e+06	7.32924
8.41395e+06	7.33123
8.46253e+06	7.33322
8.51138e+06	7.3352
8.56052e+06	7.33719
8.60994e+06	7.33917
8.65964e+06	7.34115
8.70964e+06	7.34313
8.75992e+06	7.34511
8.81049e+06	7.34709
8.86135e+06	7.34906
8.91251e+06	7.35104
8.96396e+06	7.35301
9.01571e+06	7.35498
9.06776e+06	7.35695
9.12011e+06	7.35892
9.17276e+06	7.36088
9.22571e+06	7.36285
9.27897e+06	7.36481
9.33254e+06	7.36677
9.38642e+06	7.36873
9.44061e+06	7.37069
9.49511e+06	7.37265
9.54993e+06	7.3746
9.60506e+06	7.37656
9.66051e+06	7.37851
9.71628e+06	7.38046
9.77237e+06	7.38241
9.82879e+06	7.38435
9.88553e+06	7.3863
9.9426e+06	7.38824
1e+07	7.39019
