Stopping power dEdx from Ionisation for B11[0.0] Z = 5 in G4_Si, process name: ionIoni
E [MeV]	dEdx [MeV/mm]
0.001	30.2298
0.00100577	30.3176
0.00101158	30.4057
0.00101742	30.494
0.00102329	30.5825
0.0010292	30.6714
0.00103514	30.7604
0.00104112	30.8498
0.00104713	30.9394
0.00105317	31.0292
0.00105925	31.1193
0.00106537	31.2097
0.00107152	31.3003
0.00107771	31.3912
0.00108393	31.4823
0.00109018	31.5738
0.00109648	31.6654
0.00110281	31.7574
0.00110917	31.8496
0.00111558	31.942
0.00112202	32.0348
0.0011285	32.1278
0.00113501	32.2211
0.00114156	32.3146
0.00114815	32.4084
0.00115478	32.5025
0.00116145	32.5969
0.00116815	32.6915
0.0011749	32.7864
0.00118168	32.8815
0.0011885	32.977
0.00119536	33.0727
0.00120226	33.1687
0.00120921	33.265
0.00121619	33.3615
0.00122321	33.4584
0.00123027	33.5555
0.00123737	33.6529
0.00124451	33.7505
0.0012517	33.8485
0.00125893	33.9467
0.00126619	34.0452
0.0012735	34.144
0.00128086	34.2431
0.00128825	34.3425
0.00129569	34.4421
0.00130317	34.5421
0.00131069	34.6423
0.00131826	34.7428
0.00132587	34.8436
0.00133352	34.9447
0.00134122	35.0461
0.00134896	35.1478
0.00135675	35.2498
0.00136458	35.3521
0.00137246	35.4546
0.00138038	35.5575
0.00138835	35.6607
0.00139637	35.7641
0.00140443	35.8679
0.00141254	35.9719
0.00142069	36.0763
0.00142889	36.1809
0.00143714	36.2859
0.00144544	36.3912
0.00145378	36.4967
0.00146218	36.6026
0.00147062	36.7087
0.00147911	36.8152
0.00148765	36.922
0.00149624	37.0291
0.00150487	37.1365
0.00151356	37.2442
0.0015223	37.3522
0.00153109	37.4606
0.00153993	37.5692
0.00154882	37.6782
0.00155776	37.7874
0.00156675	37.897
0.0015758	38.0069
0.00158489	38.1171
0.00159404	38.2277
0.00160325	38.3385
0.0016125	38.4497
0.00162181	38.5612
0.00163117	38.673
0.00164059	38.7852
0.00165006	38.8976
0.00165959	39.0104
0.00166917	39.1235
0.0016788	39.237
0.0016885	39.3507
0.00169824	39.4648
0.00170805	39.5792
0.00171791	39.694
0.00172783	39.8091
0.0017378	39.9245
0.00174783	40.0402
0.00175792	40.1563
0.00176807	40.2727
0.00177828	40.3895
0.00178855	40.5066
0.00179887	40.624
0.00180926	40.7417
0.0018197	40.8598
0.00183021	40.9783
0.00184077	41.0971
0.0018514	41.2162
0.00186209	41.3357
0.00187284	41.4555
0.00188365	41.5756
0.00189452	41.6961
0.00190546	41.817
0.00191646	41.9382
0.00192752	42.0598
0.00193865	42.1817
0.00194984	42.3039
0.0019611	42.4265
0.00197242	42.5495
0.00198381	42.6728
0.00199526	42.7964
0.00200678	42.9205
0.00201837	43.0449
0.00203002	43.1696
0.00204174	43.2947
0.00205353	43.4202
0.00206538	43.546
0.0020773	43.6722
0.0020893	43.7987
0.00210136	43.9256
0.00211349	44.0529
0.00212569	44.1805
0.00213796	44.3086
0.0021503	44.4369
0.00216272	44.5657
0.0021752	44.6948
0.00218776	44.8243
0.00220039	44.9542
0.00221309	45.0844
0.00222587	45.215
0.00223872	45.346
0.00225165	45.4774
0.00226464	45.6092
0.00227772	45.7413
0.00229087	45.8738
0.00230409	46.0067
0.00231739	46.14
0.00233077	46.2736
0.00234423	46.4077
0.00235776	46.5421
0.00237137	46.6769
0.00238506	46.8122
0.00239883	46.9478
0.00241268	47.0837
0.00242661	47.2201
0.00244062	47.3569
0.00245471	47.4941
0.00246888	47.6316
0.00248313	47.7696
0.00249747	47.908
0.00251189	48.0467
0.00252639	48.1859
0.00254097	48.3254
0.00255564	48.4654
0.0025704	48.6057
0.00258523	48.7465
0.00260016	48.8877
0.00261517	49.0293
0.00263027	49.1713
0.00264545	49.3137
0.00266073	49.4565
0.00267609	49.5997
0.00269153	49.7433
0.00270707	49.8874
0.0027227	50.0318
0.00273842	50.1767
0.00275423	50.322
0.00277013	50.4677
0.00278612	50.6139
0.00280221	50.7604
0.00281838	50.9074
0.00283465	51.0548
0.00285102	51.2026
0.00286748	51.3509
0.00288403	51.4996
0.00290068	51.6487
0.00291743	51.7982
0.00293427	51.9482
0.00295121	52.0986
0.00296825	52.2494
0.00298538	52.4007
0.00300262	52.5524
0.00301995	52.7045
0.00303739	52.8571
0.00305492	53.0102
0.00307256	53.1636
0.0030903	53.3175
0.00310814	53.4719
0.00312608	53.6267
0.00314413	53.7819
0.00316228	53.9376
0.00318053	54.0937
0.0031989	54.2503
0.00321736	54.4074
0.00323594	54.5649
0.00325462	54.7228
0.00327341	54.8812
0.0032923	55.0401
0.00331131	55.1994
0.00333043	55.3591
0.00334965	55.5194
0.00336899	55.6801
0.00338844	55.8412
0.003408	56.0029
0.00342768	56.1649
0.00344747	56.3275
0.00346737	56.4905
0.00348739	56.654
0.00350752	56.818
0.00352777	56.9824
0.00354813	57.1473
0.00356862	57.3127
0.00358922	57.4786
0.00360994	57.6449
0.00363078	57.8118
0.00365174	57.9791
0.00367282	58.1469
0.00369403	58.3151
0.00371535	58.4839
0.0037368	58.6531
0.00375837	58.8229
0.00378007	58.9931
0.00380189	59.1638
0.00382384	59.335
0.00384592	59.5067
0.00386812	59.6789
0.00389045	59.8516
0.00391291	60.0247
0.0039355	60.1984
0.00395822	60.3726
0.00398107	60.5473
0.00400405	60.7225
0.00402717	60.8982
0.00405042	61.0744
0.0040738	61.2511
0.00409732	61.4283
0.00412098	61.606
0.00414477	61.7843
0.00416869	61.963
0.00419276	62.1423
0.00421697	62.3221
0.00424131	62.5024
0.0042658	62.6832
0.00429042	62.8645
0.00431519	63.0464
0.0043401	63.2288
0.00436516	63.4117
0.00439036	63.5952
0.0044157	63.7791
0.0044412	63.9636
0.00446684	64.1487
0.00449262	64.3343
0.00451856	64.5204
0.00454465	64.707
0.00457088	64.8942
0.00459727	65.0819
0.00462381	65.2702
0.0046505	65.459
0.00467735	65.6483
0.00470435	65.8382
0.00473151	66.0286
0.00475883	66.2196
0.0047863	66.4112
0.00481393	66.6033
0.00484172	66.7959
0.00486968	66.9891
0.00489779	67.1829
0.00492606	67.3772
0.0049545	67.572
0.0049831	67.7675
0.00501187	67.9635
0.00504081	68.16
0.00506991	68.3572
0.00509918	68.5549
0.00512861	68.7531
0.00515822	68.952
0.005188	69.1514
0.00521795	69.3514
0.00524807	69.552
0.00527837	69.7531
0.00530884	69.9548
0.00533949	70.1571
0.00537032	70.36
0.00540132	70.5635
0.0054325	70.7675
0.00546387	70.9722
0.00549541	71.1774
0.00552713	71.3833
0.00555904	71.5897
0.00559114	71.7967
0.00562341	72.0043
0.00565588	72.2125
0.00568853	72.4213
0.00572137	72.6308
0.0057544	72.8408
0.00578762	73.0514
0.00582103	73.2626
0.00585464	73.4745
0.00588844	73.6869
0.00592243	73.9
0.00595662	74.1137
0.00599101	74.3279
0.0060256	74.5429
0.00606038	74.7584
0.00609537	74.9745
0.00613056	75.1913
0.00616595	75.4087
0.00620155	75.6267
0.00623735	75.8454
0.00627336	76.0647
0.00630957	76.2846
0.006346	76.5051
0.00638263	76.7263
0.00641948	76.9481
0.00645654	77.1706
0.00649382	77.3937
0.00653131	77.6175
0.00656901	77.8418
0.00660693	78.0669
0.00664508	78.2926
0.00668344	78.5189
0.00672202	78.7459
0.00676083	78.9735
0.00679986	79.2018
0.00683912	79.4308
0.0068786	79.6604
0.00691831	79.8907
0.00695825	80.1216
0.00699842	80.3533
0.00703882	80.5855
0.00707946	80.8185
0.00712033	81.0521
0.00716143	81.2864
0.00720278	81.5214
0.00724436	81.757
0.00728618	81.9933
0.00732825	82.2303
0.00737055	82.468
0.0074131	82.7064
0.0074559	82.9454
0.00749894	83.1852
0.00754223	83.4256
0.00758578	83.6668
0.00762957	83.9086
0.00767361	84.1511
0.00771792	84.3943
0.00776247	84.6383
0.00780728	84.8829
0.00785236	85.1282
0.00789769	85.3743
0.00794328	85.621
0.00798914	85.8685
0.00803526	86.1167
0.00808165	86.3655
0.00812831	86.6151
0.00817523	86.8655
0.00822243	87.1165
0.0082699	87.3683
0.00831764	87.6208
0.00836566	87.874
0.00841395	88.128
0.00846253	88.3827
0.00851138	88.6381
0.00856052	88.8942
0.00860994	89.1511
0.00865964	89.4088
0.00870964	89.6671
0.00875992	89.9263
0.00881049	90.1861
0.00886135	90.4468
0.00891251	90.7081
0.00896396	90.9703
0.00901571	91.2331
0.00906776	91.4968
0.00912011	91.7612
0.00917276	92.0263
0.00922571	92.2922
0.00927897	92.5589
0.00933254	93.0584
0.00938642	93.3266
0.00944061	93.5956
0.00949511	93.8654
0.00954993	94.1359
0.00960506	94.4073
0.00966051	94.6794
0.00971628	94.9523
0.00977237	95.226
0.00982879	95.5005
0.00988553	95.7757
0.0099426	96.0518
0.01	96.3286
0.0100577	96.6063
0.0101158	96.8848
0.0101742	97.164
0.0102329	97.4441
0.010292	97.725
0.0103514	98.0066
0.0104112	98.2891
0.0104713	98.5724
0.0105317	98.8566
0.0105925	99.1415
0.0106537	99.4273
0.0107152	99.7138
0.0107771	100.001
0.0108393	100.289
0.0109018	100.579
0.0109648	100.868
0.0110281	101.159
0.0110917	101.451
0.0111558	101.743
0.0112202	102.036
0.011285	102.331
0.0113501	102.626
0.0114156	102.921
0.0114815	103.218
0.0115478	103.516
0.0116145	103.814
0.0116815	104.113
0.011749	104.413
0.0118168	104.714
0.011885	105.016
0.0119536	105.319
0.0120226	105.622
0.0120921	105.927
0.0121619	106.232
0.0122321	106.538
0.0123027	106.845
0.0123737	107.153
0.0124451	107.462
0.012517	107.772
0.0125893	108.083
0.0126619	108.394
0.012735	108.706
0.0128086	109.02
0.0128825	109.334
0.0129569	109.649
0.0130317	109.965
0.0131069	110.282
0.0131826	110.6
0.0132587	110.919
0.0133352	111.239
0.0134122	111.559
0.0134896	111.881
0.0135675	112.203
0.0136458	112.527
0.0137246	112.851
0.0138038	113.176
0.0138835	113.503
0.0139637	113.83
0.0140443	114.158
0.0141254	114.487
0.0142069	114.817
0.0142889	115.148
0.0143714	115.48
0.0144544	115.813
0.0145378	116.146
0.0146218	116.481
0.0147062	116.817
0.0147911	117.154
0.0148765	117.491
0.0149624	117.83
0.0150487	118.17
0.0151356	118.51
0.015223	118.852
0.0153109	119.194
0.0153993	119.538
0.0154882	119.882
0.0155776	120.228
0.0156675	120.574
0.015758	120.922
0.0158489	121.271
0.0159404	121.62
0.0160325	121.971
0.016125	122.322
0.0162181	122.675
0.0163117	123.028
0.0164059	123.383
0.0165006	123.739
0.0165959	124.095
0.0166917	124.453
0.016788	124.812
0.016885	125.172
0.0169824	125.532
0.0170805	125.894
0.0171791	126.257
0.0172783	126.621
0.017378	126.986
0.0174783	127.352
0.0175792	127.719
0.0176807	128.087
0.0177828	128.456
0.0178855	128.827
0.0179887	129.198
0.0180926	129.57
0.018197	129.944
0.0183021	130.318
0.0184077	130.694
0.018514	131.071
0.0186209	131.448
0.0187284	131.827
0.0188365	132.207
0.0189452	132.588
0.0190546	132.971
0.0191646	133.354
0.0192752	133.738
0.0193865	134.124
0.0194984	134.51
0.019611	134.898
0.0197242	135.287
0.0198381	135.677
0.0199526	136.068
0.0200678	136.46
0.0201837	136.853
0.0203002	137.248
0.0204174	137.643
0.0205353	138.04
0.0206538	138.438
0.020773	138.837
0.020893	139.237
0.0210136	139.639
0.0211349	140.041
0.0212569	140.445
0.0213796	140.85
0.021503	141.256
0.0216272	141.663
0.021752	142.071
0.0218776	142.481
0.0220039	142.891
0.0221309	143.303
0.0222587	143.716
0.0223872	144.13
0.0225165	144.546
0.0226464	144.962
0.0227772	145.38
0.0229087	145.799
0.0230409	146.22
0.0231739	146.641
0.0233077	147.064
0.0234423	147.488
0.0235776	147.913
0.0237137	148.339
0.0238506	148.767
0.0239883	149.195
0.0241268	149.625
0.0242661	150.057
0.0244062	150.489
0.0245471	150.923
0.0246888	151.358
0.0248313	151.794
0.0249747	152.232
0.0251189	152.671
0.0252639	153.111
0.0254097	153.552
0.0255564	153.995
0.025704	154.438
0.0258523	154.884
0.0260016	155.33
0.0261517	155.778
0.0263027	156.227
0.0264545	156.677
0.0266073	157.129
0.0267609	157.582
0.0269153	158.036
0.0270707	158.491
0.027227	158.948
0.0273842	159.406
0.0275423	159.866
0.0277013	160.327
0.0278612	160.789
0.0280221	161.252
0.0281838	161.717
0.0283465	162.183
0.0285102	162.651
0.0286748	163.119
0.0288403	163.59
0.0290068	164.061
0.0291743	164.534
0.0293427	165.008
0.0295121	165.484
0.0296825	165.961
0.0298538	166.439
0.0300262	166.919
0.0301995	167.4
0.0303739	167.883
0.0305492	168.366
0.0307256	168.852
0.030903	169.338
0.0310814	169.827
0.0312608	170.316
0.0314413	170.807
0.0316228	171.299
0.0318053	171.793
0.031989	172.288
0.0321736	172.785
0.0323594	173.283
0.0325462	173.782
0.0327341	174.283
0.032923	174.786
0.0331131	175.289
0.0333043	175.795
0.0334965	176.301
0.0336899	176.809
0.0338844	177.319
0.03408	177.83
0.0342768	178.343
0.0344747	178.857
0.0346737	179.372
0.0348739	179.889
0.0350752	180.408
0.0352777	180.928
0.0354813	181.449
0.0356862	181.972
0.0358922	182.497
0.0360994	183.023
0.0363078	183.55
0.0365174	184.08
0.0367282	184.61
0.0369403	185.142
0.0371535	185.676
0.037368	186.211
0.0375837	186.748
0.0378007	187.286
0.0380189	187.826
0.0382384	188.367
0.0384592	188.91
0.0386812	189.455
0.0389045	190.001
0.0391291	190.548
0.039355	191.098
0.0395822	191.649
0.0398107	192.201
0.0400405	192.755
0.0402717	193.311
0.0405042	193.868
0.040738	194.427
0.0409732	194.987
0.0412098	195.549
0.0414477	196.113
0.0416869	196.678
0.0419276	197.245
0.0421697	197.813
0.0424131	198.383
0.042658	198.955
0.0429042	199.529
0.0431519	200.104
0.043401	200.681
0.0436516	201.259
0.0439036	201.839
0.044157	202.421
0.044412	203.004
0.0446684	203.59
0.0449262	204.176
0.0451856	204.765
0.0454465	205.355
0.0457088	205.947
0.0459727	206.541
0.0462381	207.136
0.046505	207.733
0.0467735	208.332
0.0470435	208.932
0.0473151	209.534
0.0475883	210.138
0.047863	210.744
0.0481393	211.352
0.0484172	211.961
0.0486968	212.572
0.0489779	213.184
0.0492606	213.799
0.049545	214.415
0.049831	215.033
0.0501187	215.653
0.0504081	216.275
0.0506991	216.898
0.0509918	217.523
0.0512861	218.15
0.0515822	218.779
0.05188	219.41
0.0521795	220.042
0.0524807	220.676
0.0527837	221.312
0.0530884	221.95
0.0533949	222.59
0.0537032	223.231
0.0540132	223.875
0.054325	224.52
0.0546387	225.167
0.0549541	225.816
0.0552713	226.467
0.0555904	227.12
0.0559114	227.775
0.0562341	228.431
0.0565588	229.09
0.0568853	229.75
0.0572137	230.412
0.057544	231.076
0.0578762	231.742
0.0582103	232.41
0.0585464	233.08
0.0588844	233.752
0.0592243	234.426
0.0595662	235.102
0.0599101	235.779
0.060256	236.459
0.0606038	237.14
0.0609537	237.824
0.0613056	238.509
0.0616595	239.197
0.0620155	239.886
0.0623735	240.578
0.0627336	241.271
0.0630957	241.967
0.06346	242.664
0.0638263	243.364
0.0641948	244.065
0.0645654	244.768
0.0649382	245.474
0.0653131	246.182
0.0656901	246.891
0.0660693	247.603
0.0664508	248.316
0.0668344	249.032
0.0672202	249.75
0.0676083	250.47
0.0679986	251.192
0.0683912	251.916
0.068786	252.642
0.0691831	253.37
0.0695825	254.1
0.0699842	254.833
0.0703882	255.567
0.0707946	256.304
0.0712033	257.043
0.0716143	257.784
0.0720278	258.527
0.0724436	259.272
0.0728618	260.019
0.0732825	260.769
0.0737055	261.52
0.074131	262.274
0.074559	263.03
0.0749894	263.788
0.0754223	264.549
0.0758578	265.311
0.0762957	266.076
0.0767361	266.843
0.0771792	267.612
0.0776247	268.383
0.0780728	269.157
0.0785236	269.933
0.0789769	270.711
0.0794328	271.491
0.0798914	272.274
0.0803526	273.058
0.0808165	273.845
0.0812831	274.635
0.0817523	275.426
0.0822243	276.22
0.082699	277.016
0.0831764	277.815
0.0836566	278.616
0.0841395	279.419
0.0846253	280.224
0.0851138	281.032
0.0856052	281.842
0.0860994	282.654
0.0865964	283.469
0.0870964	284.286
0.0875992	285.105
0.0881049	285.927
0.0886135	286.751
0.0891251	287.578
0.0896396	288.407
0.0901571	289.238
0.0906776	290.072
0.0912011	290.908
0.0917276	291.746
0.0922571	292.587
0.0927897	293.431
0.0933254	294.276
0.0938642	295.125
0.0944061	295.975
0.0949511	296.828
0.0954993	297.684
0.0960506	298.542
0.0966051	299.403
0.0971628	300.266
0.0977237	301.131
0.0982879	301.999
0.0988553	302.869
0.099426	303.742
0.1	304.618
0.100577	305.496
0.101158	306.377
0.101742	307.26
0.102329	308.145
0.10292	309.033
0.103514	309.924
0.104112	310.817
0.104713	311.713
0.105317	312.612
0.105925	313.513
0.106537	314.417
0.107152	315.323
0.107771	316.232
0.108393	317.143
0.109018	318.057
0.109648	318.974
0.110281	319.894
0.110917	320.816
0.111558	321.74
0.112202	322.668
0.11285	323.598
0.113501	324.53
0.114156	325.466
0.114815	326.404
0.115478	327.345
0.116145	328.288
0.116815	329.235
0.11749	330.184
0.118168	331.135
0.11885	332.09
0.119536	333.047
0.120226	334.007
0.120921	334.97
0.121619	335.935
0.122321	336.903
0.123027	337.875
0.123737	338.848
0.124451	339.825
0.12517	340.805
0.125893	341.787
0.126619	342.772
0.12735	343.76
0.128086	344.751
0.128825	345.745
0.129569	346.741
0.130317	347.741
0.131069	348.743
0.131826	349.748
0.132587	350.756
0.133352	351.767
0.134122	352.781
0.134896	353.798
0.135675	354.818
0.136458	355.841
0.137246	356.866
0.138038	357.895
0.138835	358.926
0.139637	359.961
0.140443	360.999
0.141254	362.039
0.142069	363.083
0.142889	364.129
0.143714	365.179
0.144544	366.231
0.145378	367.287
0.146218	368.346
0.147062	369.407
0.147911	370.472
0.148765	371.54
0.149624	372.611
0.150487	373.685
0.151356	374.762
0.15223	375.842
0.153109	376.925
0.153993	378.012
0.154882	379.101
0.155776	380.194
0.156675	381.29
0.15758	382.389
0.158489	383.491
0.159404	384.597
0.160325	385.705
0.16125	386.817
0.162181	387.932
0.163117	389.05
0.164059	390.171
0.165006	391.296
0.165959	392.424
0.166917	393.555
0.16788	394.689
0.16885	395.827
0.169824	396.968
0.170805	398.112
0.171791	399.26
0.172783	400.411
0.17378	401.565
0.174783	402.722
0.175792	403.883
0.176807	405.047
0.177828	406.215
0.178855	407.385
0.179887	408.56
0.180926	409.737
0.18197	410.918
0.183021	412.103
0.184077	413.291
0.18514	414.482
0.186209	415.676
0.187284	416.875
0.188365	418.076
0.189452	419.281
0.190546	420.49
0.191646	421.702
0.192752	422.917
0.193865	424.136
0.194984	425.359
0.19611	426.585
0.197242	427.814
0.198381	429.048
0.199526	430.284
0.200678	431.525
0.201837	432.768
0.203002	434.016
0.204174	435.267
0.205353	436.521
0.206538	437.78
0.20773	439.041
0.20893	440.307
0.210136	441.576
0.211349	442.849
0.212569	444.125
0.213796	445.405
0.21503	446.689
0.216272	447.977
0.21752	449.268
0.218776	450.563
0.220039	451.862
0.221309	453.164
0.222587	454.47
0.223872	455.78
0.225165	457.094
0.226464	458.411
0.227772	459.733
0.229087	461.058
0.230409	462.387
0.231739	463.72
0.233077	465.056
0.234423	466.397
0.235776	467.741
0.237137	469.089
0.238506	470.441
0.239883	471.797
0.241268	473.157
0.242661	474.521
0.244062	475.889
0.245471	477.26
0.246888	478.636
0.248313	480.016
0.249747	481.399
0.251189	482.787
0.252639	484.178
0.254097	485.574
0.255564	486.974
0.25704	488.377
0.258523	489.785
0.260016	491.197
0.261517	492.613
0.263027	494.032
0.264545	495.456
0.266073	496.885
0.267609	498.317
0.269153	499.753
0.270707	501.194
0.27227	502.638
0.273842	504.087
0.275423	505.601
0.277013	507.291
0.278612	508.992
0.280221	510.702
0.281838	512.422
0.283465	514.153
0.285102	515.893
0.286748	517.643
0.288403	519.404
0.290068	521.174
0.291743	522.954
0.293427	524.744
0.295121	526.545
0.296825	528.355
0.298538	530.175
0.300262	532.004
0.301995	533.844
0.303739	535.693
0.305492	537.552
0.307256	539.421
0.30903	541.3
0.310814	543.188
0.312608	545.086
0.314413	546.993
0.316228	548.91
0.318053	550.837
0.31989	552.772
0.321736	554.717
0.323594	556.672
0.325462	558.635
0.327341	560.608
0.32923	562.59
0.331131	564.49
0.333043	566.338
0.334965	568.193
0.336899	570.056
0.338844	571.927
0.3408	573.805
0.342768	575.691
0.344747	577.585
0.346737	579.486
0.348739	581.394
0.350752	583.309
0.352777	585.231
0.354813	587.16
0.356862	589.095
0.358922	591.037
0.360994	592.986
0.363078	594.941
0.365174	596.901
0.367282	598.868
0.369403	600.841
0.371535	602.819
0.37368	604.802
0.375837	606.791
0.378007	608.784
0.380189	610.783
0.382384	612.786
0.384592	614.793
0.386812	616.805
0.389045	618.821
0.391291	620.84
0.39355	622.863
0.395822	624.889
0.398107	626.918
0.400405	628.949
0.402717	630.983
0.405042	633.019
0.40738	635.057
0.409732	637.097
0.412098	639.138
0.414477	641.179
0.416869	643.222
0.419276	645.264
0.421697	647.307
0.424131	649.349
0.42658	651.39
0.429042	653.431
0.431519	655.469
0.43401	657.506
0.436516	659.541
0.439036	661.572
0.44157	663.576
0.44412	665.56
0.446684	667.54
0.449262	669.517
0.451856	671.49
0.454465	673.459
0.457088	675.424
0.459727	677.384
0.462381	679.341
0.46505	681.293
0.467735	683.241
0.470435	685.184
0.473151	687.123
0.475883	689.058
0.47863	690.987
0.481393	692.912
0.484172	694.832
0.486968	696.747
0.489779	698.657
0.492606	700.563
0.49545	702.463
0.49831	704.358
0.501187	706.247
0.504081	708.132
0.506991	710.011
0.509918	711.885
0.512861	713.753
0.515822	715.616
0.5188	717.473
0.521795	719.325
0.524807	721.171
0.527837	723.011
0.530884	724.846
0.533949	726.675
0.537032	728.498
0.540132	730.315
0.54325	732.127
0.546387	733.932
0.549541	735.732
0.552713	737.524
0.555904	739.309
0.559114	741.088
0.562341	742.862
0.565588	744.629
0.568853	746.389
0.572137	748.144
0.57544	749.892
0.578762	751.634
0.582103	753.369
0.585464	755.098
0.588844	756.82
0.592243	758.535
0.595662	760.244
0.599101	761.946
0.60256	763.641
0.606038	765.33
0.609537	767.011
0.613056	768.686
0.616595	770.354
0.620155	772.015
0.623735	773.669
0.627336	775.316
0.630957	776.956
0.6346	778.589
0.638263	780.215
0.641948	781.834
0.645654	783.446
0.649382	785.051
0.653131	786.65
0.656901	788.241
0.660693	789.825
0.664508	791.402
0.668344	792.972
0.672202	794.536
0.676083	796.092
0.679986	797.641
0.683912	799.183
0.68786	800.718
0.691831	802.246
0.695825	803.767
0.699842	805.281
0.703882	806.787
0.707946	808.287
0.712033	809.779
0.716143	811.264
0.720278	812.743
0.724436	814.214
0.728618	815.678
0.732825	817.135
0.737055	818.585
0.74131	820.028
0.74559	821.465
0.749894	822.894
0.754223	824.317
0.758578	825.733
0.762957	827.142
0.767361	828.545
0.771792	829.941
0.776247	831.331
0.780728	832.715
0.785236	834.092
0.789769	835.462
0.794328	836.826
0.798914	838.183
0.803526	839.534
0.808165	840.878
0.812831	842.216
0.817523	843.547
0.822243	844.871
0.82699	846.189
0.831764	847.501
0.836566	848.805
0.841395	850.103
0.846253	851.395
0.851138	852.68
0.856052	853.959
0.860994	855.231
0.865964	856.496
0.870964	857.756
0.875992	859.009
0.881049	860.256
0.886135	861.496
0.891251	862.73
0.896396	863.958
0.901571	865.18
0.906776	866.396
0.912011	867.605
0.917276	868.807
0.922571	870.003
0.927897	871.193
0.933254	872.377
0.938642	873.554
0.944061	874.724
0.949511	875.888
0.954993	877.046
0.960506	878.197
0.966051	879.342
0.971628	880.48
0.977237	881.612
0.982879	882.738
0.988553	883.857
0.99426	884.97
1	886.076
1.00577	887.177
1.01158	888.271
1.01742	889.359
1.02329	890.44
1.0292	891.516
1.03514	892.585
1.04112	893.648
1.04713	894.706
1.05317	895.757
1.05925	896.802
1.06537	897.841
1.07152	898.874
1.07771	899.902
1.08393	900.924
1.09018	901.94
1.09648	902.951
1.10281	903.958
1.10917	904.96
1.11558	905.957
1.12202	906.948
1.1285	907.934
1.13501	908.914
1.14156	909.889
1.14815	910.857
1.15478	911.82
1.16145	912.777
1.16815	913.728
1.1749	914.673
1.18168	915.612
1.1885	916.545
1.19536	917.471
1.20226	918.392
1.20921	919.306
1.21619	920.214
1.22321	921.115
1.23027	922.01
1.23737	922.898
1.24451	923.78
1.2517	924.656
1.25893	925.525
1.26619	926.387
1.2735	927.243
1.28086	928.092
1.28825	928.934
1.29569	929.77
1.30317	930.598
1.31069	931.421
1.31826	932.236
1.32587	933.044
1.33352	933.846
1.34122	934.641
1.34896	935.429
1.35675	936.21
1.36458	936.985
1.37246	937.752
1.38038	938.513
1.38835	939.267
1.39637	940.014
1.40443	940.755
1.41254	941.488
1.42069	942.216
1.42889	942.936
1.43714	943.65
1.44544	944.357
1.45378	945.058
1.46218	945.752
1.47062	946.439
1.47911	947.121
1.48765	947.796
1.49624	948.465
1.50487	949.127
1.51356	949.784
1.5223	950.435
1.53109	951.08
1.53993	951.719
1.54882	952.352
1.55776	952.98
1.56675	953.602
1.5758	954.22
1.58489	954.832
1.59404	955.439
1.60325	956.041
1.6125	956.638
1.62181	957.231
1.63117	957.82
1.64059	958.404
1.65006	958.984
1.65959	959.535
1.66917	960.083
1.6788	960.626
1.6885	961.164
1.69824	961.699
1.70805	962.23
1.71791	962.756
1.72783	963.278
1.7378	963.796
1.74783	964.309
1.75792	964.817
1.76807	965.321
1.77828	965.821
1.78855	966.315
1.79887	966.805
1.80926	967.291
1.8197	967.771
1.83021	968.246
1.84077	968.717
1.8514	969.182
1.86209	969.642
1.87284	970.097
1.88365	970.547
1.89452	970.992
1.90546	971.431
1.91646	971.865
1.92752	972.294
1.93865	972.717
1.94984	973.135
1.9611	973.547
1.97242	973.953
1.98381	974.354
1.99526	974.749
2.00678	975.138
2.01837	975.521
2.03002	975.899
2.04174	976.27
2.05353	976.636
2.06538	976.995
2.0773	977.349
2.0893	977.696
2.10136	978.038
2.11349	978.373
2.12569	978.702
2.13796	979.024
2.1503	979.341
2.16272	979.651
2.1752	979.955
2.18776	980.252
2.20039	980.543
2.21309	980.832
2.22587	981.115
2.23872	981.391
2.25165	981.66
2.26464	981.923
2.27772	982.179
2.29087	982.429
2.30409	982.672
2.31739	982.908
2.33077	983.138
2.34423	983.361
2.35776	983.577
2.37137	983.787
2.38506	983.99
2.39883	984.186
2.41268	984.375
2.42661	984.557
2.44062	984.733
2.45471	984.902
2.46888	985.064
2.48313	985.219
2.49747	985.368
2.51189	985.509
2.52639	985.644
2.54097	985.772
2.55564	985.894
2.5704	986.008
2.58523	986.116
2.60016	986.217
2.61517	986.312
2.63027	986.4
2.64545	986.481
2.66073	986.556
2.67609	986.624
2.69153	986.686
2.70707	986.741
2.7227	986.79
2.73842	986.833
2.75423	986.869
2.77013	986.9
2.78612	986.924
2.80221	986.942
2.81838	986.953
2.83465	986.959
2.85102	986.957
2.86748	986.95
2.88403	986.936
2.90068	986.915
2.91743	986.887
2.93427	986.853
2.95121	986.813
2.96825	986.765
2.98538	986.711
3.00262	986.65
3.01995	986.582
3.03739	986.507
3.05492	986.425
3.07256	986.337
3.0903	986.241
3.10814	986.138
3.12608	986.029
3.14413	985.912
3.16228	985.788
3.18053	985.657
3.1989	985.519
3.21736	985.373
3.23594	985.221
3.25462	985.061
3.27341	984.894
3.2923	984.719
3.31131	984.539
3.33043	984.351
3.34965	984.156
3.36899	983.954
3.38844	983.744
3.408	983.526
3.42768	983.302
3.44747	983.069
3.46737	982.83
3.48739	982.582
3.50752	982.327
3.52777	982.064
3.54813	981.793
3.56862	981.515
3.58922	981.229
3.60994	980.935
3.63078	980.633
3.65174	980.323
3.67282	980.005
3.69403	979.679
3.71535	979.346
3.7368	979.004
3.75837	978.654
3.78007	978.297
3.80189	977.931
3.82384	977.557
3.84592	977.175
3.86812	976.785
3.89045	976.387
3.91291	975.981
3.9355	975.567
3.95822	975.145
3.98107	974.714
4.00405	974.276
4.02717	973.829
4.05042	973.375
4.0738	972.912
4.09732	972.441
4.12098	971.963
4.14477	971.476
4.16869	970.981
4.19276	970.479
4.21697	969.968
4.24131	969.45
4.2658	968.924
4.29042	968.39
4.31519	967.848
4.3401	967.298
4.36516	966.741
4.39036	966.176
4.4157	965.602
4.4412	965.018
4.46684	964.426
4.49262	963.827
4.51856	963.22
4.54465	962.606
4.57088	961.983
4.59727	961.353
4.62381	960.716
4.6505	960.07
4.67735	959.417
4.70435	958.756
4.73151	958.087
4.75883	957.41
4.7863	956.725
4.81393	956.033
4.84172	955.332
4.86968	954.624
4.89779	953.907
4.92606	953.183
4.9545	952.45
4.9831	951.71
5.01187	950.962
5.04081	950.205
5.06991	949.441
5.09918	948.668
5.12861	947.888
5.15822	947.099
5.188	946.303
5.21795	945.499
5.24807	944.686
5.27837	943.866
5.30884	943.037
5.33949	942.201
5.37032	941.357
5.40132	940.505
5.4325	939.645
5.46387	938.777
5.49541	937.902
5.52713	937.019
5.55904	936.129
5.59114	935.231
5.62341	934.325
5.65588	933.411
5.68853	932.49
5.72137	931.561
5.7544	930.624
5.78762	929.679
5.82103	928.726
5.85464	927.766
5.88844	926.798
5.92243	925.822
5.95662	924.839
5.99101	923.848
6.0256	922.849
6.06038	921.843
6.09537	920.829
6.13056	919.807
6.16595	918.778
6.20155	917.741
6.23735	916.697
6.27336	915.646
6.30957	914.587
6.346	913.52
6.38263	912.447
6.41948	911.366
6.45654	910.278
6.49382	909.183
6.53131	908.08
6.56901	906.971
6.60693	905.855
6.64508	904.732
6.68344	903.602
6.72202	902.465
6.76083	901.321
6.79986	900.171
6.83912	899.014
6.8786	897.85
6.91831	896.679
6.95825	895.501
6.99842	894.317
7.03882	893.126
7.07946	891.928
7.12033	890.724
7.16143	889.513
7.20278	888.296
7.24436	887.072
7.28618	885.841
7.32825	884.604
7.37055	883.36
7.4131	882.111
7.4559	880.854
7.49894	879.592
7.54223	878.323
7.58578	877.048
7.62957	875.767
7.67361	874.48
7.71792	873.187
7.76247	871.888
7.80728	870.583
7.85236	869.272
7.89769	867.956
7.94328	866.633
7.98914	865.305
8.03526	863.971
8.08165	862.631
8.12831	861.285
8.17523	859.934
8.22243	858.577
8.2699	857.214
8.31764	855.846
8.36566	854.473
8.41395	853.094
8.46253	851.709
8.51138	850.319
8.56052	848.924
8.60994	847.524
8.65964	846.118
8.70964	844.707
8.75992	843.292
8.81049	841.871
8.86135	840.445
8.91251	839.014
8.96396	837.579
9.01571	836.138
9.06776	834.693
9.12011	833.243
9.17276	831.788
9.22571	830.328
9.27897	828.864
9.33254	827.395
9.38642	825.921
9.44061	824.443
9.49511	822.96
9.54993	821.473
9.60506	819.981
9.66051	818.485
9.71628	816.984
9.77237	815.48
9.82879	813.97
9.88553	812.457
9.9426	810.94
10	809.418
10.0577	807.892
10.1158	806.362
10.1742	804.829
10.2329	803.291
10.292	801.749
10.3514	800.204
10.4112	798.655
10.4713	797.102
10.5317	795.546
10.5925	793.986
10.6537	792.422
10.7152	790.855
10.7771	789.285
10.8393	787.711
10.9018	786.134
10.9648	784.553
11.0281	782.97
11.0917	781.382
11.1558	779.792
11.2202	778.198
11.285	776.602
11.3501	775.002
11.4156	773.4
11.4815	771.795
11.5478	770.187
11.6145	768.576
11.6815	766.962
11.749	765.345
11.8168	763.726
11.885	762.104
11.9536	760.479
12.0226	758.851
12.0921	757.221
12.1619	755.588
12.2321	753.953
12.3027	752.315
12.3737	750.674
12.4451	749.031
12.517	747.386
12.5893	745.738
12.6619	744.088
12.735	742.435
12.8086	740.78
12.8825	739.122
12.9569	737.463
13.0317	735.801
13.1069	734.137
13.1826	732.47
13.2587	730.802
13.3352	729.131
13.4122	727.458
13.4896	725.784
13.5675	724.107
13.6458	722.428
13.7246	720.747
13.8038	719.064
13.8835	717.379
13.9637	715.692
14.0443	714.004
14.1254	712.313
14.2069	710.621
14.2889	708.927
14.3714	707.231
14.4544	705.533
14.5378	703.834
14.6218	702.133
14.7062	700.43
14.7911	698.726
14.8765	697.02
14.9624	695.313
15.0487	693.603
15.1356	691.893
15.223	690.181
15.3109	688.467
15.3993	686.752
15.4882	685.035
15.5776	683.317
15.6675	681.598
15.758	679.877
15.8489	678.155
15.9404	676.431
16.0325	674.706
16.125	672.98
16.2181	671.252
16.3117	669.523
16.4059	667.793
16.5006	666.061
16.5959	664.344
16.6917	662.626
16.788	660.907
16.885	659.186
16.9824	657.465
17.0805	655.743
17.1791	654.02
17.2783	652.295
17.378	650.571
17.4783	648.845
17.5792	647.119
17.6807	645.392
17.7828	643.664
17.8855	641.936
17.9887	640.208
18.0926	638.479
18.197	636.749
18.3021	635.019
18.4077	633.289
18.514	631.559
18.6209	629.829
18.7284	628.098
18.8365	626.367
18.9452	624.637
19.0546	622.906
19.1646	621.175
19.2752	619.445
19.3865	617.714
19.4984	615.984
19.611	614.254
19.7242	612.525
19.8381	610.795
19.9526	609.066
20.0678	607.338
20.1837	605.61
20.3002	603.883
20.4174	602.156
20.5353	600.429
20.6538	598.704
20.773	596.979
20.893	595.255
21.0136	593.531
21.1349	591.808
21.2569	590.087
21.3796	588.366
21.503	586.646
21.6272	584.927
21.752	583.209
21.8776	581.492
22.0039	579.776
22.1309	578.056
22.2587	576.336
22.3872	574.619
22.5165	572.902
22.6464	571.186
22.7772	569.472
22.9087	567.759
23.0409	566.048
23.1739	564.337
23.3077	562.628
23.4423	560.921
23.5776	559.215
23.7137	557.51
23.8506	555.808
23.9883	554.106
24.1268	552.406
24.2661	550.708
24.4062	549.011
24.5471	547.316
24.6888	545.623
24.8313	543.931
24.9747	542.241
25.1189	540.553
25.2639	538.866
25.4097	537.181
25.5564	535.498
25.704	533.817
25.8523	532.137
26.0016	530.459
26.1517	528.783
26.3027	527.108
26.4545	525.435
26.6073	523.764
26.7609	522.094
26.9153	520.426
27.0707	518.76
27.227	517.095
27.3842	515.432
27.5423	513.77
27.7013	512.109
27.8612	510.45
28.0221	508.793
28.1838	507.137
28.3465	505.483
28.5102	503.831
28.6748	502.18
28.8403	500.531
29.0068	498.884
29.1743	497.239
29.3427	495.596
29.5121	493.955
29.6825	492.316
29.8538	490.679
30.0262	489.044
30.1995	487.412
30.3739	485.781
30.5492	484.153
30.7256	482.527
30.903	480.903
31.0814	479.281
31.2608	477.662
31.4413	476.044
31.6228	474.43
31.8053	472.817
31.989	471.207
32.1736	469.6
32.3594	467.994
32.5462	466.392
32.7341	464.791
32.923	463.193
33.1131	461.596
33.3043	460.001
33.4965	458.408
33.6899	456.817
33.8844	455.229
34.08	453.644
34.2768	452.062
34.4747	450.482
34.6737	448.905
34.8739	447.33
35.0752	445.759
35.2777	444.19
35.4813	442.624
35.6862	441.062
35.8922	439.502
36.0994	437.945
36.3078	436.392
36.5174	434.841
36.7282	433.293
36.9403	431.749
37.1535	430.208
37.368	428.67
37.5837	427.135
37.8007	425.603
38.0189	424.075
38.2384	422.55
38.4592	421.028
38.6812	419.509
38.9045	417.994
39.1291	416.482
39.355	414.973
39.5822	413.468
39.8107	411.965
40.0405	410.466
40.2717	408.971
40.5042	407.478
40.738	405.989
40.9732	404.502
41.2098	403.019
41.4477	401.539
41.6869	400.062
41.9276	398.589
42.1697	397.118
42.4131	395.65
42.658	394.185
42.9042	392.723
43.1519	391.263
43.401	389.807
43.6516	388.352
43.9036	386.901
44.157	385.457
44.412	384.019
44.6684	382.583
44.9262	381.15
45.1856	379.719
45.4465	378.292
45.7088	376.867
45.9727	375.445
46.2381	374.026
46.505	372.609
46.7735	371.196
47.0435	369.786
47.3151	368.379
47.5883	366.975
47.863	365.574
48.1393	364.176
48.4172	362.782
48.6968	361.391
48.9779	360.003
49.2606	358.619
49.545	357.238
49.831	355.861
50.1187	354.487
50.4081	353.116
50.6991	351.749
50.9918	350.386
51.2861	349.026
51.5822	347.67
51.88	346.317
52.1795	344.968
52.4807	343.623
52.7837	342.281
53.0884	340.944
53.3949	339.609
53.7032	338.279
54.0132	336.952
54.325	335.629
54.6387	334.31
54.9541	332.994
55.2713	331.68
55.5904	330.37
55.9114	329.063
56.2341	327.76
56.5588	326.461
56.8853	325.166
57.2137	323.874
57.544	322.586
57.8762	321.303
58.2103	320.023
58.5464	318.747
58.8844	317.475
59.2243	316.207
59.5662	314.943
59.9101	313.682
60.256	312.426
60.6038	311.174
60.9537	309.925
61.3056	308.681
61.6595	307.441
62.0155	306.204
62.3735	304.971
62.7336	303.742
63.0957	302.517
63.46	301.296
63.8263	300.078
64.1948	298.865
64.5654	297.655
64.9382	296.448
65.3131	295.245
65.6901	294.046
66.0693	292.85
66.4508	291.658
66.8344	290.469
67.2202	289.283
67.6083	288.101
67.9986	286.923
68.3912	285.748
68.786	284.577
69.1831	283.409
69.5825	282.246
69.9842	281.085
70.3882	279.929
70.7946	278.776
71.2033	277.627
71.6143	276.481
72.0278	275.34
72.4436	274.202
72.8618	273.068
73.2825	271.937
73.7055	270.81
74.131	269.687
74.559	268.568
74.9894	267.453
75.4223	266.341
75.8578	265.233
76.2957	264.129
76.7361	263.028
77.1792	261.931
77.6247	260.837
78.0728	259.747
78.5236	258.661
78.9769	257.578
79.4328	256.5
79.8914	255.424
80.3526	254.353
80.8165	253.285
81.2831	252.221
81.7523	251.161
82.2243	250.104
82.699	249.051
83.1764	248.002
83.6566	246.957
84.1395	245.915
84.6253	244.877
85.1138	243.842
85.6052	242.812
86.0994	241.784
86.5964	240.761
87.0964	239.741
87.5992	238.725
88.1049	237.712
88.6135	236.702
89.1251	235.696
89.6396	234.694
90.1571	233.695
90.6776	232.7
91.2011	231.708
91.7276	230.72
92.2571	229.735
92.7897	228.754
93.3254	227.777
93.8642	226.803
94.4061	225.833
94.9511	224.866
95.4993	223.904
96.0506	222.944
96.6051	221.989
97.1628	221.037
97.7237	220.088
98.2879	219.143
98.8553	218.202
99.426	217.264
100	216.33
100.577	215.399
101.158	214.472
101.742	213.548
102.329	212.628
102.92	211.711
103.514	210.797
104.112	209.887
104.713	208.981
105.317	208.077
105.925	207.177
106.537	206.28
107.152	205.386
107.771	204.495
108.393	203.607
109.018	202.722
109.648	201.841
110.281	200.961
110.917	200.083
111.558	199.208
112.202	198.336
112.85	197.466
113.501	196.6
114.156	195.737
114.815	194.877
115.478	194.02
116.145	193.166
116.815	192.315
117.49	191.467
118.168	190.623
118.85	189.782
119.536	188.944
120.226	188.11
120.921	187.279
121.619	186.451
122.321	185.627
123.027	184.806
123.737	183.988
124.451	183.174
125.17	182.364
125.893	181.557
126.619	180.754
127.35	179.954
128.086	179.158
128.825	178.366
129.569	177.577
130.317	176.791
131.069	176.01
131.826	175.232
132.587	174.457
133.352	173.687
134.122	172.919
134.896	172.156
135.675	171.396
136.458	170.64
137.246	169.887
138.038	169.138
138.835	168.393
139.637	167.651
140.443	166.913
141.254	166.178
142.069	165.447
142.889	164.72
143.714	163.995
144.544	163.275
145.378	162.557
146.218	161.843
147.062	161.132
147.911	160.425
148.765	159.72
149.624	159.019
150.487	158.321
151.356	157.626
152.23	156.934
153.109	156.244
153.993	155.558
154.882	154.874
155.776	154.193
156.675	153.514
157.58	152.838
158.489	152.164
159.404	151.492
160.325	150.823
161.25	150.155
162.181	149.489
163.117	148.825
164.059	148.163
165.006	147.502
165.959	146.861
166.917	146.221
167.88	145.582
168.85	144.945
169.824	144.31
170.805	143.676
171.791	143.044
172.783	142.414
173.78	141.785
174.783	141.158
175.792	140.532
176.807	139.909
177.828	139.287
178.855	138.667
179.887	138.049
180.926	137.433
181.97	136.819
183.021	136.207
184.077	135.597
185.14	134.989
186.209	134.383
187.284	133.779
188.365	133.177
189.452	132.577
190.546	131.98
191.646	131.385
192.752	130.792
193.865	130.201
194.984	129.612
196.11	129.026
197.242	128.442
198.381	127.861
199.526	127.282
200.678	126.705
201.837	126.131
203.002	125.559
204.174	124.989
205.353	124.422
206.538	123.858
207.73	123.296
208.93	122.737
210.136	122.18
211.349	121.625
212.569	121.074
213.796	120.524
215.03	119.978
216.272	119.434
217.52	118.892
218.776	118.353
220.039	117.817
221.309	117.28
222.587	116.746
223.872	116.215
225.165	115.686
226.464	115.16
227.772	114.636
229.087	114.115
230.409	113.597
231.739	113.081
233.077	112.568
234.423	112.057
235.776	111.55
237.137	111.045
238.506	110.542
239.883	110.042
241.268	109.545
242.661	109.05
244.062	108.558
245.471	108.069
246.888	107.582
248.313	107.097
249.747	106.615
251.189	106.136
252.639	105.659
254.097	105.184
255.564	104.712
257.04	104.242
258.523	103.775
260.016	103.31
261.517	102.847
263.027	102.386
264.545	101.927
266.073	101.471
267.609	101.016
269.153	100.564
270.707	100.113
272.27	99.6648
273.842	99.218
275.423	98.7728
277.013	98.3291
278.612	97.8872
280.221	97.447
281.838	97.0084
283.465	96.5716
285.102	96.1366
286.748	95.7033
288.403	95.2717
290.068	94.842
291.743	94.414
293.427	93.9878
295.121	93.5633
296.825	93.1407
298.538	92.7199
300.262	92.3009
301.995	91.8837
303.739	91.4683
305.492	91.0547
307.256	90.643
309.03	90.233
310.814	89.8249
312.608	89.4185
314.413	89.014
316.228	88.6113
318.053	88.2103
319.89	87.8111
321.736	87.4137
323.594	87.018
325.462	86.6241
327.341	86.2318
329.23	85.8413
331.131	85.452
333.043	85.0641
334.965	84.6778
336.899	84.2932
338.844	83.9104
340.8	83.5293
342.768	83.1499
344.747	82.7723
346.737	82.3965
348.739	82.0224
350.752	81.6502
352.777	81.2797
354.813	80.911
356.862	80.5441
358.922	80.179
360.994	79.8158
363.078	79.4543
365.174	79.0947
367.282	78.7369
369.403	78.3809
371.535	78.0267
373.68	77.6743
375.837	77.3238
378.007	76.975
380.189	76.6281
382.384	76.283
384.592	75.9396
386.812	75.5981
389.045	75.2583
391.291	74.9202
393.55	74.5839
395.822	74.2493
398.107	73.9165
400.405	73.5853
402.717	73.2558
405.042	72.9279
407.38	72.6017
409.732	72.277
412.098	71.954
414.477	71.6324
416.869	71.3124
419.276	70.9939
421.697	70.6768
424.131	70.3611
426.58	70.0468
429.042	69.7338
431.519	69.4221
434.01	69.1116
436.516	68.8023
439.036	68.4941
441.57	68.1886
444.12	67.8853
446.684	67.5831
449.262	67.2819
451.856	66.9819
454.465	66.683
457.088	66.3853
459.727	66.0887
462.381	65.7932
465.05	65.499
467.735	65.2059
470.435	64.9141
473.151	64.6234
475.883	64.334
478.63	64.0458
481.393	63.7588
484.172	63.4731
486.968	63.1886
489.779	62.9054
492.606	62.6234
495.45	62.3428
498.31	62.0634
501.187	61.7852
504.081	61.5084
506.991	61.2329
509.918	60.9586
512.861	60.6857
515.822	60.414
518.8	60.1436
521.795	59.8746
524.807	59.6068
527.837	59.3403
530.884	59.0751
533.949	58.8112
537.032	58.5486
540.132	58.2873
543.25	58.0272
546.387	57.7684
549.541	57.5109
552.713	57.254
555.904	56.9984
559.114	56.744
562.341	56.4908
565.588	56.2389
568.853	55.9883
572.137	55.7389
575.44	55.4908
578.762	55.2439
582.103	54.9983
585.464	54.7539
588.844	54.5108
592.243	54.269
595.662	54.0284
599.101	53.789
602.56	53.5509
606.038	53.3139
609.537	53.0783
613.056	52.8438
616.595	52.6105
620.155	52.3784
623.735	52.1475
627.336	51.9177
630.957	51.6891
634.6	51.4616
638.263	51.2352
641.948	51.01
645.654	50.7858
649.382	50.5626
653.131	50.3405
656.901	50.1194
660.693	49.8993
664.508	49.6801
668.344	49.4619
672.202	49.2446
676.083	49.0284
679.986	48.8131
683.912	48.5988
687.86	48.3855
691.831	48.1732
695.825	47.9618
699.842	47.7515
703.882	47.5422
707.946	47.3339
712.033	47.1265
716.143	46.9202
720.278	46.7149
724.436	46.5105
728.618	46.3072
732.825	46.1048
737.055	45.9034
741.31	45.7031
745.59	45.5036
749.894	45.3052
754.223	45.1077
758.578	44.9112
762.957	44.7156
767.361	44.521
771.792	44.3273
776.247	44.1345
780.728	43.9426
785.236	43.7517
789.769	43.5617
794.328	43.3726
798.914	43.1844
803.526	42.9972
808.165	42.8109
812.831	42.6255
817.523	42.441
822.243	42.2575
826.99	42.0749
831.764	41.8931
836.566	41.7123
841.395	41.5324
846.253	41.3534
851.138	41.1752
856.052	40.9979
860.994	40.8215
865.964	40.646
870.964	40.4713
875.992	40.2974
881.049	40.1244
886.135	39.9522
891.251	39.7808
896.396	39.6102
901.571	39.4404
906.776	39.2714
912.011	39.1033
917.276	38.936
922.571	38.7695
927.897	38.6039
933.254	38.439
938.642	38.275
944.061	38.1119
949.511	37.9495
954.993	37.788
960.506	37.6272
966.051	37.4673
971.628	37.3082
977.237	37.1499
982.879	36.9924
988.553	36.8357
994.26	36.6797
1000	36.5246
1005.77	36.3702
1011.58	36.2165
1017.42	36.0637
1023.29	35.9116
1029.2	35.7602
1035.14	35.6096
1041.12	35.4597
1047.13	35.3105
1053.17	35.1621
1059.25	35.0143
1065.37	34.8672
1071.52	34.7208
1077.71	34.5751
1083.93	34.43
1090.18	34.2856
1096.48	34.1417
1102.81	33.9983
1109.17	33.8554
1115.58	33.713
1122.02	33.5712
1128.5	33.43
1135.01	33.2895
1141.56	33.1495
1148.15	33.0103
1154.78	32.8716
1161.45	32.7336
1168.15	32.5962
1174.9	32.4595
1181.68	32.3235
1188.5	32.1881
1195.36	32.0534
1202.26	31.9194
1209.21	31.786
1216.19	31.6534
1223.21	31.5214
1230.27	31.3902
1237.37	31.2596
1244.51	31.1298
1251.7	31.0006
1258.93	30.8722
1266.19	30.7445
1273.5	30.6175
1280.86	30.4912
1288.25	30.3657
1295.69	30.2408
1303.17	30.1167
1310.69	29.9933
1318.26	29.8707
1325.87	29.7487
1333.52	29.6275
1341.22	29.507
1348.96	29.3873
1356.75	29.2682
1364.58	29.1499
1372.46	29.0323
1380.38	28.9154
1388.35	28.7992
1396.37	28.6838
1404.43	28.569
1412.54	28.4549
1420.69	28.3415
1428.89	28.2288
1437.14	28.1168
1445.44	28.0054
1453.78	27.8947
1462.18	27.7847
1470.62	27.6753
1479.11	27.5665
1487.65	27.4583
1496.24	27.3508
1504.87	27.2438
1513.56	27.1375
1522.3	27.0317
1531.09	26.9264
1539.93	26.8217
1548.82	26.7175
1557.76	26.6138
1566.75	26.5106
1575.8	26.4067
1584.89	26.2961
1594.04	26.1861
1603.25	26.0765
1612.5	25.9674
1621.81	25.8587
1631.17	25.7504
1640.59	25.6425
1650.06	25.535
1659.59	25.431
1669.17	25.3273
1678.8	25.224
1688.5	25.121
1698.24	25.0183
1708.05	24.9161
1717.91	24.8142
1727.83	24.7126
1737.8	24.6115
1747.83	24.5107
1757.92	24.4103
1768.07	24.3103
1778.28	24.2107
1788.55	24.1115
1798.87	24.0127
1809.26	23.9143
1819.7	23.8163
1830.21	23.7187
1840.77	23.6215
1851.4	23.5248
1862.09	23.4285
1872.84	23.3327
1883.65	23.2372
1894.52	23.1422
1905.46	23.0477
1916.46	22.9536
1927.52	22.86
1938.65	22.7668
1949.84	22.6741
1961.1	22.5819
1972.42	22.4901
1983.81	22.3988
1995.26	22.3079
2006.78	22.2176
2018.37	22.1277
2030.02	22.0383
2041.74	21.9494
2053.53	21.861
2065.38	21.7731
2077.3	21.6857
2089.3	21.5987
2101.36	21.5123
2113.49	21.4264
2125.69	21.341
2137.96	21.256
2150.3	21.1716
2162.72	21.0877
2175.2	21.0043
2187.76	20.9214
2200.39	20.839
2213.09	20.7567
2225.87	20.6748
2238.72	20.5935
2251.65	20.5126
2264.64	20.4323
2277.72	20.3525
2290.87	20.2732
2304.09	20.1944
2317.39	20.1161
2330.77	20.0383
2344.23	19.961
2357.76	19.8842
2371.37	19.8079
2385.06	19.7322
2398.83	19.6569
2412.68	19.5821
2426.61	19.5078
2440.62	19.434
2454.71	19.3607
2468.88	19.2879
2483.13	19.2155
2497.47	19.1437
2511.89	19.0723
2526.39	19.0013
2540.97	18.9308
2555.64	18.8608
2570.4	18.7912
2585.23	18.722
2600.16	18.6533
2615.17	18.585
2630.27	18.5171
2645.45	18.4496
2660.73	18.3825
2676.09	18.3157
2691.53	18.2494
2707.07	18.1834
2722.7	18.1178
2738.42	18.0524
2754.23	17.9874
2770.13	17.9227
2786.12	17.8584
2802.21	17.7943
2818.38	17.7305
2834.65	17.6671
2851.02	17.604
2867.48	17.5412
2884.03	17.4788
2900.68	17.4166
2917.43	17.3548
2934.27	17.2933
2951.21	17.2322
2968.25	17.1713
2985.38	17.1108
3002.62	17.0507
3019.95	16.9908
3037.39	16.9313
3054.92	16.8721
3072.56	16.8132
3090.3	16.7547
3108.14	16.6965
3126.08	16.6386
3144.13	16.5811
3162.28	16.5238
3180.53	16.4669
3198.9	16.4103
3217.36	16.3541
3235.94	16.2981
3254.62	16.2425
3273.41	16.1872
3292.3	16.1321
3311.31	16.0773
3330.43	16.0228
3349.65	15.9686
3368.99	15.9146
3388.44	15.861
3408	15.8077
3427.68	15.7547
3447.47	15.7021
3467.37	15.6497
3487.39	15.5976
3507.52	15.5459
3527.77	15.4945
3548.13	15.4434
3568.62	15.3926
3589.22	15.3421
3609.94	15.292
3630.78	15.2421
3651.74	15.1926
3672.82	15.1434
3694.03	15.0946
3715.35	15.046
3736.8	14.9978
3758.37	14.9499
3780.07	14.9022
3801.89	14.855
3823.84	14.808
3845.92	14.7613
3868.12	14.7149
3890.45	14.6689
3912.91	14.6231
3935.5	14.5777
3958.22	14.5325
3981.07	14.4877
4004.05	14.4431
4027.17	14.3988
4050.42	14.3548
4073.8	14.3111
4097.32	14.2677
4120.98	14.2245
4144.77	14.1817
4168.69	14.139
4192.76	14.0966
4216.97	14.0545
4241.31	14.0126
4265.8	13.971
4290.42	13.9296
4315.19	13.8884
4340.1	13.8474
4365.16	13.8067
4390.36	13.7661
4415.7	13.726
4441.2	13.6862
4466.84	13.6466
4492.62	13.6072
4518.56	13.568
4544.65	13.5289
4570.88	13.4901
4597.27	13.4515
4623.81	13.4131
4650.5	13.3749
4677.35	13.3369
4704.35	13.2991
4731.51	13.2615
4758.83	13.2241
4786.3	13.1869
4813.93	13.15
4841.72	13.1132
4869.68	13.0767
4897.79	13.0403
4926.06	13.0042
4954.5	12.9683
4983.1	12.9326
5011.87	12.8972
5040.81	12.8619
5069.91	12.8269
5099.18	12.7921
5128.61	12.7575
5158.22	12.7231
5188	12.6889
5217.95	12.6549
5248.07	12.6212
5278.37	12.5877
5308.84	12.5544
5339.49	12.5213
5370.32	12.4884
5401.32	12.4557
5432.5	12.4233
5463.87	12.391
5495.41	12.359
5527.13	12.3271
5559.04	12.2954
5591.14	12.2639
5623.41	12.2326
5655.88	12.2015
5688.53	12.1706
5721.37	12.14
5754.4	12.1095
5787.62	12.0793
5821.03	12.0492
5854.64	12.0194
5888.44	11.9897
5922.43	11.9603
5956.62	11.9311
5991.01	11.9021
6025.6	11.8732
6060.38	11.8446
6095.37	11.8162
6130.56	11.788
6165.95	11.7599
6201.55	11.7321
6237.35	11.7045
6273.36	11.677
6309.57	11.6497
6346	11.6227
6382.63	11.5958
6419.48	11.5691
6456.54	11.5425
6493.82	11.5161
6531.31	11.4899
6569.01	11.4639
6606.93	11.438
6645.08	11.4123
6683.44	11.3868
6722.02	11.3614
6760.83	11.3361
6799.86	11.311
6839.12	11.2861
6878.6	11.2614
6918.31	11.2368
6958.25	11.2123
6998.42	11.1881
7038.82	11.164
7079.46	11.14
7120.33	11.1162
7161.43	11.0926
7202.78	11.0691
7244.36	11.0458
7286.18	11.0227
7328.25	10.9997
7370.55	10.9769
7413.1	10.9542
7455.9	10.9317
7498.94	10.9093
7542.23	10.8871
7585.78	10.8651
7629.57	10.8432
7673.61	10.8215
7717.92	10.7999
7762.47	10.7784
7807.28	10.7571
7852.36	10.736
7897.69	10.715
7943.28	10.6941
7989.14	10.6734
8035.26	10.6528
8081.65	10.6324
8128.31	10.6122
8175.23	10.5921
8222.43	10.5721
8269.9	10.5523
8317.64	10.5326
8365.66	10.513
8413.95	10.4937
8462.53	10.4744
8511.38	10.4553
8560.52	10.4363
8609.94	10.4175
8659.64	10.3988
8709.64	10.3802
8759.92	10.3618
8810.49	10.3435
8861.35	10.3254
8912.51	10.3073
8963.96	10.2894
9015.71	10.2716
9067.76	10.254
9120.11	10.2365
9172.76	10.2191
9225.71	10.2018
9278.97	10.1847
9332.54	10.1677
9386.42	10.1508
9440.61	10.1341
9495.11	10.1174
9549.93	10.1009
9605.06	10.0845
9660.51	10.0683
9716.28	10.0521
9772.37	10.0361
9828.79	10.0202
9885.53	10.0044
9942.6	9.98873
10000	9.97316
10057.7	9.95771
10115.8	9.94236
10174.2	9.92711
10232.9	9.91197
10292	9.89693
10351.4	9.88199
10411.2	9.86714
10471.3	9.85238
10531.7	9.83771
10592.5	9.82313
10653.7	9.80863
10715.2	9.79421
10777.1	9.77986
10839.3	9.76559
10901.8	9.75138
10964.8	9.73723
11028.1	9.72295
11091.7	9.70852
11155.8	9.6942
11220.2	9.67999
11285	9.66589
11350.1	9.6519
11415.6	9.63802
11481.5	9.62424
11547.8	9.61057
11614.5	9.59701
11681.5	9.58355
11749	9.5702
11816.8	9.55695
11885	9.5438
11953.6	9.53076
12022.6	9.51783
12092.1	9.50499
12161.9	9.49225
12232.1	9.47962
12302.7	9.46709
12373.7	9.45465
12445.1	9.44232
12517	9.43009
12589.3	9.41795
12661.9	9.40591
12735	9.39397
12808.6	9.38212
12882.5	9.37037
12956.9	9.35872
13031.7	9.34716
13106.9	9.33569
13182.6	9.32432
13258.7	9.31305
13335.2	9.30186
13412.2	9.29077
13489.6	9.27977
13567.5	9.26886
13645.8	9.25804
13724.6	9.24731
13803.8	9.23667
13883.5	9.22612
13963.7	9.21566
14044.3	9.20529
14125.4	9.19501
14206.9	9.18481
14288.9	9.1747
14371.4	9.16468
14454.4	9.15474
14537.8	9.14488
14621.8	9.13511
14706.2	9.12543
14791.1	9.11583
14876.5	9.10631
14962.4	9.09688
15048.7	9.08753
15135.6	9.07826
15223	9.06907
15310.9	9.05996
15399.3	9.05093
15488.2	9.04198
15577.6	9.03311
15667.5	9.02433
15758	9.01562
15848.9	9.00698
15940.4	8.99843
16032.5	8.98995
16125	8.98155
16218.1	8.97323
16311.7	8.96498
16405.9	8.9568
16500.6	8.94871
16595.9	8.94068
16691.7	8.93273
16788	8.92486
16885	8.91705
16982.4	8.90932
17080.5	8.90167
17179.1	8.89408
17278.3	8.88657
17378	8.87912
17478.3	8.87175
17579.2	8.86445
17680.7	8.85721
17782.8	8.85005
17885.5	8.84296
17988.7	8.83593
18092.6	8.82897
18197	8.82208
18302.1	8.81526
18407.7	8.8085
18514	8.80181
18620.9	8.79519
18728.4	8.78863
18836.5	8.78214
18945.2	8.77571
19054.6	8.76934
19164.6	8.76304
19275.2	8.75681
19386.5	8.75064
19498.4	8.74453
19611	8.73848
19724.2	8.73249
19838.1	8.72657
19952.6	8.72071
20067.8	8.7149
20183.7	8.70916
20300.2	8.70348
20417.4	8.69786
20535.3	8.6923
20653.8	8.68679
20773	8.68135
20893	8.67596
21013.6	8.67064
21134.9	8.66536
21256.9	8.66015
21379.6	8.65499
21503	8.64989
21627.2	8.64485
21752	8.63986
21877.6	8.63493
22003.9	8.63005
22130.9	8.62522
22258.7	8.62045
22387.2	8.61574
22516.5	8.61107
22646.4	8.60646
22777.2	8.60191
22908.7	8.5974
23040.9	8.59295
23173.9	8.58855
23307.7	8.5842
23442.3	8.57991
23577.6	8.57566
23713.7	8.57146
23850.6	8.56732
23988.3	8.56322
24126.8	8.55917
24266.1	8.55518
24406.2	8.55123
24547.1	8.54733
24688.8	8.54347
24831.3	8.53967
24974.7	8.53591
25118.9	8.5322
25263.9	8.52854
25409.7	8.52492
25556.4	8.52135
25704	8.51782
25852.3	8.51434
26001.6	8.51091
26151.7	8.50752
26302.7	8.50417
26454.5	8.50087
26607.3	8.49762
26760.9	8.4944
26915.3	8.49123
27070.7	8.48811
27227	8.48502
27384.2	8.48198
27542.3	8.47898
27701.3	8.47602
27861.2	8.47311
28022.1	8.47023
28183.8	8.4674
28346.5	8.4646
28510.2	8.46185
28674.8	8.45914
28840.3	8.45646
29006.8	8.45383
29174.3	8.45124
29342.7	8.44868
29512.1	8.44616
29682.5	8.44368
29853.8	8.44124
30026.2	8.43884
30199.5	8.43648
30373.9	8.43415
30549.2	8.43186
30725.6	8.4296
30903	8.42738
31081.4	8.4252
31260.8	8.42305
31441.3	8.42094
31622.8	8.41887
31805.3	8.41683
31989	8.41482
32173.6	8.41285
32359.4	8.41091
32546.2	8.40901
32734.1	8.40714
32923	8.4053
33113.1	8.4035
33304.3	8.40173
33496.5	8.39999
33689.9	8.39829
33884.4	8.39662
34080	8.39498
34276.8	8.39337
34474.7	8.39179
34673.7	8.39024
34873.9	8.38873
35075.2	8.38724
35277.7	8.38579
35481.3	8.38436
35686.2	8.38297
35892.2	8.38161
36099.4	8.38027
36307.8	8.37896
36517.4	8.37769
36728.2	8.37644
36940.3	8.37522
37153.5	8.37403
37368	8.37286
37583.7	8.37173
37800.7	8.37062
38018.9	8.36954
38238.4	8.36849
38459.2	8.36746
38681.2	8.36646
38904.5	8.36549
39129.1	8.36454
39355	8.36362
39582.2	8.36272
39810.7	8.36185
40040.5	8.36101
40271.7	8.36019
40504.2	8.35939
40738	8.35862
40973.2	8.35788
41209.8	8.35716
41447.7	8.35646
41686.9	8.35579
41927.6	8.35514
42169.7	8.35451
42413.1	8.35391
42658	8.35333
42904.2	8.35277
43151.9	8.35224
43401	8.35173
43651.6	8.35124
43903.6	8.35077
44157	8.35032
44412	8.3499
44668.4	8.3495
44926.2	8.34911
45185.6	8.34875
45446.5	8.34841
45708.8	8.34809
45972.7	8.3478
46238.1	8.34752
46505	8.34726
46773.5	8.34702
47043.5	8.3468
47315.1	8.3466
47588.3	8.34642
47863	8.34626
48139.3	8.34612
48417.2	8.346
48696.8	8.34589
48977.9	8.34581
49260.6	8.34574
49545	8.34569
49831	8.34566
50118.7	8.34564
50408.1	8.34565
50699.1	8.34567
50991.8	8.34571
51286.1	8.34576
51582.2	8.34583
51880	8.34592
52179.5	8.34603
52480.7	8.34615
52783.7	8.34629
53088.4	8.34644
53394.9	8.34661
53703.2	8.34679
54013.2	8.347
54325	8.34721
54638.7	8.34744
54954.1	8.34769
55271.3	8.34795
55590.4	8.34823
55911.4	8.34852
56234.1	8.34882
56558.8	8.34914
56885.3	8.34948
57213.7	8.34982
57544	8.35019
57876.2	8.35056
58210.3	8.35095
58546.4	8.35135
58884.4	8.35177
59224.3	8.3522
59566.2	8.35264
59910.1	8.35309
60256	8.35356
60603.8	8.35404
60953.7	8.35453
61305.6	8.35503
61659.5	8.35555
62015.5	8.35608
62373.5	8.35662
62733.6	8.35717
63095.7	8.35773
63460	8.35831
63826.3	8.35889
64194.8	8.35949
64565.4	8.3601
64938.2	8.36072
65313.1	8.36135
65690.1	8.36199
66069.3	8.36264
66450.8	8.3633
66834.4	8.36397
67220.2	8.36465
67608.3	8.36535
67998.6	8.36605
68391.2	8.36676
68786	8.36748
69183.1	8.36821
69582.5	8.36895
69984.2	8.3697
70388.2	8.37046
70794.6	8.37123
71203.3	8.372
71614.3	8.37279
72027.8	8.37358
72443.6	8.37438
72861.8	8.37519
73282.5	8.37601
73705.5	8.37684
74131	8.37768
74559	8.37852
74989.4	8.37937
75422.3	8.38023
75857.8	8.3811
76295.7	8.38197
76736.1	8.38286
77179.2	8.38374
77624.7	8.38464
78072.8	8.38555
78523.6	8.38646
78976.9	8.38737
79432.8	8.3883
79891.4	8.38923
80352.6	8.39017
80816.5	8.39111
81283.1	8.39207
81752.3	8.39302
82224.3	8.39399
82699	8.39496
83176.4	8.39593
83656.6	8.39692
84139.5	8.3979
84625.3	8.3989
85113.8	8.3999
85605.2	8.4009
86099.4	8.40191
86596.4	8.40293
87096.4	8.40395
87599.2	8.40498
88104.9	8.40601
88613.5	8.40705
89125.1	8.40809
89639.6	8.40913
90157.1	8.41019
90677.6	8.41124
91201.1	8.4123
91727.6	8.41337
92257.1	8.41444
92789.7	8.41551
93325.4	8.41659
93864.2	8.41767
94406.1	8.41876
94951.1	8.41985
95499.3	8.42095
96050.6	8.42205
96605.1	8.42315
97162.8	8.42426
97723.7	8.42537
98287.9	8.42648
98855.3	8.4276
99426	8.42872
100000	8.42984
100577	8.43097
101158	8.4321
101742	8.43324
102329	8.43437
102920	8.43551
103514	8.43666
104112	8.4378
104713	8.43895
105317	8.4401
105925	8.44126
106537	8.44241
107152	8.44357
107771	8.44474
108393	8.4459
109018	8.44707
109648	8.44824
110281	8.44941
110917	8.45058
111558	8.45176
112202	8.45293
112850	8.45411
113501	8.45529
114156	8.45648
114815	8.45766
115478	8.45885
116145	8.46004
116815	8.46123
117490	8.46242
118168	8.46361
118850	8.46481
119536	8.466
120226	8.4672
120921	8.4684
121619	8.4696
122321	8.4708
123027	8.472
123737	8.4732
124451	8.47441
125170	8.47561
125893	8.47682
126619	8.47803
127350	8.47923
128086	8.48044
128825	8.48165
129569	8.48286
130317	8.48407
131069	8.48528
131826	8.4865
132587	8.48771
133352	8.48892
134122	8.49013
134896	8.49135
135675	8.49256
136458	8.49377
137246	8.49499
138038	8.4962
138835	8.49741
139637	8.49863
140443	8.49984
141254	8.50106
142069	8.50227
142889	8.50348
143714	8.5047
144544	8.50591
145378	8.50713
146218	8.50834
147062	8.50955
147911	8.51076
148765	8.51198
149624	8.51319
150487	8.5144
151356	8.51561
152230	8.51682
153109	8.51803
153993	8.51924
154882	8.52045
155776	8.52165
156675	8.52286
157580	8.52407
158489	8.52527
159404	8.52648
160325	8.52768
161250	8.52888
162181	8.53008
163117	8.53129
164059	8.53249
165006	8.53368
165959	8.53488
166917	8.53608
167880	8.53727
168850	8.53847
169824	8.53966
170805	8.54085
171791	8.54205
172783	8.54324
173780	8.54442
174783	8.54561
175792	8.5468
176807	8.54798
177828	8.54916
178855	8.55034
179887	8.55152
180926	8.5527
181970	8.55388
183021	8.55506
184077	8.55623
185140	8.5574
186209	8.55857
187284	8.55974
188365	8.56091
189452	8.56207
190546	8.56324
191646	8.5644
192752	8.56556
193865	8.56672
194984	8.56788
196110	8.56903
197242	8.57018
198381	8.57134
199526	8.57249
200678	8.57363
201837	8.57478
203002	8.57592
204174	8.57706
205353	8.5782
206538	8.57934
207730	8.58048
208930	8.58161
210136	8.58274
211349	8.58387
212569	8.585
213796	8.58612
215030	8.58725
216272	8.58837
217520	8.58949
218776	8.5906
220039	8.59172
221309	8.59283
222587	8.59394
223872	8.59505
225165	8.59615
226464	8.59725
227772	8.59836
229087	8.59945
230409	8.60055
231739	8.60164
233077	8.60273
234423	8.60382
235776	8.60491
237137	8.60599
238506	8.60707
239883	8.60815
241268	8.60923
242661	8.6103
244062	8.61138
245471	8.61244
246888	8.61351
248313	8.61458
249747	8.61564
251189	8.6167
252639	8.61775
254097	8.61881
255564	8.61986
257040	8.62091
258523	8.62195
260016	8.623
261517	8.62404
263027	8.62507
264545	8.62611
266073	8.62714
267609	8.62817
269153	8.6292
270707	8.63022
272270	8.63125
273842	8.63227
275423	8.63328
277013	8.6343
278612	8.63531
280221	8.63632
281838	8.63732
283465	8.63832
285102	8.63932
286748	8.64032
288403	8.64132
290068	8.64231
291743	8.6433
293427	8.64428
295121	8.64527
296825	8.64625
298538	8.64722
300262	8.6482
301995	8.64917
303739	8.65014
305492	8.6511
307256	8.65207
309030	8.65303
310814	8.65399
312608	8.65494
314413	8.65589
316228	8.65684
318053	8.65779
319890	8.65873
321736	8.65967
323594	8.66061
325462	8.66154
327341	8.66247
329230	8.6634
331131	8.66433
333043	8.66525
334965	8.66617
336899	8.66708
338844	8.668
340800	8.66891
342768	8.66982
344747	8.67072
346737	8.67162
348739	8.67252
350752	8.67342
352777	8.67431
354813	8.6752
356862	8.67609
358922	8.67697
360994	8.67785
363078	8.67873
365174	8.6796
367282	8.68048
369403	8.68134
371535	8.68221
373680	8.68307
375837	8.68393
378007	8.68479
380189	8.68564
382384	8.6865
384592	8.68734
386812	8.68819
389045	8.68903
391291	8.68987
393550	8.6907
395822	8.69154
398107	8.69237
400405	8.69319
402717	8.69402
405042	8.69484
407380	8.69566
409732	8.69647
412098	8.69728
414477	8.69809
416869	8.6989
419276	8.6997
421697	8.7005
424131	8.70129
426580	8.70209
429042	8.70288
431519	8.70367
434010	8.70445
436516	8.70523
439036	8.70601
441570	8.70678
444120	8.70756
446684	8.70833
449262	8.70909
451856	8.70986
454465	8.71062
457088	8.71137
459727	8.71213
462381	8.71288
465050	8.71363
467735	8.71437
470435	8.71511
473151	8.71585
475883	8.71659
478630	8.71732
481393	8.71805
484172	8.71878
486968	8.71951
489779	8.72023
492606	8.72094
495450	8.72166
498310	8.72237
501187	8.72308
504081	8.72379
506991	8.72449
509918	8.72519
512861	8.72589
515822	8.72658
518800	8.72727
521795	8.72796
524807	8.72865
527837	8.72933
530884	8.73001
533949	8.73069
537032	8.73136
540132	8.73203
543250	8.7327
546387	8.73336
549541	8.73403
552713	8.73469
555904	8.73534
559114	8.73599
562341	8.73665
565588	8.73729
568853	8.73794
572137	8.73858
575440	8.73922
578762	8.73985
582103	8.74049
585464	8.74112
588844	8.74174
592243	8.74237
595662	8.74299
599101	8.74361
602560	8.74422
606038	8.74483
609537	8.74544
613056	8.74605
616595	8.74666
620155	8.74726
623735	8.74785
627336	8.74845
630957	8.74904
634600	8.74963
638263	8.75022
641948	8.7508
645654	8.75139
649382	8.75196
653131	8.75254
656901	8.75311
660693	8.75368
664508	8.75425
668344	8.75481
672202	8.75538
676083	8.75594
679986	8.75649
683912	8.75704
687860	8.7576
691831	8.75814
695825	8.75869
699842	8.75923
703882	8.75977
707946	8.76031
712033	8.76084
716143	8.76137
720278	8.7619
724436	8.76243
728618	8.76295
732825	8.76347
737055	8.76399
741310	8.7645
745590	8.76502
749894	8.76553
754223	8.76603
758578	8.76654
762957	8.76704
767361	8.76754
771792	8.76804
776247	8.76853
780728	8.76902
785236	8.76951
789769	8.77
794328	8.77048
798914	8.77096
803526	8.77144
808165	8.77191
812831	8.77239
817523	8.77286
822243	8.77332
826990	8.77379
831764	8.77425
836566	8.77471
841395	8.77517
846253	8.77562
851138	8.77608
856052	8.77653
860994	8.77697
865964	8.77742
870964	8.77786
875992	8.7783
881049	8.77874
886135	8.77917
891251	8.7796
896396	8.78003
901571	8.78046
906776	8.78088
912011	8.78131
917276	8.78173
922571	8.78214
927897	8.78256
933254	8.78297
938642	8.78338
944061	8.78379
949511	8.78419
954993	8.7846
960506	8.785
966051	8.78539
971628	8.78579
977237	8.78618
982879	8.78657
988553	8.78696
994260	8.78735
1e+06	8.78773
1.00577e+06	8.78811
1.01158e+06	8.78849
1.01742e+06	8.78887
1.02329e+06	8.78924
1.0292e+06	8.78961
1.03514e+06	8.78998
1.04112e+06	8.79035
1.04713e+06	8.79071
1.05317e+06	8.79108
1.05925e+06	8.79144
1.06537e+06	8.79179
1.07152e+06	8.79215
1.07771e+06	8.7925
1.08393e+06	8.79286
1.09018e+06	8.7932
1.09648e+06	8.79355
1.10281e+06	8.79389
1.10917e+06	8.79424
1.11558e+06	8.79458
1.12202e+06	8.79491
1.1285e+06	8.79525
1.13501e+06	8.79558
1.14156e+06	8.79591
1.14815e+06	8.79624
1.15478e+06	8.79657
1.16145e+06	8.79689
1.16815e+06	8.79722
1.1749e+06	8.79754
1.18168e+06	8.79785
1.1885e+06	8.79817
1.19536e+06	8.79848
1.20226e+06	8.79879
1.20921e+06	8.7991
1.21619e+06	8.79941
1.22321e+06	8.79972
1.23027e+06	8.80002
1.23737e+06	8.80032
1.24451e+06	8.80062
1.2517e+06	8.80092
1.25893e+06	8.80121
1.26619e+06	8.8015
1.2735e+06	8.80179
1.28086e+06	8.80208
1.28825e+06	8.80237
1.29569e+06	8.80265
1.30317e+06	8.80294
1.31069e+06	8.80322
1.31826e+06	8.80349
1.32587e+06	8.80377
1.33352e+06	8.80404
1.34122e+06	8.80432
1.34896e+06	8.80459
1.35675e+06	8.80485
1.36458e+06	8.80512
1.37246e+06	8.80539
1.38038e+06	8.80565
1.38835e+06	8.80591
1.39637e+06	8.80617
1.40443e+06	8.80642
1.41254e+06	8.80668
1.42069e+06	8.80693
1.42889e+06	8.80718
1.43714e+06	8.80743
1.44544e+06	8.80768
1.45378e+06	8.80792
1.46218e+06	8.80816
1.47062e+06	8.80841
1.47911e+06	8.80865
1.48765e+06	8.80888
1.49624e+06	8.80912
1.50487e+06	8.80935
1.51356e+06	8.80958
1.5223e+06	8.80981
1.53109e+06	8.81004
1.53993e+06	8.81027
1.54882e+06	8.81049
1.55776e+06	8.81072
1.56675e+06	8.81094
1.5758e+06	8.81116
1.58489e+06	8.81137
1.59404e+06	8.81159
1.60325e+06	8.8118
1.6125e+06	8.81202
1.62181e+06	8.81223
1.63117e+06	8.81244
1.64059e+06	8.81264
1.65006e+06	8.81285
1.65959e+06	8.81305
1.66917e+06	8.81325
1.6788e+06	8.81345
1.6885e+06	8.81365
1.69824e+06	8.81385
1.70805e+06	8.81404
1.71791e+06	8.81424
1.72783e+06	8.81443
1.7378e+06	8.81462
1.74783e+06	8.81481
1.75792e+06	8.81499
1.76807e+06	8.81518
1.77828e+06	8.81536
1.78855e+06	8.81554
1.79887e+06	8.81572
1.80926e+06	8.8159
1.8197e+06	8.81608
1.83021e+06	8.81625
1.84077e+06	8.81643
1.8514e+06	8.8166
1.86209e+06	8.81677
1.87284e+06	8.81694
1.88365e+06	8.81711
1.89452e+06	8.81727
1.90546e+06	8.81744
1.91646e+06	8.8176
1.92752e+06	8.81776
1.93865e+06	8.81792
1.94984e+06	8.81808
1.9611e+06	8.81824
1.97242e+06	8.81839
1.98381e+06	8.81855
1.99526e+06	8.8187
2.00678e+06	8.81885
2.01837e+06	8.819
2.03002e+06	8.81915
2.04174e+06	8.8193
2.05353e+06	8.81944
2.06538e+06	8.81958
2.0773e+06	8.81973
2.0893e+06	8.81987
2.10136e+06	8.82001
2.11349e+06	8.82014
2.12569e+06	8.82028
2.13796e+06	8.82042
2.1503e+06	8.82055
2.16272e+06	8.82068
2.1752e+06	8.82081
2.18776e+06	8.82094
2.20039e+06	8.82107
2.21309e+06	8.8212
2.22587e+06	8.82133
2.23872e+06	8.82145
2.25165e+06	8.82157
2.26464e+06	8.8217
2.27772e+06	8.82182
2.29087e+06	8.82193
2.30409e+06	8.82205
2.31739e+06	8.82217
2.33077e+06	8.82228
2.34423e+06	8.8224
2.35776e+06	8.82251
2.37137e+06	8.82262
2.38506e+06	8.82273
2.39883e+06	8.82284
2.41268e+06	8.82295
2.42661e+06	8.82306
2.44062e+06	8.82316
2.45471e+06	8.82327
2.46888e+06	8.82337
2.48313e+06	8.82347
2.49747e+06	8.82357
2.51189e+06	8.82367
2.52639e+06	8.82377
2.54097e+06	8.82387
2.55564e+06	8.82396
2.5704e+06	8.82406
2.58523e+06	8.82415
2.60016e+06	8.82425
2.61517e+06	8.82434
2.63027e+06	8.82443
2.64545e+06	8.82452
2.66073e+06	8.8246
2.67609e+06	8.82469
2.69153e+06	8.82478
2.70707e+06	8.82486
2.7227e+06	8.82495
2.73842e+06	8.82503
2.75423e+06	8.82511
2.77013e+06	8.82519
2.78612e+06	8.82527
2.80221e+06	8.82535
2.81838e+06	8.82543
2.83465e+06	8.8255
2.85102e+06	8.82558
2.86748e+06	8.82565
2.88403e+06	8.82573
2.90068e+06	8.8258
2.91743e+06	8.82587
2.93427e+06	8.82594
2.95121e+06	8.82601
2.96825e+06	8.82608
2.98538e+06	8.82615
3.00262e+06	8.82621
3.01995e+06	8.82628
3.03739e+06	8.82634
3.05492e+06	8.82641
3.07256e+06	8.82647
3.0903e+06	8.82653
3.10814e+06	8.82659
3.12608e+06	8.82665
3.14413e+06	8.82671
3.16228e+06	8.82677
3.18053e+06	8.82683
3.1989e+06	8.82689
3.21736e+06	8.82694
3.23594e+06	8.827
3.25462e+06	8.82705
3.27341e+06	8.82711
3.2923e+06	8.82716
3.31131e+06	8.82721
3.33043e+06	8.82726
3.34965e+06	8.82731
3.36899e+06	8.82736
3.38844e+06	8.82741
3.408e+06	8.82746
3.42768e+06	8.8275
3.44747e+06	8.82755
3.46737e+06	8.82759
3.48739e+06	8.82764
3.50752e+06	8.82768
3.52777e+06	8.82772
3.54813e+06	8.82777
3.56862e+06	8.82781
3.58922e+06	8.82785
3.60994e+06	8.82789
3.63078e+06	8.82793
3.65174e+06	8.82797
3.67282e+06	8.82801
3.69403e+06	8.82804
3.71535e+06	8.82808
3.7368e+06	8.82812
3.75837e+06	8.82815
3.78007e+06	8.82819
3.80189e+06	8.82822
3.82384e+06	8.82825
3.84592e+06	8.82828
3.86812e+06	8.82832
3.89045e+06	8.82835
3.91291e+06	8.82838
3.9355e+06	8.82841
3.95822e+06	8.82844
3.98107e+06	8.82847
4.00405e+06	8.8285
4.02717e+06	8.82852
4.05042e+06	8.82855
4.0738e+06	8.82858
4.09732e+06	8.8286
4.12098e+06	8.82863
4.14477e+06	8.82865
4.16869e+06	8.82868
4.19276e+06	8.8287
4.21697e+06	8.82872
4.24131e+06	8.82875
4.2658e+06	8.82877
4.29042e+06	8.82879
4.31519e+06	8.82881
4.3401e+06	8.82883
4.36516e+06	8.82885
4.39036e+06	8.82887
4.4157e+06	8.82889
4.4412e+06	8.82891
4.46684e+06	8.82893
4.49262e+06	8.82894
4.51856e+06	8.82896
4.54465e+06	8.82898
4.57088e+06	8.82899
4.59727e+06	8.82901
4.62381e+06	8.82903
4.6505e+06	8.82904
4.67735e+06	8.82906
4.70435e+06	8.82907
4.73151e+06	8.82908
4.75883e+06	8.8291
4.7863e+06	8.82911
4.81393e+06	8.82912
4.84172e+06	8.82913
4.86968e+06	8.82915
4.89779e+06	8.82916
4.92606e+06	8.82917
4.9545e+06	8.82918
4.9831e+06	8.82919
5.01187e+06	8.8292
5.04081e+06	8.82921
5.06991e+06	8.82922
5.09918e+06	8.82923
5.12861e+06	8.82924
5.15822e+06	8.82924
5.188e+06	8.82925
5.21795e+06	8.82926
5.24807e+06	8.82927
5.27837e+06	8.82927
5.30884e+06	8.82928
5.33949e+06	8.82929
5.37032e+06	8.82929
5.40132e+06	8.8293
5.4325e+06	8.8293
5.46387e+06	8.82931
5.49541e+06	8.82931
5.52713e+06	8.82932
5.55904e+06	8.82932
5.59114e+06	8.82933
5.62341e+06	8.82933
5.65588e+06	8.82934
5.68853e+06	8.82934
5.72137e+06	8.82934
5.7544e+06	8.82935
5.78762e+06	8.82935
5.82103e+06	8.82935
5.85464e+06	8.82936
5.88844e+06	8.82936
5.92243e+06	8.82936
5.95662e+06	8.82936
5.99101e+06	8.82936
6.0256e+06	8.82937
6.06038e+06	8.82937
6.09537e+06	8.82937
6.13056e+06	8.82937
6.16595e+06	8.82937
6.20155e+06	8.82937
6.23735e+06	8.82937
6.27336e+06	8.82937
6.30957e+06	8.82938
6.346e+06	8.82938
6.38263e+06	8.82938
6.41948e+06	8.82938
6.45654e+06	8.82938
6.49382e+06	8.82938
6.53131e+06	8.82938
6.56901e+06	8.82938
6.60693e+06	8.82938
6.64508e+06	8.82938
6.68344e+06	8.82938
6.72202e+06	8.82938
6.76083e+06	8.82937
6.79986e+06	8.82937
6.83912e+06	8.82937
6.8786e+06	8.82937
6.91831e+06	8.82937
6.95825e+06	8.82937
6.99842e+06	8.82937
7.03882e+06	8.82937
7.07946e+06	8.82937
7.12033e+06	8.82937
7.16143e+06	8.82937
7.20278e+06	8.82937
7.24436e+06	8.82936
7.28618e+06	8.82936
7.32825e+06	8.82936
7.37055e+06	8.82936
7.4131e+06	8.82936
7.4559e+06	8.82936
7.49894e+06	8.82936
7.54223e+06	8.82936
7.58578e+06	8.82936
7.62957e+06	8.82935
7.67361e+06	8.82935
7.71792e+06	8.82935
7.76247e+06	8.82935
7.80728e+06	8.82935
7.85236e+06	8.82935
7.89769e+06	8.82935
7.94328e+06	8.82935
7.98914e+06	8.82935
8.03526e+06	8.82935
8.08165e+06	8.82934
8.12831e+06	8.82934
8.17523e+06	8.82934
8.22243e+06	8.82934
8.2699e+06	8.82934
8.31764e+06	8.82934
8.36566e+06	8.82934
8.41395e+06	8.82934
8.46253e+06	8.82934
8.51138e+06	8.82934
8.56052e+06	8.82934
8.60994e+06	8.82933
8.65964e+06	8.82933
8.70964e+06	8.82933
8.75992e+06	8.82933
8.81049e+06	8.82933
8.86135e+06	8.82933
8.91251e+06	8.82933
8.96396e+06	8.82933
9.01571e+06	8.82933
9.06776e+06	8.82933
9.12011e+06	8.82933
9.17276e+06	8.82932
9.22571e+06	8.82932
9.27897e+06	8.82932
9.33254e+06	8.82932
9.38642e+06	8.82932
9.44061e+06	8.82932
9.49511e+06	8.82932
9.54993e+06	8.82932
9.60506e+06	8.82932
9.66051e+06	8.82932
9.71628e+06	8.82932
9.77237e+06	8.82932
9.82879e+06	8.82931
9.88553e+06	8.82931
9.9426e+06	8.82931
1e+07	8.82931
