Stopping power dEdx from Ionisation for C12[0.0] Z = 6 in G4_Si, process name: ionIoni
E [MeV]	dEdx [MeV/mm]
0.001	32.0877
0.00100577	32.1809
0.00101158	32.2744
0.00101742	32.3682
0.00102329	32.4623
0.0010292	32.5566
0.00103514	32.6512
0.00104112	32.7461
0.00104713	32.8412
0.00105317	32.9366
0.00105925	33.0323
0.00106537	33.1283
0.00107152	33.2245
0.00107771	33.321
0.00108393	33.4178
0.00109018	33.5149
0.00109648	33.6123
0.00110281	33.7099
0.00110917	33.8078
0.00111558	33.906
0.00112202	34.0045
0.0011285	34.1033
0.00113501	34.2023
0.00114156	34.3017
0.00114815	34.4013
0.00115478	34.5012
0.00116145	34.6014
0.00116815	34.7019
0.0011749	34.8027
0.00118168	34.9037
0.0011885	35.0051
0.00119536	35.1067
0.00120226	35.2087
0.00120921	35.3109
0.00121619	35.4135
0.00122321	35.5163
0.00123027	35.6194
0.00123737	35.7228
0.00124451	35.8266
0.0012517	35.9306
0.00125893	36.0349
0.00126619	36.1395
0.0012735	36.2444
0.00128086	36.3497
0.00128825	36.4552
0.00129569	36.561
0.00130317	36.6672
0.00131069	36.7736
0.00131826	36.8803
0.00132587	36.9874
0.00133352	37.0948
0.00134122	37.2024
0.00134896	37.3104
0.00135675	37.4187
0.00136458	37.5273
0.00137246	37.6363
0.00138038	37.7455
0.00138835	37.855
0.00139637	37.9649
0.00140443	38.0751
0.00141254	38.1856
0.00142069	38.2964
0.00142889	38.4076
0.00143714	38.519
0.00144544	38.6308
0.00145378	38.7429
0.00146218	38.8553
0.00147062	38.9681
0.00147911	39.0811
0.00148765	39.1945
0.00149624	39.3083
0.00150487	39.4223
0.00151356	39.5367
0.0015223	39.6514
0.00153109	39.7665
0.00153993	39.8818
0.00154882	39.9976
0.00155776	40.1136
0.00156675	40.23
0.0015758	40.3467
0.00158489	40.4637
0.00159404	40.5811
0.00160325	40.6988
0.0016125	40.8169
0.00162181	40.9353
0.00163117	41.0541
0.00164059	41.1731
0.00165006	41.2926
0.00165959	41.4123
0.00166917	41.5325
0.0016788	41.6529
0.0016885	41.7737
0.00169824	41.8949
0.00170805	42.0164
0.00171791	42.1383
0.00172783	42.2605
0.0017378	42.3831
0.00174783	42.506
0.00175792	42.6293
0.00176807	42.7529
0.00177828	42.8769
0.00178855	43.0012
0.00179887	43.1259
0.00180926	43.251
0.0018197	43.3764
0.00183021	43.5022
0.00184077	43.6283
0.0018514	43.7548
0.00186209	43.8817
0.00187284	44.0089
0.00188365	44.1365
0.00189452	44.2645
0.00190546	44.3928
0.00191646	44.5216
0.00192752	44.6506
0.00193865	44.7801
0.00194984	44.9099
0.0019611	45.0401
0.00197242	45.1707
0.00198381	45.3016
0.00199526	45.433
0.00200678	45.5647
0.00201837	45.6968
0.00203002	45.8292
0.00204174	45.9621
0.00205353	46.0953
0.00206538	46.229
0.0020773	46.363
0.0020893	46.4973
0.00210136	46.6321
0.00211349	46.7673
0.00212569	46.9028
0.00213796	47.0388
0.0021503	47.1751
0.00216272	47.3119
0.0021752	47.449
0.00218776	47.5865
0.00220039	47.7244
0.00221309	47.8627
0.00222587	48.0014
0.00223872	48.1406
0.00225165	48.2801
0.00226464	48.42
0.00227772	48.5603
0.00229087	48.701
0.00230409	48.8422
0.00231739	48.9837
0.00233077	49.1256
0.00234423	49.268
0.00235776	49.4107
0.00237137	49.5539
0.00238506	49.6975
0.00239883	49.8415
0.00241268	49.9859
0.00242661	50.1308
0.00244062	50.276
0.00245471	50.4217
0.00246888	50.5678
0.00248313	50.7143
0.00249747	50.8612
0.00251189	51.0086
0.00252639	51.1563
0.00254097	51.3045
0.00255564	51.4532
0.0025704	51.6022
0.00258523	51.7517
0.00260016	51.9017
0.00261517	52.052
0.00263027	52.2028
0.00264545	52.354
0.00266073	52.5057
0.00267609	52.6578
0.00269153	52.8103
0.00270707	52.9633
0.0027227	53.1167
0.00273842	53.2706
0.00275423	53.4249
0.00277013	53.5796
0.00278612	53.7348
0.00280221	53.8904
0.00281838	54.0465
0.00283465	54.203
0.00285102	54.36
0.00286748	54.5175
0.00288403	54.6754
0.00290068	54.8337
0.00291743	54.9925
0.00293427	55.1518
0.00295121	55.3115
0.00296825	55.4717
0.00298538	55.6323
0.00300262	55.7934
0.00301995	55.955
0.00303739	56.1171
0.00305492	56.2796
0.00307256	56.4425
0.0030903	56.606
0.00310814	56.7699
0.00312608	56.9343
0.00314413	57.0991
0.00316228	57.2645
0.00318053	57.4303
0.0031989	57.5966
0.00321736	57.7633
0.00323594	57.9306
0.00325462	58.0983
0.00327341	58.2665
0.0032923	58.4352
0.00331131	58.6044
0.00333043	58.7741
0.00334965	58.9443
0.00336899	59.1149
0.00338844	59.2861
0.003408	59.4577
0.00342768	59.6298
0.00344747	59.8025
0.00346737	59.9756
0.00348739	60.1492
0.00350752	60.3233
0.00352777	60.498
0.00354813	60.6731
0.00356862	60.8487
0.00358922	61.0249
0.00360994	61.2015
0.00363078	61.3787
0.00365174	61.5564
0.00367282	61.7346
0.00369403	61.9132
0.00371535	62.0925
0.0037368	62.2722
0.00375837	62.4524
0.00378007	62.6332
0.00380189	62.8145
0.00382384	62.9963
0.00384592	63.1786
0.00386812	63.3615
0.00389045	63.5449
0.00391291	63.7288
0.0039355	63.9132
0.00395822	64.0982
0.00398107	64.2837
0.00400405	64.4698
0.00402717	64.6563
0.00405042	64.8435
0.0040738	65.0311
0.00409732	65.2193
0.00412098	65.4081
0.00414477	65.5973
0.00416869	65.7872
0.00419276	65.9775
0.00421697	66.1685
0.00424131	66.36
0.0042658	66.552
0.00429042	66.7446
0.00431519	66.9377
0.0043401	67.1314
0.00436516	67.3256
0.00439036	67.5205
0.0044157	67.7158
0.0044412	67.9118
0.00446684	68.1083
0.00449262	68.3053
0.00451856	68.503
0.00454465	68.7012
0.00457088	68.9
0.00459727	69.0993
0.00462381	69.2992
0.0046505	69.4997
0.00467735	69.7008
0.00470435	69.9025
0.00473151	70.1047
0.00475883	70.3075
0.0047863	70.5109
0.00481393	70.7149
0.00484172	70.9195
0.00486968	71.1247
0.00489779	71.3304
0.00492606	71.5368
0.0049545	71.7437
0.0049831	71.9513
0.00501187	72.1594
0.00504081	72.3682
0.00506991	72.5775
0.00509918	72.7875
0.00512861	72.998
0.00515822	73.2092
0.005188	73.421
0.00521795	73.6333
0.00524807	73.8463
0.00527837	74.0599
0.00530884	74.2742
0.00533949	74.489
0.00537032	74.7045
0.00540132	74.9206
0.0054325	75.1373
0.00546387	75.3546
0.00549541	75.5725
0.00552713	75.7911
0.00555904	76.0103
0.00559114	76.2302
0.00562341	76.4507
0.00565588	76.6718
0.00568853	76.8935
0.00572137	77.1159
0.0057544	77.3389
0.00578762	77.5626
0.00582103	77.7869
0.00585464	78.0119
0.00588844	78.2375
0.00592243	78.4638
0.00595662	78.6907
0.00599101	78.9183
0.0060256	79.1465
0.00606038	79.3754
0.00609537	79.6049
0.00613056	79.8351
0.00616595	80.066
0.00620155	80.2975
0.00623735	80.5297
0.00627336	80.7626
0.00630957	80.9961
0.006346	81.2304
0.00638263	81.4653
0.00641948	81.7008
0.00645654	81.9371
0.00649382	82.174
0.00653131	82.4116
0.00656901	82.6499
0.00660693	82.8889
0.00664508	83.1286
0.00668344	83.3689
0.00672202	83.61
0.00676083	83.8517
0.00679986	84.0942
0.00683912	84.3373
0.0068786	84.5812
0.00691831	84.8257
0.00695825	85.071
0.00699842	85.3169
0.00703882	85.5636
0.00707946	85.811
0.00712033	86.0591
0.00716143	86.3079
0.00720278	86.5574
0.00724436	86.8076
0.00728618	87.0586
0.00732825	87.3103
0.00737055	87.5627
0.0074131	87.8159
0.0074559	88.0697
0.00749894	88.3243
0.00754223	88.5797
0.00758578	88.8357
0.00762957	89.0926
0.00767361	89.3501
0.00771792	89.6084
0.00776247	89.8674
0.00780728	90.1272
0.00785236	90.3878
0.00789769	90.6491
0.00794328	90.9111
0.00798914	91.1739
0.00803526	91.4374
0.00808165	91.7017
0.00812831	91.9668
0.00817523	92.2327
0.00822243	92.4993
0.0082699	92.7666
0.00831764	93.0348
0.00836566	93.3037
0.00841395	93.5734
0.00846253	93.8439
0.00851138	94.1151
0.00856052	94.3871
0.00860994	94.6599
0.00865964	94.9335
0.00870964	95.2079
0.00875992	95.4831
0.00881049	95.7591
0.00886135	96.0358
0.00891251	96.3134
0.00896396	96.5918
0.00901571	96.8709
0.00906776	97.1509
0.00912011	97.4317
0.00917276	97.7133
0.00922571	97.9957
0.00927897	98.2789
0.00933254	98.5629
0.00938642	98.8478
0.00944061	99.1335
0.00949511	99.4199
0.00954993	99.7073
0.00960506	99.9954
0.00966051	100.284
0.00971628	100.574
0.00977237	100.865
0.00982879	101.156
0.00988553	101.449
0.0099426	101.742
0.01	102.036
0.0100577	102.331
0.0101158	102.626
0.0101742	102.923
0.0102329	103.22
0.010292	103.519
0.0103514	103.818
0.0104112	104.118
0.0104713	104.68
0.0105317	104.982
0.0105925	105.285
0.0106537	105.588
0.0107152	105.892
0.0107771	106.198
0.0108393	106.504
0.0109018	106.811
0.0109648	107.119
0.0110281	107.427
0.0110917	107.737
0.0111558	108.048
0.0112202	108.359
0.011285	108.671
0.0113501	108.985
0.0114156	109.299
0.0114815	109.614
0.0115478	109.93
0.0116145	110.247
0.0116815	110.564
0.011749	110.883
0.0118168	111.203
0.011885	111.523
0.0119536	111.845
0.0120226	112.167
0.0120921	112.49
0.0121619	112.814
0.0122321	113.14
0.0123027	113.466
0.0123737	113.793
0.0124451	114.121
0.012517	114.45
0.0125893	114.78
0.0126619	115.11
0.012735	115.442
0.0128086	115.775
0.0128825	116.109
0.0129569	116.443
0.0130317	116.779
0.0131069	117.116
0.0131826	117.453
0.0132587	117.792
0.0133352	118.131
0.0134122	118.472
0.0134896	118.813
0.0135675	119.156
0.0136458	119.499
0.0137246	119.844
0.0138038	120.189
0.0138835	120.535
0.0139637	120.883
0.0140443	121.231
0.0141254	121.581
0.0142069	121.931
0.0142889	122.283
0.0143714	122.635
0.0144544	122.989
0.0145378	123.343
0.0146218	123.699
0.0147062	124.055
0.0147911	124.413
0.0148765	124.771
0.0149624	125.131
0.0150487	125.492
0.0151356	125.853
0.015223	126.216
0.0153109	126.58
0.0153993	126.945
0.0154882	127.311
0.0155776	127.678
0.0156675	128.046
0.015758	128.415
0.0158489	128.785
0.0159404	129.156
0.0160325	129.528
0.016125	129.902
0.0162181	130.276
0.0163117	130.652
0.0164059	131.028
0.0165006	131.406
0.0165959	131.785
0.0166917	132.165
0.016788	132.545
0.016885	132.928
0.0169824	133.311
0.0170805	133.695
0.0171791	134.08
0.0172783	134.467
0.017378	134.854
0.0174783	135.243
0.0175792	135.633
0.0176807	136.024
0.0177828	136.416
0.0178855	136.809
0.0179887	137.203
0.0180926	137.599
0.018197	137.995
0.0183021	138.393
0.0184077	138.792
0.018514	139.192
0.0186209	139.593
0.0187284	139.996
0.0188365	140.399
0.0189452	140.804
0.0190546	141.21
0.0191646	141.617
0.0192752	142.025
0.0193865	142.434
0.0194984	142.845
0.019611	143.257
0.0197242	143.67
0.0198381	144.084
0.0199526	144.499
0.0200678	144.916
0.0201837	145.333
0.0203002	145.752
0.0204174	146.172
0.0205353	146.594
0.0206538	147.016
0.020773	147.44
0.020893	147.865
0.0210136	148.291
0.0211349	148.718
0.0212569	149.147
0.0213796	149.577
0.021503	150.008
0.0216272	150.441
0.021752	150.874
0.0218776	151.309
0.0220039	151.745
0.0221309	152.183
0.0222587	152.621
0.0223872	153.061
0.0225165	153.502
0.0226464	153.945
0.0227772	154.388
0.0229087	154.833
0.0230409	155.28
0.0231739	155.727
0.0233077	156.176
0.0234423	156.626
0.0235776	157.078
0.0237137	157.531
0.0238506	157.985
0.0239883	158.44
0.0241268	158.897
0.0242661	159.355
0.0244062	159.814
0.0245471	160.275
0.0246888	160.737
0.0248313	161.2
0.0249747	161.665
0.0251189	162.131
0.0252639	162.598
0.0254097	163.067
0.0255564	163.537
0.025704	164.008
0.0258523	164.481
0.0260016	164.955
0.0261517	165.43
0.0263027	165.907
0.0264545	166.385
0.0266073	166.865
0.0267609	167.346
0.0269153	167.828
0.0270707	168.312
0.027227	168.797
0.0273842	169.284
0.0275423	169.772
0.0277013	170.261
0.0278612	170.752
0.0280221	171.244
0.0281838	171.737
0.0283465	172.232
0.0285102	172.729
0.0286748	173.227
0.0288403	173.726
0.0290068	174.227
0.0291743	174.729
0.0293427	175.233
0.0295121	175.738
0.0296825	176.244
0.0298538	176.752
0.0300262	177.262
0.0301995	177.773
0.0303739	178.285
0.0305492	178.799
0.0307256	179.314
0.030903	179.831
0.0310814	180.349
0.0312608	180.869
0.0314413	181.391
0.0316228	181.913
0.0318053	182.438
0.031989	182.964
0.0321736	183.491
0.0323594	184.02
0.0325462	184.55
0.0327341	185.082
0.032923	185.616
0.0331131	186.151
0.0333043	186.687
0.0334965	187.225
0.0336899	187.765
0.0338844	188.306
0.03408	188.849
0.0342768	189.393
0.0344747	189.939
0.0346737	190.487
0.0348739	191.036
0.0350752	191.586
0.0352777	192.139
0.0354813	192.693
0.0356862	193.248
0.0358922	193.805
0.0360994	194.364
0.0363078	194.924
0.0365174	195.486
0.0367282	196.049
0.0369403	196.614
0.0371535	197.181
0.037368	197.749
0.0375837	198.319
0.0378007	198.891
0.0380189	199.464
0.0382384	200.039
0.0384592	200.616
0.0386812	201.194
0.0389045	201.774
0.0391291	202.355
0.039355	202.939
0.0395822	203.524
0.0398107	204.11
0.0400405	204.699
0.0402717	205.289
0.0405042	205.88
0.040738	206.474
0.0409732	207.069
0.0412098	207.666
0.0414477	208.264
0.0416869	208.865
0.0419276	209.467
0.0421697	210.07
0.0424131	210.676
0.042658	211.283
0.0429042	211.892
0.0431519	212.503
0.043401	213.115
0.0436516	213.73
0.0439036	214.346
0.044157	214.964
0.044412	215.583
0.0446684	216.205
0.0449262	216.828
0.0451856	217.453
0.0454465	218.08
0.0457088	218.708
0.0459727	219.338
0.0462381	219.971
0.046505	220.605
0.0467735	221.241
0.0470435	221.878
0.0473151	222.518
0.0475883	223.159
0.047863	223.802
0.0481393	224.448
0.0484172	225.094
0.0486968	225.743
0.0489779	226.394
0.0492606	227.047
0.049545	227.701
0.049831	228.357
0.0501187	229.015
0.0504081	229.676
0.0506991	230.338
0.0509918	231.002
0.0512861	231.667
0.0515822	232.335
0.05188	233.005
0.0521795	233.676
0.0524807	234.35
0.0527837	235.025
0.0530884	235.703
0.0533949	236.382
0.0537032	237.064
0.0540132	237.747
0.054325	238.432
0.0546387	239.119
0.0549541	239.809
0.0552713	240.5
0.0555904	241.193
0.0559114	241.888
0.0562341	242.586
0.0565588	243.285
0.0568853	243.986
0.0572137	244.689
0.057544	245.395
0.0578762	246.102
0.0582103	246.811
0.0585464	247.523
0.0588844	248.236
0.0592243	248.952
0.0595662	249.669
0.0599101	250.389
0.060256	251.11
0.0606038	251.834
0.0609537	252.56
0.0613056	253.288
0.0616595	254.018
0.0620155	254.75
0.0623735	255.485
0.0627336	256.221
0.0630957	256.96
0.06346	257.7
0.0638263	258.443
0.0641948	259.188
0.0645654	259.935
0.0649382	260.684
0.0653131	261.436
0.0656901	262.189
0.0660693	262.945
0.0664508	263.703
0.0668344	264.463
0.0672202	265.225
0.0676083	265.99
0.0679986	266.756
0.0683912	267.525
0.068786	268.296
0.0691831	269.07
0.0695825	269.845
0.0699842	270.623
0.0703882	271.403
0.0707946	272.185
0.0712033	272.97
0.0716143	273.757
0.0720278	274.546
0.0724436	275.337
0.0728618	276.131
0.0732825	276.927
0.0737055	277.725
0.074131	278.525
0.074559	279.328
0.0749894	280.133
0.0754223	280.941
0.0758578	281.751
0.0762957	282.563
0.0767361	283.377
0.0771792	284.194
0.0776247	285.013
0.0780728	285.835
0.0785236	286.659
0.0789769	287.485
0.0794328	288.313
0.0798914	289.144
0.0803526	289.978
0.0808165	290.814
0.0812831	291.652
0.0817523	292.493
0.0822243	293.336
0.082699	294.181
0.0831764	295.029
0.0836566	295.879
0.0841395	296.732
0.0846253	297.588
0.0851138	298.445
0.0856052	299.306
0.0860994	300.168
0.0865964	301.034
0.0870964	301.901
0.0875992	302.771
0.0881049	303.644
0.0886135	304.519
0.0891251	305.397
0.0896396	306.277
0.0901571	307.16
0.0906776	308.045
0.0912011	308.933
0.0917276	309.824
0.0922571	310.717
0.0927897	311.612
0.0933254	312.511
0.0938642	313.411
0.0944061	314.315
0.0949511	315.221
0.0954993	316.129
0.0960506	317.041
0.0966051	317.954
0.0971628	318.871
0.0977237	319.79
0.0982879	320.712
0.0988553	321.636
0.099426	322.563
0.1	323.493
0.100577	324.425
0.101158	325.361
0.101742	326.298
0.102329	327.239
0.10292	328.182
0.103514	329.128
0.104112	330.077
0.104713	331.028
0.105317	331.982
0.105925	332.939
0.106537	333.899
0.107152	334.861
0.107771	335.826
0.108393	336.794
0.109018	337.765
0.109648	338.739
0.110281	339.715
0.110917	340.694
0.111558	341.676
0.112202	342.661
0.11285	343.649
0.113501	344.639
0.114156	345.633
0.114815	346.629
0.115478	347.628
0.116145	348.63
0.116815	349.635
0.11749	350.643
0.118168	351.653
0.11885	352.667
0.119536	353.684
0.120226	354.703
0.120921	355.725
0.121619	356.751
0.122321	357.779
0.123027	358.81
0.123737	359.844
0.124451	360.882
0.12517	361.922
0.125893	362.965
0.126619	364.011
0.12735	365.061
0.128086	366.113
0.128825	367.168
0.129569	368.226
0.130317	369.288
0.131069	370.352
0.131826	371.42
0.132587	372.49
0.133352	373.564
0.134122	374.641
0.134896	375.72
0.135675	376.803
0.136458	377.89
0.137246	378.979
0.138038	380.071
0.138835	381.167
0.139637	382.265
0.140443	383.367
0.141254	384.472
0.142069	385.58
0.142889	386.692
0.143714	387.806
0.144544	388.924
0.145378	390.045
0.146218	391.169
0.147062	392.297
0.147911	393.428
0.148765	394.562
0.149624	395.699
0.150487	396.839
0.151356	397.983
0.15223	399.13
0.153109	400.281
0.153993	401.435
0.154882	402.592
0.155776	403.752
0.156675	404.916
0.15758	406.083
0.158489	407.254
0.159404	408.427
0.160325	409.605
0.16125	410.785
0.162181	411.969
0.163117	413.157
0.164059	414.348
0.165006	415.542
0.165959	416.74
0.166917	417.941
0.16788	419.146
0.16885	420.354
0.169824	421.565
0.170805	422.78
0.171791	423.999
0.172783	425.221
0.17378	426.447
0.174783	427.676
0.175792	428.909
0.176807	430.145
0.177828	431.385
0.178855	432.628
0.179887	433.875
0.180926	435.126
0.18197	436.38
0.183021	437.638
0.184077	438.899
0.18514	440.164
0.186209	441.433
0.187284	442.705
0.188365	443.981
0.189452	445.261
0.190546	446.545
0.191646	447.832
0.192752	449.123
0.193865	450.417
0.194984	451.715
0.19611	453.017
0.197242	454.323
0.198381	455.633
0.199526	456.946
0.200678	458.263
0.201837	459.584
0.203002	460.909
0.204174	462.237
0.205353	463.57
0.206538	464.906
0.20773	466.246
0.20893	467.59
0.210136	468.937
0.211349	470.289
0.212569	471.645
0.213796	473.004
0.21503	474.367
0.216272	475.735
0.21752	477.106
0.218776	478.481
0.220039	479.86
0.221309	481.243
0.222587	482.631
0.223872	484.022
0.225165	485.417
0.226464	486.816
0.227772	488.219
0.229087	489.626
0.230409	491.038
0.231739	492.453
0.233077	493.873
0.234423	495.296
0.235776	496.724
0.237137	498.155
0.238506	499.591
0.239883	501.031
0.241268	502.475
0.242661	503.924
0.244062	505.376
0.245471	506.833
0.246888	508.294
0.248313	509.759
0.249747	511.228
0.251189	512.702
0.252639	514.18
0.254097	515.662
0.255564	517.148
0.25704	518.639
0.258523	520.134
0.260016	521.633
0.261517	523.136
0.263027	524.644
0.264545	526.156
0.266073	527.673
0.267609	529.194
0.269153	530.719
0.270707	532.249
0.27227	533.783
0.273842	535.322
0.275423	536.865
0.277013	538.412
0.278612	539.964
0.280221	541.52
0.281838	543.081
0.283465	544.647
0.285102	546.217
0.286748	547.791
0.288403	549.37
0.290068	550.953
0.291743	552.541
0.293427	554.134
0.295121	555.731
0.296825	557.333
0.298538	558.94
0.300262	560.593
0.301995	562.492
0.303739	564.404
0.305492	566.327
0.307256	568.262
0.30903	570.209
0.310814	572.167
0.312608	574.138
0.314413	576.121
0.316228	578.115
0.318053	580.122
0.31989	582.14
0.321736	584.17
0.323594	586.213
0.325462	588.267
0.327341	590.333
0.32923	592.411
0.331131	594.501
0.333043	596.603
0.334965	598.717
0.336899	600.842
0.338844	602.98
0.3408	605.129
0.342768	607.29
0.344747	609.463
0.346737	611.647
0.348739	613.843
0.350752	616.051
0.352777	618.271
0.354813	620.502
0.356862	622.745
0.358922	624.999
0.360994	627.21
0.363078	629.372
0.365174	631.545
0.367282	633.728
0.369403	635.922
0.371535	638.126
0.37368	640.341
0.375837	642.566
0.378007	644.801
0.380189	647.046
0.382384	649.302
0.384592	651.567
0.386812	653.842
0.389045	656.127
0.391291	658.421
0.39355	660.725
0.395822	663.038
0.398107	665.36
0.400405	667.692
0.402717	670.032
0.405042	672.381
0.40738	674.739
0.409732	677.105
0.412098	679.48
0.414477	681.862
0.416869	684.253
0.419276	686.652
0.421697	689.058
0.424131	691.472
0.42658	693.892
0.429042	696.32
0.431519	698.755
0.43401	701.196
0.436516	703.644
0.439036	706.097
0.44157	708.557
0.44412	711.022
0.446684	713.493
0.449262	715.968
0.451856	718.449
0.454465	720.934
0.457088	723.423
0.459727	725.916
0.462381	728.413
0.46505	730.913
0.467735	733.416
0.470435	735.921
0.473151	738.429
0.475883	740.939
0.47863	743.45
0.481393	745.947
0.484172	748.43
0.486968	750.913
0.489779	753.397
0.492606	755.881
0.49545	758.365
0.49831	760.85
0.501187	763.334
0.504081	765.818
0.506991	768.302
0.509918	770.785
0.512861	773.268
0.515822	775.751
0.5188	778.232
0.521795	780.712
0.524807	783.192
0.527837	785.67
0.530884	788.147
0.533949	790.622
0.537032	793.095
0.540132	795.567
0.54325	798.036
0.546387	800.504
0.549541	802.969
0.552713	805.431
0.555904	807.891
0.559114	810.349
0.562341	812.803
0.565588	815.254
0.568853	817.702
0.572137	820.146
0.57544	822.587
0.578762	825.024
0.582103	827.457
0.585464	829.886
0.588844	832.31
0.592243	834.731
0.595662	837.146
0.599101	839.556
0.60256	841.96
0.606038	844.358
0.609537	846.75
0.613056	849.137
0.616595	851.519
0.620155	853.895
0.623735	856.265
0.627336	858.63
0.630957	860.988
0.6346	863.341
0.638263	865.687
0.641948	868.027
0.645654	870.361
0.649382	872.689
0.653131	875.01
0.656901	877.325
0.660693	879.633
0.664508	881.934
0.668344	884.229
0.672202	886.516
0.676083	888.797
0.679986	891.071
0.683912	893.337
0.68786	895.597
0.691831	897.849
0.695825	900.094
0.699842	902.332
0.703882	904.562
0.707946	906.785
0.712033	909
0.716143	911.208
0.720278	913.408
0.724436	915.6
0.728618	917.785
0.732825	919.962
0.737055	922.131
0.74131	924.293
0.74559	926.446
0.749894	928.592
0.754223	930.729
0.758578	932.859
0.762957	934.981
0.767361	937.094
0.771792	939.2
0.776247	941.297
0.780728	943.386
0.785236	945.467
0.789769	947.54
0.794328	949.605
0.798914	951.662
0.803526	953.711
0.808165	955.751
0.812831	957.784
0.817523	959.808
0.822243	961.825
0.82699	963.833
0.831764	965.834
0.836566	967.826
0.841395	969.811
0.846253	971.789
0.851138	973.758
0.856052	975.72
0.860994	977.673
0.865964	979.619
0.870964	981.557
0.875992	983.487
0.881049	985.409
0.886135	987.324
0.891251	989.23
0.896396	991.128
0.901571	993.018
0.906776	994.9
0.912011	996.774
0.917276	998.641
0.922571	1000.5
0.927897	1002.35
0.933254	1004.19
0.938642	1006.03
0.944061	1007.85
0.949511	1009.67
0.954993	1011.48
0.960506	1013.29
0.966051	1015.09
0.971628	1016.87
0.977237	1018.66
0.982879	1020.43
0.988553	1022.2
0.99426	1023.95
1	1025.7
1.00577	1027.45
1.01158	1029.18
1.01742	1030.91
1.02329	1032.63
1.0292	1034.34
1.03514	1036.04
1.04112	1037.74
1.04713	1039.43
1.05317	1041.11
1.05925	1042.78
1.06537	1044.44
1.07152	1046.1
1.07771	1047.75
1.08393	1049.39
1.09018	1051.03
1.09648	1052.65
1.10281	1054.27
1.10917	1055.88
1.11558	1057.49
1.12202	1059.08
1.1285	1060.67
1.13501	1062.25
1.14156	1063.82
1.14815	1065.39
1.15478	1066.95
1.16145	1068.5
1.16815	1070.05
1.1749	1071.58
1.18168	1073.12
1.1885	1074.64
1.19536	1076.16
1.20226	1077.67
1.20921	1079.17
1.21619	1080.67
1.22321	1082.17
1.23027	1083.66
1.23737	1085.14
1.24451	1086.61
1.2517	1088.07
1.25893	1089.53
1.26619	1090.98
1.2735	1092.43
1.28086	1093.86
1.28825	1095.29
1.29569	1096.72
1.30317	1098.13
1.31069	1099.54
1.31826	1100.93
1.32587	1102.33
1.33352	1103.71
1.34122	1105.08
1.34896	1106.45
1.35675	1107.81
1.36458	1109.16
1.37246	1110.5
1.38038	1111.84
1.38835	1113.16
1.39637	1114.48
1.40443	1115.79
1.41254	1117.09
1.42069	1118.38
1.42889	1119.67
1.43714	1120.95
1.44544	1122.21
1.45378	1123.47
1.46218	1124.72
1.47062	1125.97
1.47911	1127.2
1.48765	1128.42
1.49624	1129.64
1.50487	1130.85
1.51356	1132.05
1.5223	1133.24
1.53109	1134.43
1.53993	1135.6
1.54882	1136.77
1.55776	1137.92
1.56675	1139.08
1.5758	1140.22
1.58489	1141.35
1.59404	1142.48
1.60325	1143.59
1.6125	1144.7
1.62181	1145.81
1.63117	1146.9
1.64059	1147.99
1.65006	1149.07
1.65959	1150.14
1.66917	1151.21
1.6788	1152.26
1.6885	1153.31
1.69824	1154.36
1.70805	1155.4
1.71791	1156.43
1.72783	1157.45
1.7378	1158.47
1.74783	1159.49
1.75792	1160.49
1.76807	1161.5
1.77828	1162.49
1.78855	1163.48
1.79887	1164.47
1.80926	1165.42
1.8197	1166.37
1.83021	1167.31
1.84077	1168.24
1.8514	1169.17
1.86209	1170.09
1.87284	1171.01
1.88365	1171.92
1.89452	1172.83
1.90546	1173.74
1.91646	1174.63
1.92752	1175.53
1.93865	1176.41
1.94984	1177.3
1.9611	1178.17
1.97242	1179.04
1.98381	1179.91
1.99526	1180.77
2.00678	1181.62
2.01837	1182.47
2.03002	1183.31
2.04174	1184.14
2.05353	1184.97
2.06538	1185.79
2.0773	1186.61
2.0893	1187.42
2.10136	1188.22
2.11349	1189.01
2.12569	1189.8
2.13796	1190.59
2.1503	1191.36
2.16272	1192.13
2.1752	1192.89
2.18776	1193.65
2.20039	1194.4
2.21309	1195.14
2.22587	1195.87
2.23872	1196.6
2.25165	1197.32
2.26464	1198.03
2.27772	1198.74
2.29087	1199.43
2.30409	1200.12
2.31739	1200.81
2.33077	1201.48
2.34423	1202.15
2.35776	1202.81
2.37137	1203.46
2.38506	1204.11
2.39883	1204.74
2.41268	1205.38
2.42661	1206.01
2.44062	1206.63
2.45471	1207.24
2.46888	1207.84
2.48313	1208.44
2.49747	1209.03
2.51189	1209.61
2.52639	1210.18
2.54097	1210.74
2.55564	1211.3
2.5704	1211.85
2.58523	1212.39
2.60016	1212.92
2.61517	1213.44
2.63027	1213.96
2.64545	1214.46
2.66073	1214.96
2.67609	1215.45
2.69153	1215.94
2.70707	1216.41
2.7227	1216.88
2.73842	1217.34
2.75423	1217.79
2.77013	1218.23
2.78612	1218.66
2.80221	1219.09
2.81838	1219.51
2.83465	1219.92
2.85102	1220.32
2.86748	1220.71
2.88403	1221.1
2.90068	1221.48
2.91743	1221.85
2.93427	1222.21
2.95121	1222.57
2.96825	1222.92
2.98538	1223.26
3.00262	1223.59
3.01995	1223.92
3.03739	1224.24
3.05492	1224.55
3.07256	1224.85
3.0903	1225.15
3.10814	1225.44
3.12608	1225.72
3.14413	1226
3.16228	1226.26
3.18053	1226.52
3.1989	1226.77
3.21736	1227.02
3.23594	1227.25
3.25462	1227.48
3.27341	1227.7
3.2923	1227.91
3.31131	1228.11
3.33043	1228.31
3.34965	1228.49
3.36899	1228.67
3.38844	1228.84
3.408	1229
3.42768	1229.16
3.44747	1229.3
3.46737	1229.44
3.48739	1229.56
3.50752	1229.68
3.52777	1229.79
3.54813	1229.9
3.56862	1229.99
3.58922	1230.07
3.60994	1230.15
3.63078	1230.22
3.65174	1230.28
3.67282	1230.33
3.69403	1230.37
3.71535	1230.4
3.7368	1230.43
3.75837	1230.44
3.78007	1230.45
3.80189	1230.45
3.82384	1230.43
3.84592	1230.41
3.86812	1230.38
3.89045	1230.34
3.91291	1230.29
3.9355	1230.23
3.95822	1230.16
3.98107	1230.08
4.00405	1229.99
4.02717	1229.9
4.05042	1229.79
4.0738	1229.67
4.09732	1229.54
4.12098	1229.4
4.14477	1229.26
4.16869	1229.1
4.19276	1228.93
4.21697	1228.76
4.24131	1228.57
4.2658	1228.37
4.29042	1228.16
4.31519	1227.95
4.3401	1227.72
4.36516	1227.48
4.39036	1227.24
4.4157	1226.98
4.4412	1226.71
4.46684	1226.44
4.49262	1226.15
4.51856	1225.85
4.54465	1225.55
4.57088	1225.23
4.59727	1224.9
4.62381	1224.57
4.6505	1224.22
4.67735	1223.86
4.70435	1223.5
4.73151	1223.12
4.75883	1222.74
4.7863	1222.34
4.81393	1221.93
4.84172	1221.51
4.86968	1221.09
4.89779	1220.65
4.92606	1220.2
4.9545	1219.74
4.9831	1219.27
5.01187	1218.79
5.04081	1218.3
5.06991	1217.81
5.09918	1217.3
5.12861	1216.78
5.15822	1216.25
5.188	1215.72
5.21795	1215.17
5.24807	1214.61
5.27837	1214.04
5.30884	1213.46
5.33949	1212.87
5.37032	1212.27
5.40132	1211.66
5.4325	1211.04
5.46387	1210.41
5.49541	1209.77
5.52713	1209.12
5.55904	1208.46
5.59114	1207.78
5.62341	1207.1
5.65588	1206.41
5.68853	1205.7
5.72137	1204.99
5.7544	1204.26
5.78762	1203.53
5.82103	1202.78
5.85464	1202.03
5.88844	1201.26
5.92243	1200.48
5.95662	1199.69
5.99101	1198.9
6.0256	1198.09
6.06038	1197.27
6.09537	1196.44
6.13056	1195.6
6.16595	1194.75
6.20155	1193.89
6.23735	1193.02
6.27336	1192.14
6.30957	1191.25
6.346	1190.35
6.38263	1189.44
6.41948	1188.52
6.45654	1187.58
6.49382	1186.64
6.53131	1185.68
6.56901	1184.72
6.60693	1183.74
6.64508	1182.76
6.68344	1181.76
6.72202	1180.76
6.76083	1179.74
6.79986	1178.71
6.83912	1177.67
6.8786	1176.63
6.91831	1175.57
6.95825	1174.5
6.99842	1173.42
7.03882	1172.34
7.07946	1171.24
7.12033	1170.13
7.16143	1169.01
7.20278	1167.89
7.24436	1166.75
7.28618	1165.6
7.32825	1164.45
7.37055	1163.28
7.4131	1162.11
7.4559	1160.92
7.49894	1159.73
7.54223	1158.52
7.58578	1157.31
7.62957	1156.09
7.67361	1154.86
7.71792	1153.61
7.76247	1152.36
7.80728	1151.1
7.85236	1149.83
7.89769	1148.55
7.94328	1147.26
7.98914	1145.96
8.03526	1144.66
8.08165	1143.34
8.12831	1142.01
8.17523	1140.68
8.22243	1139.34
8.2699	1137.98
8.31764	1136.62
8.36566	1135.25
8.41395	1133.87
8.46253	1132.48
8.51138	1131.09
8.56052	1129.68
8.60994	1128.27
8.65964	1126.84
8.70964	1125.41
8.75992	1123.97
8.81049	1122.53
8.86135	1121.07
8.91251	1119.6
8.96396	1118.13
9.01571	1116.65
9.06776	1115.16
9.12011	1113.66
9.17276	1112.16
9.22571	1110.64
9.27897	1109.12
9.33254	1107.59
9.38642	1106.05
9.44061	1104.5
9.49511	1102.95
9.54993	1101.39
9.60506	1099.82
9.66051	1098.24
9.71628	1096.66
9.77237	1095.07
9.82879	1093.47
9.88553	1091.86
9.9426	1090.25
10	1088.63
10.0577	1087
10.1158	1085.37
10.1742	1083.72
10.2329	1082.07
10.292	1080.42
10.3514	1078.75
10.4112	1077.08
10.4713	1075.4
10.5317	1073.72
10.5925	1072.03
10.6537	1070.33
10.7152	1068.62
10.7771	1066.91
10.8393	1065.19
10.9018	1063.47
10.9648	1061.74
11.0281	1060
11.0917	1058.25
11.1558	1056.5
11.2202	1054.75
11.285	1052.99
11.3501	1051.22
11.4156	1049.44
11.4815	1047.66
11.5478	1045.87
11.6145	1044.08
11.6815	1042.29
11.749	1040.48
11.8168	1038.67
11.885	1036.86
11.9536	1035.04
12.0226	1033.22
12.0921	1031.39
12.1619	1029.55
12.2321	1027.71
12.3027	1025.87
12.3737	1024.02
12.4451	1022.16
12.517	1020.3
12.5893	1018.44
12.6619	1016.57
12.735	1014.69
12.8086	1012.81
12.8825	1010.93
12.9569	1009.04
13.0317	1007.15
13.1069	1005.25
13.1826	1003.35
13.2587	1001.44
13.3352	999.529
13.4122	997.612
13.4896	995.691
13.5675	993.766
13.6458	991.836
13.7246	989.901
13.8038	987.962
13.8835	986.019
13.9637	984.071
14.0443	982.119
14.1254	980.163
14.2069	978.202
14.2889	976.237
14.3714	974.268
14.4544	972.295
14.5378	970.318
14.6218	968.336
14.7062	966.351
14.7911	964.361
14.8765	962.367
14.9624	960.37
15.0487	958.369
15.1356	956.363
15.223	954.354
15.3109	952.341
15.3993	950.324
15.4882	948.304
15.5776	946.28
15.6675	944.252
15.758	942.221
15.8489	940.186
15.9404	938.147
16.0325	936.105
16.125	934.06
16.2181	932.011
16.3117	929.959
16.4059	927.904
16.5006	925.845
16.5959	923.784
16.6917	921.719
16.788	919.65
16.885	917.579
16.9824	915.505
17.0805	913.428
17.1791	911.348
17.2783	909.265
17.378	907.179
17.4783	905.09
17.5792	902.999
17.6807	900.905
17.7828	898.808
17.8855	896.709
17.9887	894.607
18.0926	892.516
18.197	890.424
18.3021	888.33
18.4077	886.234
18.514	884.135
18.6209	882.035
18.7284	879.932
18.8365	877.827
18.9452	875.721
19.0546	873.612
19.1646	871.501
19.2752	869.389
19.3865	867.275
19.4984	865.159
19.611	863.041
19.7242	860.922
19.8381	858.802
19.9526	856.679
20.0678	854.556
20.1837	852.431
20.3002	850.304
20.4174	848.177
20.5353	846.048
20.6538	843.918
20.773	841.787
20.893	839.655
21.0136	837.522
21.1349	835.388
21.2569	833.253
21.3796	831.117
21.503	828.98
21.6272	826.843
21.752	824.705
21.8776	822.566
22.0039	820.427
22.1309	818.287
22.2587	816.147
22.3872	814.006
22.5165	811.865
22.6464	809.724
22.7772	807.582
22.9087	805.441
23.0409	803.299
23.1739	801.156
23.3077	799.014
23.4423	796.872
23.5776	794.73
23.7137	792.587
23.8506	790.445
23.9883	788.303
24.1268	786.156
24.2661	784.008
24.4062	781.861
24.5471	779.714
24.6888	777.567
24.8313	775.421
24.9747	773.275
25.1189	771.13
25.2639	768.985
25.4097	766.841
25.5564	764.697
25.704	762.554
25.8523	760.411
26.0016	758.27
26.1517	756.129
26.3027	753.989
26.4545	751.85
26.6073	749.711
26.7609	747.574
26.9153	745.438
27.0707	743.302
27.227	741.168
27.3842	739.034
27.5423	736.902
27.7013	734.77
27.8612	732.64
28.0221	730.511
28.1838	728.383
28.3465	726.256
28.5102	724.13
28.6748	722.005
28.8403	719.882
29.0068	717.759
29.1743	715.638
29.3427	713.518
29.5121	711.399
29.6825	709.281
29.8538	707.164
30.0262	705.049
30.1995	702.934
30.3739	700.82
30.5492	698.707
30.7256	696.596
30.903	694.486
31.0814	692.377
31.2608	690.27
31.4413	688.164
31.6228	686.06
31.8053	683.957
31.989	681.856
32.1736	679.756
32.3594	677.658
32.5462	675.562
32.7341	673.467
32.923	671.375
33.1131	669.284
33.3043	667.195
33.4965	665.108
33.6899	663.022
33.8844	660.939
34.08	658.858
34.2768	656.779
34.4747	654.701
34.6737	652.626
34.8739	650.553
35.0752	648.482
35.2777	646.413
35.4813	644.346
35.6862	642.281
35.8922	640.218
36.0994	638.156
36.3078	636.095
36.5174	634.035
36.7282	631.979
36.9403	629.924
37.1535	627.872
37.368	625.822
37.5837	623.774
37.8007	621.729
38.0189	619.687
38.2384	617.647
38.4592	615.61
38.6812	613.576
38.9045	611.544
39.1291	609.515
39.355	607.489
39.5822	605.466
39.8107	603.446
40.0405	601.429
40.2717	599.415
40.5042	597.404
40.738	595.396
40.9732	593.391
41.2098	591.389
41.4477	589.39
41.6869	587.395
41.9276	585.402
42.1697	583.413
42.4131	581.427
42.658	579.445
42.9042	577.465
43.1519	575.489
43.401	573.516
43.6516	571.547
43.9036	569.58
44.157	567.617
44.412	565.657
44.6684	563.7
44.9262	561.747
45.1856	559.796
45.4465	557.849
45.7088	555.905
45.9727	553.964
46.2381	552.025
46.505	550.09
46.7735	548.158
47.0435	546.228
47.3151	544.301
47.5883	542.377
47.863	540.456
48.1393	538.542
48.4172	536.636
48.6968	534.732
48.9779	532.831
49.2606	530.933
49.545	529.038
49.831	527.145
50.1187	525.256
50.4081	523.369
50.6991	521.486
50.9918	519.606
51.2861	517.729
51.5822	515.856
51.88	513.986
52.1795	512.119
52.4807	510.256
52.7837	508.397
53.0884	506.541
53.3949	504.688
53.7032	502.84
54.0132	500.995
54.325	499.154
54.6387	497.317
54.9541	495.483
55.2713	493.654
55.5904	491.828
55.9114	490.007
56.2341	488.189
56.5588	486.376
56.8853	484.567
57.2137	482.762
57.544	480.961
57.8762	479.164
58.2103	477.371
58.5464	475.583
58.8844	473.799
59.2243	472.019
59.5662	470.243
59.9101	468.472
60.256	466.702
60.6038	464.937
60.9537	463.175
61.3056	461.418
61.6595	459.665
62.0155	457.916
62.3735	456.172
62.7336	454.433
63.0957	452.698
63.46	450.967
63.8263	449.241
64.1948	447.52
64.5654	445.803
64.9382	444.091
65.3131	442.383
65.6901	440.68
66.0693	438.982
66.4508	437.288
66.8344	435.599
67.2202	433.914
67.6083	432.234
67.9986	430.559
68.3912	428.888
68.786	427.222
69.1831	425.561
69.5825	423.903
69.9842	422.251
70.3882	420.602
70.7946	418.958
71.2033	417.319
71.6143	415.683
72.0278	414.052
72.4436	412.425
72.8618	410.802
73.2825	409.183
73.7055	407.568
74.131	405.958
74.559	404.352
74.9894	402.75
75.4223	401.153
75.8578	399.56
76.2957	397.972
76.7361	396.388
77.1792	394.809
77.6247	393.234
78.0728	391.664
78.5236	390.098
78.9769	388.537
79.4328	386.981
79.8914	385.429
80.3526	383.882
80.8165	382.339
81.2831	380.801
81.7523	379.267
82.2243	377.739
82.699	376.214
83.1764	374.694
83.6566	373.179
84.1395	371.668
84.6253	370.162
85.1138	368.661
85.6052	367.163
86.0994	365.671
86.5964	364.183
87.0964	362.699
87.5992	361.22
88.1049	359.746
88.6135	358.277
89.1251	356.812
89.6396	355.352
90.1571	353.896
90.6776	352.446
91.2011	350.999
91.7276	349.558
92.2571	348.121
92.7897	346.689
93.3254	345.261
93.8642	343.838
94.4061	342.42
94.9511	341.006
95.4993	339.597
96.0506	338.192
96.6051	336.791
97.1628	335.395
97.7237	334.003
98.2879	332.616
98.8553	331.234
99.426	329.856
100	328.482
100.577	327.113
101.158	325.749
101.742	324.389
102.329	323.035
102.92	321.684
103.514	320.339
104.112	318.998
104.713	317.661
105.317	316.33
105.925	315.003
106.537	313.68
107.152	312.363
107.771	311.05
108.393	309.741
109.018	308.437
109.648	307.138
110.281	305.843
110.917	304.552
111.558	303.267
112.202	301.985
112.85	300.708
113.501	299.436
114.156	298.167
114.815	296.904
115.478	295.644
116.145	294.389
116.815	293.137
117.49	291.89
118.168	290.647
118.85	289.408
119.536	288.172
120.226	286.94
120.921	285.71
121.619	284.483
122.321	283.261
123.027	282.042
123.737	280.827
124.451	279.616
125.17	278.409
125.893	277.207
126.619	276.008
127.35	274.814
128.086	273.624
128.825	272.438
129.569	271.256
130.317	270.079
131.069	268.907
131.826	267.739
132.587	266.575
133.352	265.416
134.122	264.261
134.896	263.111
135.675	261.966
136.458	260.825
137.246	259.69
138.038	258.558
138.835	257.432
139.637	256.31
140.443	255.194
141.254	254.082
142.069	252.975
142.889	251.873
143.714	250.775
144.544	249.683
145.378	248.595
146.218	247.513
147.062	246.435
147.911	245.362
148.765	244.294
149.624	243.231
150.487	242.172
151.356	241.119
152.23	240.07
153.109	239.026
153.993	237.987
154.882	236.953
155.776	235.923
156.675	234.898
157.58	233.878
158.489	232.862
159.404	231.851
160.325	230.844
161.25	229.842
162.181	228.844
163.117	227.85
164.059	226.86
165.006	225.875
165.959	224.893
166.917	223.915
167.88	222.942
168.85	221.971
169.824	221.005
170.805	220.042
171.791	219.082
172.783	218.125
173.78	217.172
174.783	216.221
175.792	215.273
176.807	214.328
177.828	213.385
178.855	212.444
179.887	211.506
180.926	210.591
181.97	209.682
183.021	208.774
184.077	207.869
185.14	206.965
186.209	206.064
187.284	205.165
188.365	204.269
189.452	203.375
190.546	202.483
191.646	201.594
192.752	200.707
193.865	199.822
194.984	198.941
196.11	198.062
197.242	197.185
198.381	196.312
199.526	195.441
200.678	194.572
201.837	193.707
203.002	192.845
204.174	191.985
205.353	191.129
206.538	190.275
207.73	189.425
208.93	188.577
210.136	187.733
211.349	186.892
212.569	186.054
213.796	185.219
215.03	184.388
216.272	183.559
217.52	182.734
218.776	181.913
220.039	181.095
221.309	180.28
222.587	179.468
223.872	178.661
225.165	177.856
226.464	177.055
227.772	176.258
229.087	175.464
230.409	174.673
231.739	173.887
233.077	173.103
234.423	172.324
235.776	171.548
237.137	170.775
238.506	170.007
239.883	169.242
241.268	168.476
242.661	167.714
244.062	166.955
245.471	166.2
246.888	165.449
248.313	164.702
249.747	163.958
251.189	163.218
252.639	162.481
254.097	161.748
255.564	161.019
257.04	160.294
258.523	159.572
260.016	158.854
261.517	158.139
263.027	157.429
264.545	156.722
266.073	156.018
267.609	155.318
269.153	154.622
270.707	153.929
272.27	153.24
273.842	152.554
275.423	151.872
277.013	151.193
278.612	150.517
280.221	149.845
281.838	149.176
283.465	148.51
285.102	147.848
286.748	147.188
288.403	146.532
290.068	145.879
291.743	145.228
293.427	144.58
295.121	143.935
296.825	143.293
298.538	142.653
300.262	142.016
301.995	141.381
303.739	140.748
305.492	140.118
307.256	139.49
309.03	138.864
310.814	138.241
312.608	137.621
314.413	137.003
316.228	136.387
318.053	135.774
319.89	135.164
321.736	134.556
323.594	133.95
325.462	133.348
327.341	132.747
329.23	132.15
331.131	131.555
333.043	130.962
334.965	130.372
336.899	129.785
338.844	129.2
340.8	128.618
342.768	128.038
344.747	127.461
346.737	126.886
348.739	126.314
350.752	125.745
352.777	125.178
354.813	124.613
356.862	124.051
358.922	123.491
360.994	122.933
363.078	122.377
365.174	121.823
367.282	121.272
369.403	120.723
371.535	120.177
373.68	119.633
375.837	119.091
378.007	118.552
380.189	118.016
382.384	117.482
384.592	116.951
386.812	116.422
389.045	115.895
391.291	115.372
393.55	114.851
395.822	114.332
398.107	113.816
400.405	113.303
402.717	112.792
405.042	112.284
407.38	111.778
409.732	111.275
412.098	110.775
414.477	110.277
416.869	109.782
419.276	109.289
421.697	108.799
424.131	108.311
426.58	107.826
429.042	107.343
431.519	106.862
434.01	106.385
436.516	105.909
439.036	105.436
441.57	104.965
444.12	104.497
446.684	104.031
449.262	103.567
451.856	103.105
454.465	102.646
457.088	102.188
459.727	101.733
462.381	101.28
465.05	100.828
467.735	100.379
470.435	99.931
473.151	99.4851
475.883	99.0409
478.63	98.5983
481.393	98.1592
484.172	97.7235
486.968	97.2894
489.779	96.8569
492.606	96.426
495.45	95.9967
498.31	95.569
501.187	95.143
504.081	94.7186
506.991	94.2959
509.918	93.875
512.861	93.4557
515.822	93.0382
518.8	92.6224
521.795	92.2083
524.807	91.796
527.837	91.3855
530.884	90.9768
533.949	90.5699
537.032	90.1648
540.132	89.7615
543.25	89.3601
546.387	88.9605
549.541	88.5627
552.713	88.1667
555.904	87.7726
559.114	87.3804
562.341	86.99
565.588	86.6015
568.853	86.2148
572.137	85.83
575.44	85.447
578.762	85.0659
582.103	84.6866
585.464	84.3091
588.844	83.9335
592.243	83.5597
595.662	83.1877
599.101	82.8175
602.56	82.4485
606.038	82.081
609.537	81.7153
613.056	81.3514
616.595	80.9893
620.155	80.629
623.735	80.2705
627.336	79.9138
630.957	79.5589
634.6	79.2058
638.263	78.8544
641.948	78.5049
645.654	78.1572
649.382	77.8112
653.131	77.4671
656.901	77.1247
660.693	76.784
664.508	76.4451
668.344	76.1079
672.202	75.7725
676.083	75.4387
679.986	75.1066
683.912	74.7762
687.86	74.4475
691.831	74.1203
695.825	73.7948
699.842	73.4708
703.882	73.1484
707.946	72.8275
712.033	72.5081
716.143	72.1901
720.278	71.8735
724.436	71.5583
728.618	71.2445
732.825	70.932
737.055	70.621
741.31	70.3114
745.59	70.0031
749.894	69.6963
754.223	69.3909
758.578	69.087
762.957	68.7844
767.361	68.4833
771.792	68.1837
776.247	67.8854
780.728	67.5886
785.236	67.2932
789.769	66.9993
794.328	66.7068
798.914	66.4157
803.526	66.126
808.165	65.8377
812.831	65.5508
817.523	65.2653
822.243	64.9812
826.99	64.6985
831.764	64.4171
836.566	64.1371
841.395	63.8584
846.253	63.581
851.138	63.3049
856.052	63.0302
860.994	62.7568
865.964	62.4848
870.964	62.214
875.992	61.9446
881.049	61.6766
886.135	61.4098
891.251	61.1444
896.396	60.8803
901.571	60.6174
906.776	60.3559
912.011	60.0957
917.276	59.8368
922.571	59.5792
927.897	59.3228
933.254	59.0677
938.642	58.8139
944.061	58.5613
949.511	58.3098
954.993	58.0596
960.506	57.8106
966.051	57.5627
971.628	57.3161
977.237	57.0705
982.879	56.8262
988.553	56.583
994.26	56.3411
1000	56.1003
1005.77	55.8607
1011.58	55.6222
1017.42	55.385
1023.29	55.1489
1029.2	54.9141
1035.14	54.6804
1041.12	54.4478
1047.13	54.2165
1053.17	53.9863
1059.25	53.7573
1065.37	53.5294
1071.52	53.3027
1077.71	53.0771
1083.93	52.8526
1090.18	52.6292
1096.48	52.407
1102.81	52.1858
1109.17	51.9658
1115.58	51.7468
1122.02	51.529
1128.5	51.3121
1135.01	51.0964
1141.56	50.8816
1148.15	50.6679
1154.78	50.4552
1161.45	50.2435
1168.15	50.0328
1174.9	49.823
1181.68	49.6141
1188.5	49.4062
1195.36	49.1991
1202.26	48.9927
1209.21	48.7869
1216.19	48.582
1223.21	48.3779
1230.27	48.1746
1237.37	47.9723
1244.51	47.7709
1251.7	47.5703
1258.93	47.3707
1266.19	47.172
1273.5	46.9743
1280.86	46.7775
1288.25	46.5816
1295.69	46.3867
1303.17	46.1928
1310.69	45.9998
1318.26	45.8078
1325.87	45.6168
1333.52	45.4268
1341.22	45.2378
1348.96	45.0498
1356.75	44.8629
1364.58	44.6769
1372.46	44.492
1380.38	44.3081
1388.35	44.1252
1396.37	43.9433
1404.43	43.7625
1412.54	43.5828
1420.69	43.404
1428.89	43.2263
1437.14	43.0497
1445.44	42.8741
1453.78	42.6995
1462.18	42.526
1470.62	42.3535
1479.11	42.1821
1487.65	42.0117
1496.24	41.8423
1504.87	41.6739
1513.56	41.5066
1522.3	41.3403
1531.09	41.175
1539.93	41.0107
1548.82	40.8474
1557.76	40.685
1566.75	40.5237
1575.8	40.3633
1584.89	40.2038
1594.04	40.0453
1603.25	39.8877
1612.5	39.7311
1621.81	39.5753
1631.17	39.4204
1640.59	39.2663
1650.06	39.1131
1659.59	38.9607
1669.17	38.8091
1678.8	38.6583
1688.5	38.5082
1698.24	38.3589
1708.05	38.2103
1717.91	38.0602
1727.83	37.9009
1737.8	37.7425
1747.83	37.5847
1757.92	37.4275
1768.07	37.271
1778.28	37.1151
1788.55	36.9597
1798.87	36.8048
1809.26	36.6545
1819.7	36.5052
1830.21	36.3564
1840.77	36.2081
1851.4	36.0603
1862.09	35.913
1872.84	35.7663
1883.65	35.6201
1894.52	35.4744
1905.46	35.3292
1916.46	35.1847
1927.52	35.0406
1938.65	34.8972
1949.84	34.7543
1961.1	34.612
1972.42	34.4703
1983.81	34.3291
1995.26	34.1886
2006.78	34.0487
2018.37	33.9094
2030.02	33.7707
2041.74	33.6326
2053.53	33.4951
2065.38	33.3583
2077.3	33.2222
2089.3	33.0866
2101.36	32.9518
2113.49	32.8176
2125.69	32.684
2137.96	32.5511
2150.3	32.4189
2162.72	32.2874
2175.2	32.1565
2187.76	32.0264
2200.39	31.8969
2213.09	31.7682
2225.87	31.6401
2238.72	31.5127
2251.65	31.3861
2264.64	31.2601
2277.72	31.1349
2290.87	31.0104
2304.09	30.8866
2317.39	30.7635
2330.77	30.6412
2344.23	30.5196
2357.76	30.3987
2371.37	30.2785
2385.06	30.1591
2398.83	30.0404
2412.68	29.9218
2426.61	29.8039
2440.62	29.6866
2454.71	29.5702
2468.88	29.4544
2483.13	29.3394
2497.47	29.2252
2511.89	29.1116
2526.39	28.9988
2540.97	28.8867
2555.64	28.7754
2570.4	28.6647
2585.23	28.5548
2600.16	28.4457
2615.17	28.3372
2630.27	28.2294
2645.45	28.1224
2660.73	28.0161
2676.09	27.9104
2691.53	27.8055
2707.07	27.7012
2722.7	27.5977
2738.42	27.4948
2754.23	27.3925
2770.13	27.291
2786.12	27.19
2802.21	27.0898
2818.38	26.9901
2834.65	26.8911
2851.02	26.7926
2867.48	26.6948
2884.03	26.5975
2900.68	26.5008
2917.43	26.4047
2934.27	26.3091
2951.21	26.214
2968.25	26.1194
2985.38	26.0253
3002.62	25.9317
3019.95	25.8385
3037.39	25.7457
3054.92	25.6534
3072.56	25.5616
3090.3	25.4702
3108.14	25.3793
3126.08	25.2888
3144.13	25.1988
3162.28	25.1093
3180.53	25.0202
3198.9	24.9316
3217.36	24.8435
3235.94	24.7558
3254.62	24.6687
3273.41	24.582
3292.3	24.4957
3311.31	24.41
3330.43	24.3247
3349.65	24.2399
3368.99	24.1556
3388.44	24.0717
3408	23.9883
3427.68	23.9054
3447.47	23.8229
3467.37	23.7409
3487.39	23.6593
3507.52	23.5783
3527.77	23.4976
3548.13	23.4175
3568.62	23.3377
3589.22	23.2584
3609.94	23.1795
3630.78	23.1009
3651.74	23.0228
3672.82	22.9451
3694.03	22.8678
3715.35	22.791
3736.8	22.7146
3758.37	22.6387
3780.07	22.5632
3801.89	22.4882
3823.84	22.4137
3845.92	22.3395
3868.12	22.2659
3890.45	22.1927
3912.91	22.12
3935.5	22.0477
3958.22	21.9759
3981.07	21.9045
4004.05	21.8336
4027.17	21.7632
4050.42	21.6932
4073.8	21.6237
4097.32	21.5546
4120.98	21.486
4144.77	21.4178
4168.69	21.3501
4192.76	21.2828
4216.97	21.216
4241.31	21.1496
4265.8	21.0837
4290.42	21.0182
4315.19	20.9531
4340.1	20.8884
4365.16	20.8242
4390.36	20.7604
4415.7	20.697
4441.2	20.634
4466.84	20.5714
4492.62	20.5092
4518.56	20.4473
4544.65	20.3859
4570.88	20.3248
4597.27	20.2641
4623.81	20.2037
4650.5	20.1437
4677.35	20.084
4704.35	20.0247
4731.51	19.9656
4758.83	19.9069
4786.3	19.8484
4813.93	19.7905
4841.72	19.7332
4869.68	19.6761
4897.79	19.6193
4926.06	19.5628
4954.5	19.5066
4983.1	19.4506
5011.87	19.395
5040.81	19.3396
5069.91	19.2845
5099.18	19.2298
5128.61	19.1753
5158.22	19.1211
5188	19.0672
5217.95	19.0137
5248.07	18.9604
5278.37	18.9074
5308.84	18.8547
5339.49	18.8024
5370.32	18.7503
5401.32	18.6986
5432.5	18.6471
5463.87	18.596
5495.41	18.5452
5527.13	18.4947
5559.04	18.4445
5591.14	18.3946
5623.41	18.3451
5655.88	18.2958
5688.53	18.2469
5721.37	18.1982
5754.4	18.1499
5787.62	18.1019
5821.03	18.0542
5854.64	18.0068
5888.44	17.9597
5922.43	17.9129
5956.62	17.8665
5991.01	17.8203
6025.6	17.7743
6060.38	17.7286
6095.37	17.6832
6130.56	17.6381
6165.95	17.5933
6201.55	17.5488
6237.35	17.5045
6273.36	17.4606
6309.57	17.417
6346	17.3737
6382.63	17.3307
6419.48	17.2879
6456.54	17.2455
6493.82	17.2034
6531.31	17.1615
6569.01	17.12
6606.93	17.0787
6645.08	17.0377
6683.44	16.997
6722.02	16.9566
6760.83	16.9165
6799.86	16.8766
6839.12	16.837
6878.6	16.7977
6918.31	16.7587
6958.25	16.7199
6998.42	16.6814
7038.82	16.6431
7079.46	16.6051
7120.33	16.5673
7161.43	16.5298
7202.78	16.4925
7244.36	16.4554
7286.18	16.4186
7328.25	16.3819
7370.55	16.3456
7413.1	16.3094
7455.9	16.2735
7498.94	16.2378
7542.23	16.2023
7585.78	16.1671
7629.57	16.1321
7673.61	16.0973
7717.92	16.0628
7762.47	16.0285
7807.28	15.9945
7852.36	15.9606
7897.69	15.927
7943.28	15.8937
7989.14	15.8605
8035.26	15.8276
8081.65	15.7949
8128.31	15.7625
8175.23	15.7302
8222.43	15.6982
8269.9	15.6664
8317.64	15.6349
8365.66	15.6035
8413.95	15.5724
8462.53	15.5415
8511.38	15.5107
8560.52	15.4802
8609.94	15.45
8659.64	15.4199
8709.64	15.39
8759.92	15.3604
8810.49	15.331
8861.35	15.3017
8912.51	15.2727
8963.96	15.2439
9015.71	15.2153
9067.76	15.187
9120.11	15.1588
9172.76	15.1308
9225.71	15.1031
9278.97	15.0755
9332.54	15.0481
9386.42	15.021
9440.61	14.994
9495.11	14.9673
9549.93	14.9407
9605.06	14.9143
9660.51	14.8881
9716.28	14.8621
9772.37	14.8363
9828.79	14.8106
9885.53	14.7852
9942.6	14.7599
10000	14.7349
10057.7	14.71
10115.8	14.6853
10174.2	14.6607
10232.9	14.6364
10292	14.6122
10351.4	14.5883
10411.2	14.5645
10471.3	14.5408
10531.7	14.5174
10592.5	14.4941
10653.7	14.471
10715.2	14.4481
10777.1	14.4253
10839.3	14.4027
10901.8	14.3802
10964.8	14.3579
11028.1	14.3358
11091.7	14.3138
11155.8	14.292
11220.2	14.2703
11285	14.2488
11350.1	14.2274
11415.6	14.2061
11481.5	14.1849
11547.8	14.1639
11614.5	14.143
11681.5	14.1222
11749	14.1015
11816.8	14.0809
11885	14.0605
11953.6	14.0401
12022.6	14.0196
12092.1	13.9987
12161.9	13.9781
12232.1	13.9576
12302.7	13.9373
12373.7	13.9171
12445.1	13.8971
12517	13.8772
12589.3	13.8575
12661.9	13.8379
12735	13.8185
12808.6	13.7993
12882.5	13.7802
12956.9	13.7612
13031.7	13.7424
13106.9	13.7237
13182.6	13.7052
13258.7	13.6869
13335.2	13.6686
13412.2	13.6506
13489.6	13.6326
13567.5	13.6148
13645.8	13.5972
13724.6	13.5797
13803.8	13.5623
13883.5	13.5451
13963.7	13.528
14044.3	13.5111
14125.4	13.4943
14206.9	13.4776
14288.9	13.4611
14371.4	13.4447
14454.4	13.4284
14537.8	13.4123
14621.8	13.3963
14706.2	13.3804
14791.1	13.3647
14876.5	13.3491
14962.4	13.3336
15048.7	13.3183
15135.6	13.303
15223	13.288
15310.9	13.273
15399.3	13.2582
15488.2	13.2435
15577.6	13.2289
15667.5	13.2144
15758	13.2001
15848.9	13.1859
15940.4	13.1718
16032.5	13.1578
16125	13.144
16218.1	13.1303
16311.7	13.1166
16405.9	13.1032
16500.6	13.0898
16595.9	13.0765
16691.7	13.0634
16788	13.0504
16885	13.0375
16982.4	13.0247
17080.5	13.012
17179.1	12.9994
17278.3	12.987
17378	12.9747
17478.3	12.9624
17579.2	12.9503
17680.7	12.9383
17782.8	12.9264
17885.5	12.9146
17988.7	12.9029
18092.6	12.8914
18197	12.8799
18302.1	12.8685
18407.7	12.8573
18514	12.8461
18620.9	12.8351
18728.4	12.8242
18836.5	12.8133
18945.2	12.8026
19054.6	12.7919
19164.6	12.7814
19275.2	12.771
19386.5	12.7606
19498.4	12.7504
19611	12.7403
19724.2	12.7302
19838.1	12.7203
19952.6	12.7105
20067.8	12.7007
20183.7	12.6911
20300.2	12.6815
20417.4	12.6721
20535.3	12.6627
20653.8	12.6534
20773	12.6442
20893	12.6352
21013.6	12.6262
21134.9	12.6173
21256.9	12.6084
21379.6	12.5997
21503	12.5911
21627.2	12.5825
21752	12.5741
21877.6	12.5657
22003.9	12.5574
22130.9	12.5492
22258.7	12.5411
22387.2	12.5331
22516.5	12.5252
22646.4	12.5173
22777.2	12.5095
22908.7	12.5019
23040.9	12.4942
23173.9	12.4867
23307.7	12.4793
23442.3	12.4719
23577.6	12.4647
23713.7	12.4575
23850.6	12.4503
23988.3	12.4433
24126.8	12.4363
24266.1	12.4295
24406.2	12.4227
24547.1	12.4159
24688.8	12.4093
24831.3	12.4027
24974.7	12.3962
25118.9	12.3898
25263.9	12.3834
25409.7	12.3772
25556.4	12.371
25704	12.3648
25852.3	12.3588
26001.6	12.3528
26151.7	12.3469
26302.7	12.341
26454.5	12.3353
26607.3	12.3296
26760.9	12.324
26915.3	12.3184
27070.7	12.3129
27227	12.3075
27384.2	12.3021
27542.3	12.2968
27701.3	12.2916
27861.2	12.2865
28022.1	12.2814
28183.8	12.2764
28346.5	12.2714
28510.2	12.2665
28674.8	12.2617
28840.3	12.2569
29006.8	12.2522
29174.3	12.2476
29342.7	12.243
29512.1	12.2385
29682.5	12.234
29853.8	12.2297
30026.2	12.2253
30199.5	12.2211
30373.9	12.2168
30549.2	12.2127
30725.6	12.2086
30903	12.2046
31081.4	12.2006
31260.8	12.1967
31441.3	12.1928
31622.8	12.189
31805.3	12.1853
31989	12.1816
32173.6	12.178
32359.4	12.1744
32546.2	12.1709
32734.1	12.1674
32923	12.164
33113.1	12.1606
33304.3	12.1573
33496.5	12.154
33689.9	12.1508
33884.4	12.1477
34080	12.1446
34276.8	12.1415
34474.7	12.1385
34673.7	12.1356
34873.9	12.1327
35075.2	12.1299
35277.7	12.1271
35481.3	12.1243
35686.2	12.1216
35892.2	12.119
36099.4	12.1164
36307.8	12.1138
36517.4	12.1113
36728.2	12.1088
36940.3	12.1064
37153.5	12.104
37368	12.1017
37583.7	12.0994
37800.7	12.0972
38018.9	12.095
38238.4	12.0929
38459.2	12.0908
38681.2	12.0887
38904.5	12.0867
39129.1	12.0847
39355	12.0828
39582.2	12.0809
39810.7	12.0791
40040.5	12.0773
40271.7	12.0755
40504.2	12.0738
40738	12.0721
40973.2	12.0704
41209.8	12.0688
41447.7	12.0673
41686.9	12.0658
41927.6	12.0643
42169.7	12.0628
42413.1	12.0614
42658	12.06
42904.2	12.0587
43151.9	12.0574
43401	12.0562
43651.6	12.0549
43903.6	12.0538
44157	12.0526
44412	12.0515
44668.4	12.0504
44926.2	12.0494
45185.6	12.0484
45446.5	12.0474
45708.8	12.0464
45972.7	12.0455
46238.1	12.0447
46505	12.0438
46773.5	12.043
47043.5	12.0422
47315.1	12.0415
47588.3	12.0408
47863	12.0401
48139.3	12.0395
48417.2	12.0388
48696.8	12.0382
48977.9	12.0377
49260.6	12.0372
49545	12.0367
49831	12.0362
50118.7	12.0358
50408.1	12.0354
50699.1	12.035
50991.8	12.0346
51286.1	12.0343
51582.2	12.034
51880	12.0338
52179.5	12.0335
52480.7	12.0333
52783.7	12.0331
53088.4	12.033
53394.9	12.0329
53703.2	12.0327
54013.2	12.0327
54325	12.0326
54638.7	12.0326
54954.1	12.0326
55271.3	12.0326
55590.4	12.0327
55911.4	12.0327
56234.1	12.0328
56558.8	12.033
56885.3	12.0331
57213.7	12.0333
57544	12.0335
57876.2	12.0337
58210.3	12.0339
58546.4	12.0342
58884.4	12.0345
59224.3	12.0348
59566.2	12.0351
59910.1	12.0355
60256	12.0358
60603.8	12.0362
60953.7	12.0367
61305.6	12.0371
61659.5	12.0375
62015.5	12.038
62373.5	12.0385
62733.6	12.039
63095.7	12.0396
63460	12.0401
63826.3	12.0407
64194.8	12.0413
64565.4	12.0419
64938.2	12.0425
65313.1	12.0432
65690.1	12.0439
66069.3	12.0445
66450.8	12.0452
66834.4	12.046
67220.2	12.0467
67608.3	12.0475
67998.6	12.0482
68391.2	12.049
68786	12.0498
69183.1	12.0507
69582.5	12.0515
69984.2	12.0524
70388.2	12.0532
70794.6	12.0541
71203.3	12.055
71614.3	12.0559
72027.8	12.0569
72443.6	12.0578
72861.8	12.0588
73282.5	12.0598
73705.5	12.0608
74131	12.0618
74559	12.0628
74989.4	12.0638
75422.3	12.0649
75857.8	12.0659
76295.7	12.067
76736.1	12.0681
77179.2	12.0692
77624.7	12.0703
78072.8	12.0714
78523.6	12.0726
78976.9	12.0737
79432.8	12.0749
79891.4	12.0761
80352.6	12.0773
80816.5	12.0785
81283.1	12.0797
81752.3	12.0809
82224.3	12.0821
82699	12.0834
83176.4	12.0846
83656.6	12.0859
84139.5	12.0872
84625.3	12.0885
85113.8	12.0898
85605.2	12.0911
86099.4	12.0924
86596.4	12.0937
87096.4	12.0951
87599.2	12.0964
88104.9	12.0978
88613.5	12.0991
89125.1	12.1005
89639.6	12.1019
90157.1	12.1033
90677.6	12.1047
91201.1	12.1061
91727.6	12.1075
92257.1	12.1089
92789.7	12.1104
93325.4	12.1118
93864.2	12.1133
94406.1	12.1147
94951.1	12.1162
95499.3	12.1177
96050.6	12.1192
96605.1	12.1207
97162.8	12.1222
97723.7	12.1237
98287.9	12.1252
98855.3	12.1267
99426	12.1282
100000	12.1297
100577	12.1313
101158	12.1328
101742	12.1344
102329	12.1359
102920	12.1375
103514	12.1391
104112	12.1406
104713	12.1422
105317	12.1438
105925	12.1454
106537	12.147
107152	12.1486
107771	12.1502
108393	12.1518
109018	12.1534
109648	12.1551
110281	12.1567
110917	12.1583
111558	12.1599
112202	12.1616
112850	12.1632
113501	12.1649
114156	12.1665
114815	12.1682
115478	12.1698
116145	12.1715
116815	12.1732
117490	12.1748
118168	12.1765
118850	12.1782
119536	12.1799
120226	12.1816
120921	12.1833
121619	12.1849
122321	12.1866
123027	12.1883
123737	12.19
124451	12.1917
125170	12.1934
125893	12.1951
126619	12.1969
127350	12.1986
128086	12.2003
128825	12.202
129569	12.2037
130317	12.2054
131069	12.2072
131826	12.2089
132587	12.2106
133352	12.2123
134122	12.2141
134896	12.2158
135675	12.2175
136458	12.2193
137246	12.221
138038	12.2227
138835	12.2245
139637	12.2262
140443	12.2279
141254	12.2297
142069	12.2314
142889	12.2332
143714	12.2349
144544	12.2367
145378	12.2384
146218	12.2401
147062	12.2419
147911	12.2436
148765	12.2454
149624	12.2471
150487	12.2489
151356	12.2506
152230	12.2524
153109	12.2541
153993	12.2559
154882	12.2576
155776	12.2594
156675	12.2611
157580	12.2628
158489	12.2646
159404	12.2663
160325	12.2681
161250	12.2698
162181	12.2716
163117	12.2733
164059	12.2751
165006	12.2768
165959	12.2785
166917	12.2803
167880	12.282
168850	12.2838
169824	12.2855
170805	12.2872
171791	12.289
172783	12.2907
173780	12.2924
174783	12.2942
175792	12.2959
176807	12.2976
177828	12.2993
178855	12.3011
179887	12.3028
180926	12.3045
181970	12.3062
183021	12.308
184077	12.3097
185140	12.3114
186209	12.3131
187284	12.3148
188365	12.3165
189452	12.3183
190546	12.32
191646	12.3217
192752	12.3234
193865	12.3251
194984	12.3268
196110	12.3285
197242	12.3302
198381	12.3319
199526	12.3335
200678	12.3352
201837	12.3369
203002	12.3386
204174	12.3403
205353	12.342
206538	12.3436
207730	12.3453
208930	12.347
210136	12.3487
211349	12.3503
212569	12.352
213796	12.3537
215030	12.3553
216272	12.357
217520	12.3586
218776	12.3603
220039	12.3619
221309	12.3636
222587	12.3652
223872	12.3669
225165	12.3685
226464	12.3701
227772	12.3718
229087	12.3734
230409	12.375
231739	12.3766
233077	12.3783
234423	12.3799
235776	12.3815
237137	12.3831
238506	12.3847
239883	12.3863
241268	12.3879
242661	12.3895
244062	12.3911
245471	12.3927
246888	12.3943
248313	12.3959
249747	12.3974
251189	12.399
252639	12.4006
254097	12.4022
255564	12.4037
257040	12.4053
258523	12.4068
260016	12.4084
261517	12.41
263027	12.4115
264545	12.413
266073	12.4146
267609	12.4161
269153	12.4177
270707	12.4192
272270	12.4207
273842	12.4222
275423	12.4238
277013	12.4253
278612	12.4268
280221	12.4283
281838	12.4298
283465	12.4313
285102	12.4328
286748	12.4343
288403	12.4358
290068	12.4373
291743	12.4388
293427	12.4402
295121	12.4417
296825	12.4432
298538	12.4446
300262	12.4461
301995	12.4476
303739	12.449
305492	12.4505
307256	12.4519
309030	12.4534
310814	12.4548
312608	12.4562
314413	12.4577
316228	12.4591
318053	12.4605
319890	12.4619
321736	12.4634
323594	12.4648
325462	12.4662
327341	12.4676
329230	12.469
331131	12.4704
333043	12.4718
334965	12.4731
336899	12.4745
338844	12.4759
340800	12.4773
342768	12.4786
344747	12.48
346737	12.4814
348739	12.4827
350752	12.4841
352777	12.4854
354813	12.4868
356862	12.4881
358922	12.4895
360994	12.4908
363078	12.4921
365174	12.4934
367282	12.4948
369403	12.4961
371535	12.4974
373680	12.4987
375837	12.5
378007	12.5013
380189	12.5026
382384	12.5039
384592	12.5052
386812	12.5064
389045	12.5077
391291	12.509
393550	12.5103
395822	12.5115
398107	12.5128
400405	12.514
402717	12.5153
405042	12.5165
407380	12.5178
409732	12.519
412098	12.5202
414477	12.5215
416869	12.5227
419276	12.5239
421697	12.5251
424131	12.5263
426580	12.5275
429042	12.5287
431519	12.5299
434010	12.5311
436516	12.5323
439036	12.5335
441570	12.5347
444120	12.5359
446684	12.537
449262	12.5382
451856	12.5394
454465	12.5405
457088	12.5417
459727	12.5428
462381	12.544
465050	12.5451
467735	12.5463
470435	12.5474
473151	12.5485
475883	12.5497
478630	12.5508
481393	12.5519
484172	12.553
486968	12.5541
489779	12.5552
492606	12.5563
495450	12.5574
498310	12.5585
501187	12.5596
504081	12.5607
506991	12.5617
509918	12.5628
512861	12.5639
515822	12.5649
518800	12.566
521795	12.5671
524807	12.5681
527837	12.5692
530884	12.5702
533949	12.5712
537032	12.5723
540132	12.5733
543250	12.5743
546387	12.5753
549541	12.5764
552713	12.5774
555904	12.5784
559114	12.5794
562341	12.5804
565588	12.5814
568853	12.5824
572137	12.5834
575440	12.5843
578762	12.5853
582103	12.5863
585464	12.5873
588844	12.5882
592243	12.5892
595662	12.5901
599101	12.5911
602560	12.592
606038	12.593
609537	12.5939
613056	12.5949
616595	12.5958
620155	12.5967
623735	12.5976
627336	12.5986
630957	12.5995
634600	12.6004
638263	12.6013
641948	12.6022
645654	12.6031
649382	12.604
653131	12.6049
656901	12.6058
660693	12.6066
664508	12.6075
668344	12.6084
672202	12.6093
676083	12.6101
679986	12.611
683912	12.6119
687860	12.6127
691831	12.6136
695825	12.6144
699842	12.6152
703882	12.6161
707946	12.6169
712033	12.6177
716143	12.6186
720278	12.6194
724436	12.6202
728618	12.621
732825	12.6218
737055	12.6226
741310	12.6234
745590	12.6242
749894	12.625
754223	12.6258
758578	12.6266
762957	12.6274
767361	12.6281
771792	12.6289
776247	12.6297
780728	12.6305
785236	12.6312
789769	12.632
794328	12.6327
798914	12.6335
803526	12.6342
808165	12.635
812831	12.6357
817523	12.6364
822243	12.6372
826990	12.6379
831764	12.6386
836566	12.6393
841395	12.64
846253	12.6408
851138	12.6415
856052	12.6422
860994	12.6429
865964	12.6436
870964	12.6442
875992	12.6449
881049	12.6456
886135	12.6463
891251	12.647
896396	12.6477
901571	12.6483
906776	12.649
912011	12.6496
917276	12.6503
922571	12.651
927897	12.6516
933254	12.6523
938642	12.6529
944061	12.6535
949511	12.6542
954993	12.6548
960506	12.6554
966051	12.6561
971628	12.6567
977237	12.6573
982879	12.6579
988553	12.6585
994260	12.6591
1e+06	12.6597
1.00577e+06	12.6603
1.01158e+06	12.6609
1.01742e+06	12.6615
1.02329e+06	12.6621
1.0292e+06	12.6627
1.03514e+06	12.6633
1.04112e+06	12.6639
1.04713e+06	12.6644
1.05317e+06	12.665
1.05925e+06	12.6656
1.06537e+06	12.6662
1.07152e+06	12.6667
1.07771e+06	12.6673
1.08393e+06	12.6678
1.09018e+06	12.6684
1.09648e+06	12.6689
1.10281e+06	12.6695
1.10917e+06	12.67
1.11558e+06	12.6706
1.12202e+06	12.6711
1.1285e+06	12.6716
1.13501e+06	12.6722
1.14156e+06	12.6727
1.14815e+06	12.6732
1.15478e+06	12.6737
1.16145e+06	12.6742
1.16815e+06	12.6747
1.1749e+06	12.6753
1.18168e+06	12.6758
1.1885e+06	12.6763
1.19536e+06	12.6768
1.20226e+06	12.6773
1.20921e+06	12.6777
1.21619e+06	12.6782
1.22321e+06	12.6787
1.23027e+06	12.6792
1.23737e+06	12.6797
1.24451e+06	12.6802
1.2517e+06	12.6806
1.25893e+06	12.6811
1.26619e+06	12.6816
1.2735e+06	12.682
1.28086e+06	12.6825
1.28825e+06	12.683
1.29569e+06	12.6834
1.30317e+06	12.6839
1.31069e+06	12.6843
1.31826e+06	12.6848
1.32587e+06	12.6852
1.33352e+06	12.6856
1.34122e+06	12.6861
1.34896e+06	12.6865
1.35675e+06	12.6869
1.36458e+06	12.6874
1.37246e+06	12.6878
1.38038e+06	12.6882
1.38835e+06	12.6886
1.39637e+06	12.689
1.40443e+06	12.6894
1.41254e+06	12.6899
1.42069e+06	12.6903
1.42889e+06	12.6907
1.43714e+06	12.6911
1.44544e+06	12.6915
1.45378e+06	12.6919
1.46218e+06	12.6923
1.47062e+06	12.6926
1.47911e+06	12.693
1.48765e+06	12.6934
1.49624e+06	12.6938
1.50487e+06	12.6942
1.51356e+06	12.6945
1.5223e+06	12.6949
1.53109e+06	12.6953
1.53993e+06	12.6956
1.54882e+06	12.696
1.55776e+06	12.6964
1.56675e+06	12.6967
1.5758e+06	12.6971
1.58489e+06	12.6974
1.59404e+06	12.6978
1.60325e+06	12.6981
1.6125e+06	12.6985
1.62181e+06	12.6988
1.63117e+06	12.6992
1.64059e+06	12.6995
1.65006e+06	12.6998
1.65959e+06	12.7002
1.66917e+06	12.7005
1.6788e+06	12.7008
1.6885e+06	12.7011
1.69824e+06	12.7015
1.70805e+06	12.7018
1.71791e+06	12.7021
1.72783e+06	12.7024
1.7378e+06	12.7027
1.74783e+06	12.703
1.75792e+06	12.7033
1.76807e+06	12.7036
1.77828e+06	12.7039
1.78855e+06	12.7042
1.79887e+06	12.7045
1.80926e+06	12.7048
1.8197e+06	12.7051
1.83021e+06	12.7054
1.84077e+06	12.7057
1.8514e+06	12.706
1.86209e+06	12.7062
1.87284e+06	12.7065
1.88365e+06	12.7068
1.89452e+06	12.7071
1.90546e+06	12.7073
1.91646e+06	12.7076
1.92752e+06	12.7079
1.93865e+06	12.7081
1.94984e+06	12.7084
1.9611e+06	12.7087
1.97242e+06	12.7089
1.98381e+06	12.7092
1.99526e+06	12.7094
2.00678e+06	12.7097
2.01837e+06	12.7099
2.03002e+06	12.7102
2.04174e+06	12.7104
2.05353e+06	12.7107
2.06538e+06	12.7109
2.0773e+06	12.7111
2.0893e+06	12.7114
2.10136e+06	12.7116
2.11349e+06	12.7118
2.12569e+06	12.7121
2.13796e+06	12.7123
2.1503e+06	12.7125
2.16272e+06	12.7127
2.1752e+06	12.7129
2.18776e+06	12.7132
2.20039e+06	12.7134
2.21309e+06	12.7136
2.22587e+06	12.7138
2.23872e+06	12.714
2.25165e+06	12.7142
2.26464e+06	12.7144
2.27772e+06	12.7146
2.29087e+06	12.7148
2.30409e+06	12.715
2.31739e+06	12.7152
2.33077e+06	12.7154
2.34423e+06	12.7156
2.35776e+06	12.7158
2.37137e+06	12.716
2.38506e+06	12.7162
2.39883e+06	12.7164
2.41268e+06	12.7165
2.42661e+06	12.7167
2.44062e+06	12.7169
2.45471e+06	12.7171
2.46888e+06	12.7173
2.48313e+06	12.7174
2.49747e+06	12.7176
2.51189e+06	12.7178
2.52639e+06	12.7179
2.54097e+06	12.7181
2.55564e+06	12.7183
2.5704e+06	12.7184
2.58523e+06	12.7186
2.60016e+06	12.7188
2.61517e+06	12.7189
2.63027e+06	12.7191
2.64545e+06	12.7192
2.66073e+06	12.7194
2.67609e+06	12.7195
2.69153e+06	12.7197
2.70707e+06	12.7198
2.7227e+06	12.72
2.73842e+06	12.7201
2.75423e+06	12.7202
2.77013e+06	12.7204
2.78612e+06	12.7205
2.80221e+06	12.7207
2.81838e+06	12.7208
2.83465e+06	12.7209
2.85102e+06	12.7211
2.86748e+06	12.7212
2.88403e+06	12.7213
2.90068e+06	12.7214
2.91743e+06	12.7216
2.93427e+06	12.7217
2.95121e+06	12.7218
2.96825e+06	12.7219
2.98538e+06	12.7221
3.00262e+06	12.7222
3.01995e+06	12.7223
3.03739e+06	12.7224
3.05492e+06	12.7225
3.07256e+06	12.7226
3.0903e+06	12.7227
3.10814e+06	12.7228
3.12608e+06	12.723
3.14413e+06	12.7231
3.16228e+06	12.7232
3.18053e+06	12.7233
3.1989e+06	12.7234
3.21736e+06	12.7235
3.23594e+06	12.7236
3.25462e+06	12.7237
3.27341e+06	12.7238
3.2923e+06	12.7239
3.31131e+06	12.7239
3.33043e+06	12.724
3.34965e+06	12.7241
3.36899e+06	12.7242
3.38844e+06	12.7243
3.408e+06	12.7244
3.42768e+06	12.7245
3.44747e+06	12.7246
3.46737e+06	12.7246
3.48739e+06	12.7247
3.50752e+06	12.7248
3.52777e+06	12.7249
3.54813e+06	12.725
3.56862e+06	12.725
3.58922e+06	12.7251
3.60994e+06	12.7252
3.63078e+06	12.7253
3.65174e+06	12.7253
3.67282e+06	12.7254
3.69403e+06	12.7255
3.71535e+06	12.7255
3.7368e+06	12.7256
3.75837e+06	12.7257
3.78007e+06	12.7257
3.80189e+06	12.7258
3.82384e+06	12.7259
3.84592e+06	12.7259
3.86812e+06	12.726
3.89045e+06	12.7261
3.91291e+06	12.7261
3.9355e+06	12.7262
3.95822e+06	12.7262
3.98107e+06	12.7263
4.00405e+06	12.7263
4.02717e+06	12.7264
4.05042e+06	12.7264
4.0738e+06	12.7265
4.09732e+06	12.7265
4.12098e+06	12.7266
4.14477e+06	12.7266
4.16869e+06	12.7267
4.19276e+06	12.7267
4.21697e+06	12.7268
4.24131e+06	12.7268
4.2658e+06	12.7269
4.29042e+06	12.7269
4.31519e+06	12.727
4.3401e+06	12.727
4.36516e+06	12.727
4.39036e+06	12.7271
4.4157e+06	12.7271
4.4412e+06	12.7272
4.46684e+06	12.7272
4.49262e+06	12.7272
4.51856e+06	12.7273
4.54465e+06	12.7273
4.57088e+06	12.7273
4.59727e+06	12.7274
4.62381e+06	12.7274
4.6505e+06	12.7274
4.67735e+06	12.7275
4.70435e+06	12.7275
4.73151e+06	12.7275
4.75883e+06	12.7276
4.7863e+06	12.7276
4.81393e+06	12.7276
4.84172e+06	12.7276
4.86968e+06	12.7277
4.89779e+06	12.7277
4.92606e+06	12.7277
4.9545e+06	12.7277
4.9831e+06	12.7278
5.01187e+06	12.7278
5.04081e+06	12.7278
5.06991e+06	12.7278
5.09918e+06	12.7278
5.12861e+06	12.7279
5.15822e+06	12.7279
5.188e+06	12.7279
5.21795e+06	12.7279
5.24807e+06	12.7279
5.27837e+06	12.728
5.30884e+06	12.728
5.33949e+06	12.728
5.37032e+06	12.728
5.40132e+06	12.728
5.4325e+06	12.728
5.46387e+06	12.728
5.49541e+06	12.7281
5.52713e+06	12.7281
5.55904e+06	12.7281
5.59114e+06	12.7281
5.62341e+06	12.7281
5.65588e+06	12.7281
5.68853e+06	12.7281
5.72137e+06	12.7281
5.7544e+06	12.7282
5.78762e+06	12.7282
5.82103e+06	12.7282
5.85464e+06	12.7282
5.88844e+06	12.7282
5.92243e+06	12.7282
5.95662e+06	12.7282
5.99101e+06	12.7282
6.0256e+06	12.7282
6.06038e+06	12.7282
6.09537e+06	12.7282
6.13056e+06	12.7282
6.16595e+06	12.7282
6.20155e+06	12.7283
6.23735e+06	12.7283
6.27336e+06	12.7283
6.30957e+06	12.7283
6.346e+06	12.7283
6.38263e+06	12.7283
6.41948e+06	12.7283
6.45654e+06	12.7283
6.49382e+06	12.7283
6.53131e+06	12.7283
6.56901e+06	12.7283
6.60693e+06	12.7283
6.64508e+06	12.7283
6.68344e+06	12.7283
6.72202e+06	12.7283
6.76083e+06	12.7283
6.79986e+06	12.7283
6.83912e+06	12.7283
6.8786e+06	12.7283
6.91831e+06	12.7283
6.95825e+06	12.7283
6.99842e+06	12.7283
7.03882e+06	12.7283
7.07946e+06	12.7283
7.12033e+06	12.7283
7.16143e+06	12.7283
7.20278e+06	12.7283
7.24436e+06	12.7283
7.28618e+06	12.7283
7.32825e+06	12.7283
7.37055e+06	12.7283
7.4131e+06	12.7283
7.4559e+06	12.7283
7.49894e+06	12.7283
7.54223e+06	12.7283
7.58578e+06	12.7283
7.62957e+06	12.7283
7.67361e+06	12.7283
7.71792e+06	12.7283
7.76247e+06	12.7283
7.80728e+06	12.7283
7.85236e+06	12.7283
7.89769e+06	12.7283
7.94328e+06	12.7283
7.98914e+06	12.7283
8.03526e+06	12.7283
8.08165e+06	12.7283
8.12831e+06	12.7283
8.17523e+06	12.7283
8.22243e+06	12.7283
8.2699e+06	12.7283
8.31764e+06	12.7283
8.36566e+06	12.7283
8.41395e+06	12.7283
8.46253e+06	12.7283
8.51138e+06	12.7283
8.56052e+06	12.7283
8.60994e+06	12.7283
8.65964e+06	12.7283
8.70964e+06	12.7283
8.75992e+06	12.7283
8.81049e+06	12.7283
8.86135e+06	12.7283
8.91251e+06	12.7283
8.96396e+06	12.7283
9.01571e+06	12.7282
9.06776e+06	12.7282
9.12011e+06	12.7282
9.17276e+06	12.7282
9.22571e+06	12.7282
9.27897e+06	12.7282
9.33254e+06	12.7282
9.38642e+06	12.7282
9.44061e+06	12.7282
9.49511e+06	12.7282
9.54993e+06	12.7282
9.60506e+06	12.7282
9.66051e+06	12.7282
9.71628e+06	12.7282
9.77237e+06	12.7282
9.82879e+06	12.7282
9.88553e+06	12.7282
9.9426e+06	12.7282
1e+07	12.7282
