Stopping power dEdx from Ionisation for Ca40[0.0] Z = 20 in G4_TISSUE_SOFT_ICRP, process name: ionIoni
E [MeV]	dEdx [MeV/mm]
0.001	65.9407
0.00100577	66.1308
0.00101158	66.3214
0.00101742	66.5126
0.00102329	66.7043
0.0010292	66.8965
0.00103514	67.0894
0.00104112	67.2827
0.00104713	67.4767
0.00105317	67.6712
0.00105925	67.8662
0.00106537	68.0618
0.00107152	68.258
0.00107771	68.4548
0.00108393	68.6521
0.00109018	68.8499
0.00109648	69.0484
0.00110281	69.2474
0.00110917	69.447
0.00111558	69.6472
0.00112202	69.8479
0.0011285	70.0493
0.00113501	70.2512
0.00114156	70.4537
0.00114815	70.6567
0.00115478	70.8604
0.00116145	71.0646
0.00116815	71.2695
0.0011749	71.4749
0.00118168	71.6809
0.0011885	71.8875
0.00119536	72.0947
0.00120226	72.3026
0.00120921	72.511
0.00121619	72.72
0.00122321	72.9296
0.00123027	73.1398
0.00123737	73.3506
0.00124451	73.562
0.0012517	73.774
0.00125893	73.9867
0.00126619	74.2
0.0012735	74.4138
0.00128086	74.6283
0.00128825	74.8434
0.00129569	75.0591
0.00130317	75.2755
0.00131069	75.4925
0.00131826	75.7101
0.00132587	75.9283
0.00133352	76.1471
0.00134122	76.3666
0.00134896	76.5867
0.00135675	76.8075
0.00136458	77.0289
0.00137246	77.2509
0.00138038	77.4736
0.00138835	77.6969
0.00139637	77.9208
0.00140443	78.1454
0.00141254	78.3707
0.00142069	78.5966
0.00142889	78.8231
0.00143714	79.0503
0.00144544	79.2782
0.00145378	79.5067
0.00146218	79.7358
0.00147062	79.9657
0.00147911	80.1962
0.00148765	80.4273
0.00149624	80.6591
0.00150487	80.8916
0.00151356	81.1248
0.0015223	81.3586
0.00153109	81.5931
0.00153993	81.8283
0.00154882	82.0642
0.00155776	82.3007
0.00156675	82.5379
0.0015758	82.7758
0.00158489	83.0144
0.00159404	83.2537
0.00160325	83.4937
0.0016125	83.7343
0.00162181	83.9757
0.00163117	84.2177
0.00164059	84.4605
0.00165006	84.7039
0.00165959	84.9481
0.00166917	85.1929
0.0016788	85.4385
0.0016885	85.6848
0.00169824	85.9317
0.00170805	86.1794
0.00171791	86.4278
0.00172783	86.6769
0.0017378	86.9268
0.00174783	87.1773
0.00175792	87.4286
0.00176807	87.6806
0.00177828	87.9333
0.00178855	88.1868
0.00179887	88.441
0.00180926	88.6959
0.0018197	88.9516
0.00183021	89.208
0.00184077	89.4651
0.0018514	89.723
0.00186209	89.9816
0.00187284	90.2409
0.00188365	90.501
0.00189452	90.7619
0.00190546	91.0235
0.00191646	91.2859
0.00192752	91.549
0.00193865	91.8129
0.00194984	92.0775
0.0019611	92.3429
0.00197242	92.6091
0.00198381	92.876
0.00199526	93.1437
0.00200678	93.4122
0.00201837	93.6815
0.00203002	93.9515
0.00204174	94.2223
0.00205353	94.4939
0.00206538	94.7662
0.0020773	95.0394
0.0020893	95.3133
0.00210136	95.5881
0.00211349	95.8636
0.00212569	96.1399
0.00213796	96.417
0.0021503	96.6949
0.00216272	96.9736
0.0021752	97.2531
0.00218776	97.5335
0.00220039	97.8146
0.00221309	98.0965
0.00222587	98.3793
0.00223872	98.6628
0.00225165	98.9472
0.00226464	99.2324
0.00227772	99.5185
0.00229087	99.8053
0.00230409	100.093
0.00231739	100.381
0.00233077	100.671
0.00234423	100.961
0.00235776	101.252
0.00237137	101.544
0.00238506	101.837
0.00239883	102.13
0.00241268	102.424
0.00242661	102.72
0.00244062	103.016
0.00245471	103.313
0.00246888	103.61
0.00248313	103.909
0.00249747	104.209
0.00251189	104.509
0.00252639	104.81
0.00254097	105.112
0.00255564	105.415
0.0025704	105.719
0.00258523	106.024
0.00260016	106.329
0.00261517	106.636
0.00263027	106.943
0.00264545	107.252
0.00266073	107.561
0.00267609	107.871
0.00269153	108.182
0.00270707	108.493
0.0027227	108.806
0.00273842	109.12
0.00275423	109.434
0.00277013	109.75
0.00278612	110.066
0.00280221	110.383
0.00281838	110.702
0.00283465	111.021
0.00285102	111.341
0.00286748	111.662
0.00288403	111.983
0.00290068	112.306
0.00291743	112.63
0.00293427	112.955
0.00295121	113.28
0.00296825	113.607
0.00298538	113.934
0.00300262	114.262
0.00301995	114.592
0.00303739	114.922
0.00305492	115.253
0.00307256	115.586
0.0030903	115.919
0.00310814	116.253
0.00312608	116.588
0.00314413	116.924
0.00316228	117.261
0.00318053	117.599
0.0031989	117.938
0.00321736	118.278
0.00323594	118.619
0.00325462	118.961
0.00327341	119.304
0.0032923	119.647
0.00331131	119.992
0.00333043	120.338
0.00334965	120.685
0.00336899	121.033
0.00338844	121.382
0.003408	121.732
0.00342768	122.083
0.00344747	122.434
0.00346737	122.787
0.00348739	123.141
0.00350752	123.496
0.00352777	123.852
0.00354813	124.209
0.00356862	124.567
0.00358922	124.926
0.00360994	125.286
0.00363078	125.647
0.00365174	126.01
0.00367282	126.373
0.00369403	126.737
0.00371535	127.102
0.0037368	127.469
0.00375837	127.836
0.00378007	128.205
0.00380189	128.574
0.00382384	128.945
0.00384592	129.316
0.00386812	129.689
0.00389045	130.063
0.00391291	130.438
0.0039355	130.814
0.00395822	131.191
0.00398107	131.569
0.00400405	131.948
0.00402717	132.329
0.00405042	132.71
0.0040738	133.093
0.00409732	133.476
0.00412098	133.861
0.00414477	134.247
0.00416869	134.634
0.00419276	135.022
0.00421697	135.411
0.00424131	135.801
0.0042658	136.193
0.00429042	136.585
0.00431519	136.979
0.0043401	137.374
0.00436516	137.77
0.00439036	138.167
0.0044157	138.565
0.0044412	138.964
0.00446684	139.365
0.00449262	139.767
0.00451856	140.17
0.00454465	140.574
0.00457088	140.979
0.00459727	141.385
0.00462381	141.793
0.0046505	142.201
0.00467735	142.611
0.00470435	143.022
0.00473151	143.434
0.00475883	143.848
0.0047863	144.263
0.00481393	144.678
0.00484172	145.095
0.00486968	145.514
0.00489779	145.933
0.00492606	146.354
0.0049545	146.776
0.0049831	147.199
0.00501187	147.623
0.00504081	148.048
0.00506991	148.475
0.00509918	148.903
0.00512861	149.332
0.00515822	149.763
0.005188	150.194
0.00521795	150.627
0.00524807	151.061
0.00527837	151.497
0.00530884	151.934
0.00533949	152.371
0.00537032	152.811
0.00540132	153.251
0.0054325	153.693
0.00546387	154.136
0.00549541	154.58
0.00552713	155.026
0.00555904	155.473
0.00559114	155.921
0.00562341	156.37
0.00565588	156.821
0.00568853	157.273
0.00572137	157.726
0.0057544	158.181
0.00578762	158.637
0.00582103	159.094
0.00585464	159.553
0.00588844	160.012
0.00592243	160.474
0.00595662	160.936
0.00599101	161.4
0.0060256	161.865
0.00606038	162.332
0.00609537	162.8
0.00613056	163.269
0.00616595	163.74
0.00620155	164.212
0.00623735	164.685
0.00627336	165.16
0.00630957	165.636
0.006346	166.113
0.00638263	166.592
0.00641948	167.072
0.00645654	167.554
0.00649382	168.036
0.00653131	168.521
0.00656901	169.007
0.00660693	169.494
0.00664508	169.982
0.00668344	170.472
0.00672202	170.964
0.00676083	171.456
0.00679986	171.951
0.00683912	172.446
0.0068786	172.943
0.00691831	173.442
0.00695825	173.942
0.00699842	174.443
0.00703882	174.946
0.00707946	175.45
0.00712033	175.956
0.00716143	176.463
0.00720278	176.972
0.00724436	177.482
0.00728618	177.993
0.00732825	178.506
0.00737055	179.021
0.0074131	179.537
0.0074559	180.054
0.00749894	180.573
0.00754223	181.094
0.00758578	181.616
0.00762957	182.139
0.00767361	182.664
0.00771792	183.191
0.00776247	183.719
0.00780728	184.248
0.00785236	184.779
0.00789769	185.312
0.00794328	185.846
0.00798914	186.382
0.00803526	186.919
0.00808165	187.458
0.00812831	187.998
0.00817523	188.54
0.00822243	189.083
0.0082699	189.629
0.00831764	190.175
0.00836566	190.723
0.00841395	191.273
0.00846253	191.824
0.00851138	192.377
0.00856052	192.932
0.00860994	193.488
0.00865964	194.046
0.00870964	194.605
0.00875992	195.166
0.00881049	195.728
0.00886135	196.292
0.00891251	196.858
0.00896396	197.426
0.00901571	197.995
0.00906776	198.565
0.00912011	199.138
0.00917276	199.712
0.00922571	200.287
0.00927897	200.865
0.00933254	201.444
0.00938642	202.024
0.00944061	202.607
0.00949511	203.191
0.00954993	203.776
0.00960506	204.364
0.00966051	204.953
0.00971628	205.543
0.00977237	206.136
0.00982879	206.73
0.00988553	207.326
0.0099426	207.924
0.01	208.519
0.0100577	209.105
0.0101158	209.693
0.0101742	210.283
0.0102329	210.875
0.010292	211.468
0.0103514	212.063
0.0104112	212.66
0.0104713	213.258
0.0105317	213.858
0.0105925	214.46
0.0106537	215.064
0.0107152	215.669
0.0107771	216.276
0.0108393	216.885
0.0109018	217.496
0.0109648	218.108
0.0110281	218.722
0.0110917	219.338
0.0111558	219.956
0.0112202	220.575
0.011285	221.196
0.0113501	221.819
0.0114156	222.444
0.0114815	223.071
0.0115478	223.699
0.0116145	224.329
0.0116815	224.961
0.011749	225.595
0.0118168	226.231
0.011885	226.868
0.0119536	227.508
0.0120226	228.149
0.0120921	228.792
0.0121619	229.437
0.0122321	230.084
0.0123027	230.732
0.0123737	231.383
0.0124451	232.035
0.012517	232.689
0.0125893	233.345
0.0126619	234.003
0.012735	234.663
0.0128086	235.325
0.0128825	235.989
0.0129569	236.655
0.0130317	237.322
0.0131069	237.992
0.0131826	238.663
0.0132587	239.337
0.0133352	240.012
0.0134122	240.689
0.0134896	241.368
0.0135675	242.05
0.0136458	242.733
0.0137246	243.418
0.0138038	244.105
0.0138835	244.794
0.0139637	245.485
0.0140443	246.178
0.0141254	246.873
0.0142069	247.57
0.0142889	248.27
0.0143714	248.971
0.0144544	249.674
0.0145378	250.379
0.0146218	251.086
0.0147062	251.796
0.0147911	252.507
0.0148765	253.22
0.0149624	253.936
0.0150487	254.653
0.0151356	255.373
0.015223	256.095
0.0153109	256.818
0.0153993	257.544
0.0154882	258.272
0.0155776	259.002
0.0156675	259.734
0.015758	260.469
0.0158489	261.205
0.0159404	261.944
0.0160325	262.684
0.016125	263.427
0.0162181	264.172
0.0163117	264.919
0.0164059	265.669
0.0165006	266.42
0.0165959	267.174
0.0166917	267.929
0.016788	268.688
0.016885	269.448
0.0169824	270.21
0.0170805	270.975
0.0171791	271.742
0.0172783	272.511
0.017378	273.282
0.0174783	274.055
0.0175792	274.831
0.0176807	275.609
0.0177828	276.39
0.0178855	277.172
0.0179887	277.957
0.0180926	278.744
0.018197	279.533
0.0183021	280.325
0.0184077	281.119
0.018514	281.915
0.0186209	282.714
0.0187284	283.515
0.0188365	284.318
0.0189452	285.123
0.0190546	285.931
0.0191646	286.741
0.0192752	287.554
0.0193865	288.369
0.0194984	289.186
0.019611	290.006
0.0197242	290.828
0.0198381	291.652
0.0199526	292.479
0.0200678	293.308
0.0201837	294.14
0.0203002	294.974
0.0204174	295.81
0.0205353	296.649
0.0206538	297.49
0.020773	298.334
0.020893	299.18
0.0210136	300.029
0.0211349	300.88
0.0212569	301.734
0.0213796	302.59
0.021503	303.448
0.0216272	304.309
0.021752	305.173
0.0218776	306.039
0.0220039	306.908
0.0221309	307.779
0.0222587	308.652
0.0223872	309.529
0.0225165	310.407
0.0226464	311.289
0.0227772	312.172
0.0229087	313.059
0.0230409	313.948
0.0231739	314.839
0.0233077	315.734
0.0234423	316.63
0.0235776	317.53
0.0237137	318.432
0.0238506	319.336
0.0239883	320.244
0.0241268	321.154
0.0242661	322.066
0.0244062	322.981
0.0245471	323.899
0.0246888	324.82
0.0248313	325.743
0.0249747	326.669
0.0251189	327.597
0.0252639	328.529
0.0254097	329.463
0.0255564	330.4
0.025704	331.339
0.0258523	332.281
0.0260016	333.226
0.0261517	334.174
0.0263027	335.124
0.0264545	336.078
0.0266073	337.034
0.0267609	337.992
0.0269153	338.954
0.0270707	339.918
0.027227	340.886
0.0273842	341.856
0.0275423	342.828
0.0277013	343.804
0.0278612	344.783
0.0280221	345.764
0.0281838	346.748
0.0283465	347.735
0.0285102	348.725
0.0286748	349.718
0.0288403	350.714
0.0290068	351.713
0.0291743	352.714
0.0293427	353.719
0.0295121	354.726
0.0296825	355.736
0.0298538	356.75
0.0300262	357.766
0.0301995	358.785
0.0303739	359.808
0.0305492	360.833
0.0307256	361.861
0.030903	362.892
0.0310814	363.926
0.0312608	364.964
0.0314413	366.004
0.0316228	367.047
0.0318053	368.094
0.031989	369.143
0.0321736	370.195
0.0323594	371.251
0.0325462	372.31
0.0327341	373.371
0.032923	374.436
0.0331131	375.504
0.0333043	376.575
0.0334965	377.649
0.0336899	378.727
0.0338844	379.807
0.03408	380.891
0.0342768	381.977
0.0344747	383.067
0.0346737	384.16
0.0348739	385.257
0.0350752	386.356
0.0352777	387.459
0.0354813	388.565
0.0356862	389.674
0.0358922	390.787
0.0360994	391.903
0.0363078	393.022
0.0365174	394.144
0.0367282	395.269
0.0369403	396.398
0.0371535	397.53
0.037368	398.666
0.0375837	399.805
0.0378007	400.947
0.0380189	402.092
0.0382384	403.241
0.0384592	404.393
0.0386812	405.549
0.0389045	406.708
0.0391291	407.87
0.039355	409.036
0.0395822	410.205
0.0398107	411.377
0.0400405	412.204
0.0402717	412.477
0.0405042	412.754
0.040738	413.034
0.0409732	413.316
0.0412098	413.602
0.0414477	413.89
0.0416869	414.181
0.0419276	414.475
0.0421697	414.771
0.0424131	415.07
0.042658	415.372
0.0429042	415.676
0.0431519	415.983
0.043401	416.292
0.0436516	416.604
0.0439036	416.918
0.044157	417.235
0.044412	417.554
0.0446684	417.876
0.0449262	418.2
0.0451856	418.526
0.0454465	418.854
0.0457088	419.185
0.0459727	419.518
0.0462381	419.853
0.046505	420.19
0.0467735	420.529
0.0470435	420.871
0.0473151	421.214
0.0475883	421.56
0.047863	421.908
0.0481393	422.257
0.0484172	422.609
0.0486968	422.963
0.0489779	423.318
0.0492606	423.676
0.049545	424.035
0.049831	424.397
0.0501187	424.76
0.0504081	425.125
0.0506991	425.492
0.0509918	425.861
0.0512861	426.231
0.0515822	426.604
0.05188	426.978
0.0521795	427.354
0.0524807	427.732
0.0527837	428.111
0.0530884	428.492
0.0533949	428.875
0.0537032	429.259
0.0540132	429.645
0.054325	430.033
0.0546387	430.423
0.0549541	430.814
0.0552713	431.206
0.0555904	431.601
0.0559114	431.996
0.0562341	432.394
0.0565588	432.793
0.0568853	433.193
0.0572137	433.596
0.057544	433.999
0.0578762	434.404
0.0582103	434.811
0.0585464	435.219
0.0588844	435.629
0.0592243	436.04
0.0595662	436.453
0.0599101	436.867
0.060256	437.283
0.0606038	437.7
0.0609537	438.119
0.0613056	438.539
0.0616595	438.96
0.0620155	439.383
0.0623735	439.808
0.0627336	440.234
0.0630957	440.661
0.06346	441.09
0.0638263	441.52
0.0641948	441.951
0.0645654	442.384
0.0649382	442.819
0.0653131	443.255
0.0656901	443.692
0.0660693	444.131
0.0664508	444.571
0.0668344	445.012
0.0672202	445.455
0.0676083	445.899
0.0679986	446.345
0.0683912	446.792
0.068786	447.24
0.0691831	447.69
0.0695825	448.141
0.0699842	448.594
0.0703882	449.048
0.0707946	449.503
0.0712033	449.96
0.0716143	450.418
0.0720278	450.878
0.0724436	451.339
0.0728618	451.801
0.0732825	452.265
0.0737055	452.731
0.074131	453.197
0.074559	453.665
0.0749894	454.135
0.0754223	454.606
0.0758578	455.078
0.0762957	455.552
0.0767361	456.027
0.0771792	456.503
0.0776247	456.982
0.0780728	457.461
0.0785236	457.942
0.0789769	458.424
0.0794328	458.908
0.0798914	459.393
0.0803526	459.88
0.0808165	460.368
0.0812831	460.858
0.0817523	461.349
0.0822243	461.842
0.082699	462.336
0.0831764	462.831
0.0836566	463.329
0.0841395	463.827
0.0846253	464.327
0.0851138	464.829
0.0856052	465.332
0.0860994	465.837
0.0865964	466.343
0.0870964	466.851
0.0875992	467.36
0.0881049	467.871
0.0886135	468.383
0.0891251	468.897
0.0896396	469.413
0.0901571	469.93
0.0906776	470.449
0.0912011	470.969
0.0917276	471.491
0.0922571	472.015
0.0927897	472.54
0.0933254	473.067
0.0938642	473.595
0.0944061	474.126
0.0949511	474.657
0.0954993	475.191
0.0960506	475.726
0.0966051	476.263
0.0971628	476.802
0.0977237	477.342
0.0982879	477.884
0.0988553	478.427
0.099426	478.973
0.1	479.52
0.100577	480.069
0.101158	480.62
0.101742	481.172
0.102329	481.726
0.10292	482.282
0.103514	482.84
0.104112	483.4
0.104713	483.961
0.105317	484.525
0.105925	485.09
0.106537	485.657
0.107152	486.226
0.107771	486.796
0.108393	487.369
0.109018	487.944
0.109648	488.52
0.110281	489.098
0.110917	489.679
0.111558	490.261
0.112202	490.845
0.11285	491.431
0.113501	492.019
0.114156	492.609
0.114815	493.201
0.115478	493.795
0.116145	494.391
0.116815	494.989
0.11749	495.59
0.118168	496.192
0.11885	496.796
0.119536	497.402
0.120226	498.011
0.120921	498.621
0.121619	499.234
0.122321	499.849
0.123027	500.466
0.123737	501.085
0.124451	501.706
0.12517	502.329
0.125893	502.955
0.126619	503.583
0.12735	504.213
0.128086	504.845
0.128825	505.479
0.129569	506.116
0.130317	506.755
0.131069	507.396
0.131826	508.039
0.132587	508.685
0.133352	509.333
0.134122	509.983
0.134896	510.636
0.135675	511.291
0.136458	511.948
0.137246	512.608
0.138038	513.27
0.138835	513.935
0.139637	514.602
0.140443	515.271
0.141254	515.943
0.142069	516.617
0.142889	517.294
0.143714	517.973
0.144544	518.654
0.145378	519.338
0.146218	520.025
0.147062	520.714
0.147911	521.406
0.148765	522.1
0.149624	522.797
0.150487	523.496
0.151356	524.198
0.15223	524.903
0.153109	525.61
0.153993	526.319
0.154882	527.032
0.155776	527.747
0.156675	528.464
0.15758	529.185
0.158489	529.908
0.159404	530.634
0.160325	531.362
0.16125	532.093
0.162181	532.827
0.163117	533.564
0.164059	534.303
0.165006	535.045
0.165959	535.79
0.166917	536.538
0.16788	537.289
0.16885	538.042
0.169824	538.799
0.170805	539.558
0.171791	540.32
0.172783	541.085
0.17378	541.852
0.174783	542.623
0.175792	543.397
0.176807	544.173
0.177828	544.953
0.178855	545.735
0.179887	546.521
0.180926	547.309
0.18197	548.101
0.183021	548.895
0.184077	549.693
0.18514	550.493
0.186209	551.297
0.187284	552.103
0.188365	552.913
0.189452	553.726
0.190546	554.542
0.191646	555.361
0.192752	556.183
0.193865	557.008
0.194984	557.837
0.19611	558.668
0.197242	559.503
0.198381	560.341
0.199526	561.182
0.200678	562.027
0.201837	562.874
0.203002	563.725
0.204174	564.58
0.205353	565.437
0.206538	566.298
0.20773	567.162
0.20893	568.029
0.210136	568.9
0.211349	569.774
0.212569	570.651
0.213796	571.532
0.21503	572.416
0.216272	573.304
0.21752	574.195
0.218776	575.089
0.220039	575.987
0.221309	576.888
0.222587	577.793
0.223872	578.701
0.225165	579.613
0.226464	580.528
0.227772	581.446
0.229087	582.368
0.230409	583.294
0.231739	584.223
0.233077	585.156
0.234423	586.092
0.235776	587.032
0.237137	587.976
0.238506	588.923
0.239883	589.874
0.241268	590.828
0.242661	591.786
0.244062	592.748
0.245471	593.713
0.246888	594.682
0.248313	595.655
0.249747	596.631
0.251189	597.612
0.252639	598.595
0.254097	599.583
0.255564	600.575
0.25704	601.57
0.258523	602.569
0.260016	603.571
0.261517	604.578
0.263027	605.588
0.264545	606.602
0.266073	607.621
0.267609	608.642
0.269153	609.668
0.270707	610.698
0.27227	611.731
0.273842	612.769
0.275423	613.81
0.277013	614.855
0.278612	615.905
0.280221	616.958
0.281838	618.015
0.283465	619.076
0.285102	620.141
0.286748	621.21
0.288403	622.283
0.290068	623.36
0.291743	624.441
0.293427	625.527
0.295121	626.616
0.296825	627.709
0.298538	628.806
0.300262	629.908
0.301995	631.013
0.303739	632.123
0.305492	633.237
0.307256	634.355
0.30903	635.477
0.310814	636.603
0.312608	637.733
0.314413	638.868
0.316228	640.007
0.318053	641.15
0.31989	642.297
0.321736	643.448
0.323594	644.604
0.325462	645.764
0.327341	646.928
0.32923	648.096
0.331131	649.269
0.333043	650.446
0.334965	651.627
0.336899	652.812
0.338844	654.002
0.3408	655.196
0.342768	656.395
0.344747	657.598
0.346737	658.805
0.348739	660.016
0.350752	661.232
0.352777	662.452
0.354813	663.677
0.356862	664.906
0.358922	666.14
0.360994	667.378
0.363078	668.62
0.365174	669.867
0.367282	671.118
0.369403	672.374
0.371535	673.634
0.37368	674.899
0.375837	676.168
0.378007	677.441
0.380189	678.719
0.382384	680.002
0.384592	681.289
0.386812	682.581
0.389045	683.877
0.391291	685.178
0.39355	686.483
0.395822	687.793
0.398107	689.107
0.400405	690.426
0.402717	691.75
0.405042	693.078
0.40738	694.411
0.409732	695.748
0.412098	697.09
0.414477	698.437
0.416869	699.788
0.419276	701.144
0.421697	702.505
0.424131	703.87
0.42658	705.24
0.429042	706.614
0.431519	707.993
0.43401	709.377
0.436516	710.766
0.439036	712.159
0.44157	713.557
0.44412	714.96
0.446684	716.367
0.449262	717.779
0.451856	719.196
0.454465	720.617
0.457088	722.043
0.459727	723.474
0.462381	724.91
0.46505	726.35
0.467735	727.796
0.470435	729.245
0.473151	730.7
0.475883	732.159
0.47863	733.624
0.481393	735.093
0.484172	736.566
0.486968	738.045
0.489779	739.528
0.492606	741.016
0.49545	742.509
0.49831	744.007
0.501187	745.509
0.504081	747.016
0.506991	748.528
0.509918	750.045
0.512861	751.567
0.515822	753.093
0.5188	754.624
0.521795	756.16
0.524807	757.701
0.527837	759.247
0.530884	760.797
0.533949	762.352
0.537032	763.912
0.540132	765.477
0.54325	767.047
0.546387	768.621
0.549541	770.201
0.552713	771.785
0.555904	773.374
0.559114	774.967
0.562341	776.566
0.565588	778.169
0.568853	779.777
0.572137	781.39
0.57544	783.008
0.578762	784.63
0.582103	786.258
0.585464	787.89
0.588844	789.527
0.592243	791.168
0.595662	792.815
0.599101	794.466
0.60256	796.122
0.606038	797.783
0.609537	799.448
0.613056	801.118
0.616595	802.793
0.620155	804.473
0.623735	806.158
0.627336	807.847
0.630957	809.541
0.6346	811.24
0.638263	812.943
0.641948	814.651
0.645654	816.364
0.649382	818.082
0.653131	819.804
0.656901	821.531
0.660693	823.262
0.664508	824.999
0.668344	826.739
0.672202	828.485
0.676083	830.235
0.679986	831.99
0.683912	833.749
0.68786	835.513
0.691831	837.282
0.695825	839.055
0.699842	840.833
0.703882	842.615
0.707946	844.402
0.712033	846.193
0.716143	847.989
0.720278	849.789
0.724436	851.594
0.728618	853.404
0.732825	855.217
0.737055	857.036
0.74131	858.858
0.74559	860.685
0.749894	862.517
0.754223	864.353
0.758578	866.193
0.762957	868.037
0.767361	869.886
0.771792	871.739
0.776247	873.597
0.780728	875.459
0.785236	877.325
0.789769	879.195
0.794328	881.069
0.798914	882.948
0.803526	884.831
0.808165	886.717
0.812831	888.609
0.817523	890.504
0.822243	892.403
0.82699	894.306
0.831764	896.213
0.836566	898.125
0.841395	900.04
0.846253	901.959
0.851138	903.882
0.856052	905.809
0.860994	907.74
0.865964	909.675
0.870964	911.614
0.875992	913.556
0.881049	915.502
0.886135	917.452
0.891251	919.406
0.896396	921.363
0.901571	923.324
0.906776	925.288
0.912011	927.256
0.917276	929.228
0.922571	931.203
0.927897	933.181
0.933254	935.163
0.938642	937.149
0.944061	939.137
0.949511	941.13
0.954993	943.125
0.960506	945.124
0.966051	947.125
0.971628	949.13
0.977237	951.139
0.982879	953.15
0.988553	955.164
0.99426	957.182
1	959.202
1.00577	961.225
1.01158	963.251
1.01742	965.28
1.02329	967.312
1.0292	969.347
1.03514	971.384
1.04112	973.424
1.04713	975.466
1.05317	977.511
1.05925	979.559
1.06537	981.609
1.07152	983.662
1.07771	985.717
1.08393	987.774
1.09018	989.833
1.09648	991.895
1.10281	993.959
1.10917	996.025
1.11558	998.093
1.12202	1000.16
1.1285	1002.24
1.13501	1004.31
1.14156	1006.38
1.14815	1008.46
1.15478	1010.54
1.16145	1012.62
1.16815	1014.7
1.1749	1017.2
1.18168	1021.93
1.1885	1026.7
1.19536	1031.49
1.20226	1036.3
1.20921	1041.15
1.21619	1046.02
1.22321	1050.91
1.23027	1055.84
1.23737	1060.78
1.24451	1065.76
1.2517	1070.76
1.25893	1075.79
1.26619	1080.85
1.2735	1085.93
1.28086	1091.04
1.28825	1096.18
1.29569	1101.35
1.30317	1106.54
1.31069	1111.76
1.31826	1117.01
1.32587	1122.28
1.33352	1127.58
1.34122	1132.91
1.34896	1138.27
1.35675	1143.66
1.36458	1149.07
1.37246	1154.52
1.38038	1159.99
1.38835	1165.48
1.39637	1171.01
1.40443	1176.56
1.41254	1182.15
1.42069	1187.76
1.42889	1193.4
1.43714	1199.07
1.44544	1204.76
1.45378	1210.49
1.46218	1216.24
1.47062	1222.03
1.47911	1227.84
1.48765	1233.68
1.49624	1239.55
1.50487	1245.45
1.51356	1251.37
1.5223	1257.33
1.53109	1263.32
1.53993	1269.33
1.54882	1275.37
1.55776	1281.45
1.56675	1287.55
1.5758	1293.68
1.58489	1299.84
1.59404	1306.03
1.60325	1312.25
1.6125	1318.5
1.62181	1324.77
1.63117	1331.08
1.64059	1337.42
1.65006	1343.78
1.65959	1350.18
1.66917	1356.6
1.6788	1363.06
1.6885	1369.54
1.69824	1376.05
1.70805	1382.6
1.71791	1389.17
1.72783	1395.77
1.7378	1402.4
1.74783	1409.06
1.75792	1415.75
1.76807	1422.47
1.77828	1429.22
1.78855	1436
1.79887	1442.8
1.80926	1449.64
1.8197	1456.51
1.83021	1463.4
1.84077	1470.33
1.8514	1477.28
1.86209	1484.27
1.87284	1491.28
1.88365	1498.32
1.89452	1505.39
1.90546	1512.49
1.91646	1519.62
1.92752	1526.78
1.93865	1533.97
1.94984	1541.19
1.9611	1548.43
1.97242	1555.71
1.98381	1563.01
1.99526	1570.34
2.00678	1577.7
2.01837	1585.09
2.03002	1592.51
2.04174	1599.96
2.05353	1607.43
2.06538	1614.94
2.0773	1622.47
2.0893	1630.03
2.10136	1637.61
2.11349	1645.23
2.12569	1652.87
2.13796	1660.54
2.1503	1668.24
2.16272	1675.97
2.1752	1683.72
2.18776	1691.5
2.20039	1699.31
2.21309	1707.15
2.22587	1715.01
2.23872	1722.9
2.25165	1730.81
2.26464	1738.76
2.27772	1746.72
2.29087	1754.72
2.30409	1762.74
2.31739	1770.79
2.33077	1778.86
2.34423	1786.96
2.35776	1795.08
2.37137	1803.23
2.38506	1811.41
2.39883	1819.61
2.41268	1827.83
2.42661	1836.08
2.44062	1844.36
2.45471	1852.65
2.46888	1860.98
2.48313	1869.32
2.49747	1877.69
2.51189	1886.09
2.52639	1894.5
2.54097	1902.94
2.55564	1911.41
2.5704	1919.89
2.58523	1928.4
2.60016	1936.93
2.61517	1945.48
2.63027	1954.06
2.64545	1962.65
2.66073	1971.27
2.67609	1979.91
2.69153	1988.57
2.70707	1997.25
2.7227	2005.95
2.73842	2014.66
2.75423	2023.4
2.77013	2032.16
2.78612	2040.94
2.80221	2049.74
2.81838	2058.55
2.83465	2067.39
2.85102	2076.24
2.86748	2085.11
2.88403	2094
2.90068	2102.9
2.91743	2111.83
2.93427	2120.76
2.95121	2129.72
2.96825	2138.69
2.98538	2147.68
3.00262	2156.68
3.01995	2165.69
3.03739	2174.72
3.05492	2183.77
3.07256	2192.83
3.0903	2201.9
3.10814	2210.99
3.12608	2220.09
3.14413	2229.2
3.16228	2238.32
3.18053	2247.46
3.1989	2256.61
3.21736	2265.76
3.23594	2274.93
3.25462	2284.11
3.27341	2293.3
3.2923	2302.5
3.31131	2311.71
3.33043	2320.92
3.34965	2330.15
3.36899	2339.38
3.38844	2348.62
3.408	2357.87
3.42768	2367.12
3.44747	2376.38
3.46737	2385.65
3.48739	2394.92
3.50752	2404.2
3.52777	2413.48
3.54813	2422.77
3.56862	2432.05
3.58922	2441.35
3.60994	2450.64
3.63078	2459.94
3.65174	2469.24
3.67282	2478.54
3.69403	2487.84
3.71535	2497.14
3.7368	2506.45
3.75837	2515.75
3.78007	2525.05
3.80189	2534.35
3.82384	2543.65
3.84592	2552.94
3.86812	2562.23
3.89045	2571.52
3.91291	2580.81
3.9355	2590.09
3.95822	2599.37
3.98107	2608.64
4.00405	2617.9
4.02717	2627.16
4.05042	2636.42
4.0738	2645.66
4.09732	2654.9
4.12098	2664.13
4.14477	2673.35
4.16869	2682.56
4.19276	2691.76
4.21697	2700.95
4.24131	2710.13
4.2658	2719.3
4.29042	2728.46
4.31519	2737.6
4.3401	2746.73
4.36516	2755.85
4.39036	2764.96
4.4157	2774.05
4.4412	2783.12
4.46684	2792.18
4.49262	2801.22
4.51856	2810.25
4.54465	2819.26
4.57088	2828.25
4.59727	2837.23
4.62381	2846.18
4.6505	2855.12
4.67735	2864.03
4.70435	2872.93
4.73151	2881.8
4.75883	2890.66
4.7863	2899.49
4.81393	2908.3
4.84172	2917.09
4.86968	2925.85
4.89779	2934.59
4.92606	2943.3
4.9545	2951.99
4.9831	2960.66
5.01187	2969.29
5.04081	2977.9
5.06991	2986.49
5.09918	2995.05
5.12861	3003.57
5.15822	3012.07
5.188	3020.54
5.21795	3028.98
5.24807	3037.39
5.27837	3045.77
5.30884	3052.32
5.33949	3060.62
5.37032	3068.88
5.40132	3077.11
5.4325	3085.31
5.46387	3093.47
5.49541	3101.6
5.52713	3109.7
5.55904	3117.75
5.59114	3125.78
5.62341	3133.76
5.65588	3141.71
5.68853	3149.63
5.72137	3157.5
5.7544	3165.34
5.78762	3173.14
5.82103	3180.9
5.85464	3188.62
5.88844	3196.3
5.92243	3203.93
5.95662	3211.53
5.99101	3219.09
6.0256	3226.6
6.06038	3234.08
6.09537	3241.51
6.13056	3248.89
6.16595	3256.24
6.20155	3263.54
6.23735	3270.79
6.27336	3278
6.30957	3285.17
6.346	3292.29
6.38263	3299.36
6.41948	3306.39
6.45654	3313.37
6.49382	3320.3
6.53131	3327.19
6.56901	3334.03
6.60693	3340.82
6.64508	3347.56
6.68344	3354.25
6.72202	3360.89
6.76083	3367.49
6.79986	3374.03
6.83912	3380.53
6.8786	3386.97
6.91831	3393.36
6.95825	3399.7
6.99842	3405.99
7.03882	3412.23
7.07946	3418.42
7.12033	3424.55
7.16143	3430.63
7.20278	3436.66
7.24436	3442.64
7.28618	3448.56
7.32825	3454.43
7.37055	3460.24
7.4131	3466.01
7.4559	3471.71
7.49894	3477.36
7.54223	3482.96
7.58578	3488.5
7.62957	3493.99
7.67361	3499.42
7.71792	3504.8
7.76247	3510.12
7.80728	3515.39
7.85236	3520.59
7.89769	3525.75
7.94328	3530.84
7.98914	3535.88
8.03526	3540.87
8.08165	3545.79
8.12831	3550.66
8.17523	3555.48
8.22243	3560.23
8.2699	3564.93
8.31764	3569.57
8.36566	3574.16
8.41395	3578.68
8.46253	3583.15
8.51138	3587.56
8.56052	3591.92
8.60994	3596.21
8.65964	3600.45
8.70964	3604.63
8.75992	3608.75
8.81049	3612.82
8.86135	3616.82
8.91251	3620.77
8.96396	3624.66
9.01571	3628.5
9.06776	3632.27
9.12011	3635.99
9.17276	3639.65
9.22571	3643.25
9.27897	3646.79
9.33254	3650.28
9.38642	3653.71
9.44061	3657.08
9.49511	3660.39
9.54993	3663.65
9.60506	3666.84
9.66051	3669.98
9.71628	3673.07
9.77237	3676.09
9.82879	3679.06
9.88553	3681.98
9.9426	3684.83
10	3687.63
10.0577	3690.37
10.1158	3693.06
10.1742	3695.69
10.2329	3698.26
10.292	3700.78
10.3514	3703.24
10.4112	3705.65
10.4713	3708
10.5317	3710.29
10.5925	3712.53
10.6537	3714.72
10.7152	3716.85
10.7771	3718.92
10.8393	3720.94
10.9018	3722.91
10.9648	3724.82
11.0281	3726.68
11.0917	3728.49
11.1558	3730.24
11.2202	3731.94
11.285	3733.59
11.3501	3735.18
11.4156	3736.72
11.4815	3738.21
11.5478	3739.65
11.6145	3741.03
11.6815	3742.37
11.749	3743.65
11.8168	3744.89
11.885	3746.07
11.9536	3747.2
12.0226	3748.28
12.0921	3749.32
12.1619	3750.3
12.2321	3751.24
12.3027	3752.12
12.3737	3752.96
12.4451	3753.75
12.517	3754.49
12.5893	3755.18
12.6619	3755.83
12.735	3756.43
12.8086	3742.44
12.8825	3743.09
12.9569	3743.69
13.0317	3744.24
13.1069	3744.75
13.1826	3745.21
13.2587	3745.63
13.3352	3746
13.4122	3746.33
13.4896	3746.61
13.5675	3746.85
13.6458	3747.05
13.7246	3747.2
13.8038	3747.31
13.8835	3747.38
13.9637	3747.4
14.0443	3747.38
14.1254	3747.33
14.2069	3747.23
14.2889	3747.09
14.3714	3746.91
14.4544	3746.69
14.5378	3746.43
14.6218	3746.13
14.7062	3745.79
14.7911	3745.42
14.8765	3745
14.9624	3744.55
15.0487	3744.06
15.1356	3743.54
15.223	3742.98
15.3109	3742.38
15.3993	3741.75
15.4882	3741.08
15.5776	3740.37
15.6675	3739.64
15.758	3738.86
15.8489	3738.06
15.9404	3737.22
16.0325	3736.35
16.125	3735.44
16.2181	3734.5
16.3117	3733.54
16.4059	3732.54
16.5006	3731.5
16.5959	3730.44
16.6917	3729.35
16.788	3728.23
16.885	3727.08
16.9824	3725.9
17.0805	3724.69
17.1791	3723.45
17.2783	3722.19
17.378	3720.89
17.4783	3719.57
17.5792	3718.23
17.6807	3716.85
17.7828	3715.45
17.8855	3714.03
17.9887	3712.58
18.0926	3711.1
18.197	3709.6
18.3021	3708.08
18.4077	3706.53
18.514	3704.96
18.6209	3703.36
18.7284	3701.75
18.8365	3700.1
18.9452	3698.44
19.0546	3696.76
19.1646	3695.05
19.2752	3693.33
19.3865	3691.58
19.4984	3689.81
19.611	3688.02
19.7242	3686.22
19.8381	3684.39
19.9526	3682.54
20.0678	3680.68
20.1837	3678.8
20.3002	3676.9
20.4174	3674.98
20.5353	3673.04
20.6538	3671.09
20.773	3669.12
20.893	3667.13
21.0136	3665.13
21.1349	3663.11
21.2569	3661.07
21.3796	3659.02
21.503	3656.96
21.6272	3654.88
21.752	3652.79
21.8776	3650.68
22.0039	3648.56
22.1309	3646.42
22.2587	3644.27
22.3872	3642.11
22.5165	3639.93
22.6464	3637.74
22.7772	3635.54
22.9087	3633.33
23.0409	3631.11
23.1739	3628.87
23.3077	3626.62
23.4423	3624.37
23.5776	3622.1
23.7137	3619.82
23.8506	3617.53
23.9883	3615.23
24.1268	3612.92
24.2661	3610.6
24.4062	3608.27
24.5471	3605.93
24.6888	3603.58
24.8313	3601.22
24.9747	3598.86
25.1189	3596.48
25.2639	3594.1
25.4097	3591.71
25.5564	3589.31
25.704	3586.9
25.8523	3584.49
26.0016	3582.07
26.1517	3579.64
26.3027	3577.2
26.4545	3574.76
26.6073	3572.31
26.7609	3569.85
26.9153	3567.39
27.0707	3564.92
27.227	3562.44
27.3842	3559.96
27.5423	3557.47
27.7013	3554.97
27.8612	3552.47
28.0221	3549.97
28.1838	3547.46
28.3465	3544.94
28.5102	3542.42
28.6748	3539.89
28.8403	3537.36
29.0068	3534.83
29.1743	3532.28
29.3427	3529.74
29.5121	3527.19
29.6825	3524.63
29.8538	3522.07
30.0262	3519.51
30.1995	3516.94
30.3739	3514.37
30.5492	3511.79
30.7256	3509.21
30.903	3506.63
31.0814	3504.04
31.2608	3501.45
31.4413	3498.85
31.6228	3496.25
31.8053	3493.65
31.989	3491.04
32.1736	3488.43
32.3594	3485.82
32.5462	3483.2
32.7341	3480.58
32.923	3477.95
33.1131	3475.32
33.3043	3472.69
33.4965	3470.06
33.6899	3467.42
33.8844	3464.78
34.08	3462.14
34.2768	3459.49
34.4747	3456.84
34.6737	3454.18
34.8739	3451.53
35.0752	3448.87
35.2777	3446.2
35.4813	3443.54
35.6862	3440.87
35.8922	3438.2
36.0994	3435.52
36.3078	3432.84
36.5174	3430.16
36.7282	3427.48
36.9403	3424.79
37.1535	3422.1
37.368	3419.4
37.5837	3416.71
37.8007	3414.01
38.0189	3411.3
38.2384	3408.59
38.4592	3405.88
38.6812	3403.17
38.9045	3400.45
39.1291	3397.74
39.355	3395.01
39.5822	3392.29
39.8107	3389.56
40.0405	3386.82
40.2717	3384.09
40.5042	3381.35
40.738	3378.6
40.9732	3375.86
41.2098	3373.11
41.4477	3370.35
41.6869	3367.59
41.9276	3364.83
42.1697	3362.07
42.4131	3359.3
42.658	3356.53
42.9042	3353.75
43.1519	3350.97
43.401	3348.19
43.6516	3345.4
43.9036	3342.61
44.157	3339.81
44.412	3337.01
44.6684	3334.21
44.9262	3331.4
45.1856	3328.59
45.4465	3325.77
45.7088	3322.95
45.9727	3320.12
46.2381	3317.29
46.505	3314.46
46.7735	3311.62
47.0435	3308.78
47.3151	3305.93
47.5883	3303.08
47.863	3300.22
48.1393	3297.36
48.4172	3294.49
48.6968	3291.62
48.9779	3288.74
49.2606	3285.86
49.545	3282.97
49.831	3280.08
50.1187	3277.18
50.4081	3274.28
50.6991	3271.37
50.9918	3268.46
51.2861	3265.54
51.5822	3262.61
51.88	3259.68
52.1795	3256.75
52.4807	3253.8
52.7837	3250.86
53.0884	3247.9
53.3949	3244.94
53.7032	3241.98
54.0132	3239.01
54.325	3236.03
54.6387	3233.05
54.9541	3230.06
55.2713	3227.06
55.5904	3224.06
55.9114	3221.05
56.2341	3218.04
56.5588	3215.02
56.8853	3211.99
57.2137	3208.95
57.544	3205.91
57.8762	3202.87
58.2103	3199.81
58.5464	3196.75
58.8844	3193.68
59.2243	3190.61
59.5662	3187.52
59.9101	3184.43
60.256	3181.34
60.6038	3178.23
60.9537	3175.12
61.3056	3172
61.6595	3168.88
62.0155	3165.74
62.3735	3162.6
62.7336	3159.45
63.0957	3156.3
63.46	3153.13
63.8263	3149.96
64.1948	3146.78
64.5654	3143.59
64.9382	3140.4
65.3131	3137.19
65.6901	3133.98
66.0693	3130.76
66.4508	3127.53
66.8344	3124.3
67.2202	3121.05
67.6083	3117.8
67.9986	3114.54
68.3912	3111.27
68.786	3107.99
69.1831	3104.7
69.5825	3101.41
69.9842	3098.11
70.3882	3094.79
70.7946	3091.47
71.2033	3088.14
71.6143	3084.8
72.0278	3081.45
72.4436	3078.09
72.8618	3074.73
73.2825	3071.35
73.7055	3067.97
74.131	3064.57
74.559	3061.17
74.9894	3057.76
75.4223	3054.33
75.8578	3050.9
76.2957	3047.46
76.7361	3044.01
77.1792	3040.55
77.6247	3037.08
78.0728	3033.6
78.5236	3030.11
78.9769	3026.62
79.4328	3022.69
79.8914	3017
80.3526	3011.32
80.8165	3005.65
81.2831	3000
81.7523	2994.35
82.2243	2988.72
82.699	2983.26
83.1764	2977.63
83.6566	2971.99
84.1395	2966.38
84.6253	2960.76
85.1138	2955.14
85.6052	2949.54
86.0994	2943.93
86.5964	2938.33
87.0964	2932.73
87.5992	2927.13
88.1049	2921.54
88.6135	2916.34
89.1251	2910.76
89.6396	2905.3
90.1571	2899.72
90.6776	2894.14
91.2011	2888.57
91.7276	2883
92.2571	2877.43
92.7897	2871.87
93.3254	2866.31
93.8642	2860.76
94.4061	2855.2
94.9511	2849.64
95.4993	2844.09
96.0506	2838.54
96.6051	2832.99
97.1628	2829.13
97.7237	2823.57
98.2879	2818.01
98.8553	2812.46
99.426	2801.25
100	2795.6
100.577	2790.47
101.158	2784.82
101.742	2779.17
102.329	2773.53
102.92	2767.9
103.514	2762.27
104.112	2756.65
104.713	2751.02
105.317	2745.4
105.925	2739.78
106.537	2734.16
107.152	2728.54
107.771	2722.91
108.393	2717.29
109.018	2711.67
109.648	2706.05
110.281	2700.42
110.917	2694.8
111.558	2689.17
112.202	2683.55
112.85	2677.92
113.501	2672.29
114.156	2666.65
114.815	2661.02
115.478	2655.39
116.145	2649.75
116.815	2644.11
117.49	2638.47
118.168	2634.53
118.85	2628.89
119.536	2623.23
120.226	2617.58
120.921	2611.93
121.619	2606.27
122.321	2600.62
123.027	2594.95
123.737	2589.29
124.451	2583.63
125.17	2577.96
125.893	2572.3
126.619	2566.63
127.35	2560.96
128.086	2555.29
128.825	2549.62
129.569	2543.95
130.317	2538.27
131.069	2532.6
131.826	2526.93
132.587	2521.25
133.352	2515.57
134.122	2509.9
134.896	2504.33
135.675	2498.65
136.458	2492.97
137.246	2487.29
138.038	2481.61
138.835	2475.93
139.637	2470.34
140.443	2464.93
141.254	2459.51
142.069	2454.09
142.889	2448.66
143.714	2443.23
144.544	2437.8
145.378	2432.37
146.218	2426.94
147.062	2421.5
147.911	2416.06
148.765	2410.62
149.624	2405.18
150.487	2399.74
151.356	2394.29
152.23	2388.84
153.109	2383.39
153.993	2377.94
154.882	2372.49
155.776	2367.04
156.675	2361.59
157.58	2356.13
158.489	2350.68
159.404	2345.22
160.325	2339.77
161.25	2334.31
162.181	2329.52
163.117	2324.05
164.059	2318.58
165.006	2313.12
165.959	2307.65
166.917	2302.18
167.88	2296.71
168.85	2291.25
169.824	2285.78
170.805	2280.32
171.791	2274.86
172.783	2269.39
173.78	2263.93
174.783	2258.47
175.792	2253.02
176.807	2247.56
177.828	2243.69
178.855	2238.23
179.887	2232.76
180.926	2227.3
181.97	2221.84
183.021	2216.39
184.077	2210.93
185.14	2205.48
186.209	2200.03
187.284	2194.59
188.365	2189.14
189.452	2183.7
190.546	2178.27
191.646	2172.83
192.752	2167.4
193.865	2161.98
194.984	2156.55
196.11	2151.13
197.242	2145.72
198.381	2140.3
199.526	2134.89
200.678	2129.49
201.837	2124.08
203.002	2118.68
204.174	2113.29
205.353	2107.89
206.538	2102.5
207.73	2097.12
208.93	2091.74
210.136	2086.36
211.349	2080.99
212.569	2075.62
213.796	2070.25
215.03	2064.89
216.272	2059.53
217.52	2054.18
218.776	2048.83
220.039	2043.48
221.309	2038.14
222.587	2032.8
223.872	2027.47
225.165	2022.18
226.464	2016.86
227.772	2011.98
229.087	2006.66
230.409	2001.34
231.739	1996.02
233.077	1990.71
234.423	1985.4
235.776	1980.09
237.137	1974.79
238.506	1969.49
239.883	1964.2
241.268	1958.91
242.661	1953.63
244.062	1948.35
245.471	1943.07
246.888	1937.8
248.313	1932.53
249.747	1927.27
251.189	1922.01
252.639	1916.76
254.097	1911.51
255.564	1906.26
257.04	1901.02
258.523	1895.78
260.016	1890.54
261.517	1885.32
263.027	1880.09
264.545	1874.87
266.073	1869.65
267.609	1864.44
269.153	1859.24
270.707	1854.03
272.27	1848.83
273.842	1843.64
275.423	1838.45
277.013	1833.27
278.612	1828.08
280.221	1822.91
281.838	1817.74
283.465	1812.57
285.102	1807.41
286.748	1802.25
288.403	1797.1
290.068	1791.95
291.743	1786.81
293.427	1781.67
295.121	1776.54
296.825	1771.41
298.538	1766.88
300.262	1761.75
301.995	1756.63
303.739	1751.51
305.492	1746.39
307.256	1741.28
309.03	1736.18
310.814	1731.08
312.608	1725.99
314.413	1720.9
316.228	1715.84
318.053	1710.76
319.89	1705.68
321.736	1700.61
323.594	1695.55
325.462	1690.49
327.341	1685.43
329.23	1680.38
331.131	1675.34
333.043	1670.31
334.965	1665.27
336.899	1660.25
338.844	1655.22
340.8	1650.21
342.768	1645.19
344.747	1640.19
346.737	1635.19
348.739	1630.19
350.752	1625.2
352.777	1620.22
354.813	1615.24
356.862	1610.26
358.922	1605.29
360.994	1600.33
363.078	1595.37
365.174	1590.42
367.282	1585.48
369.403	1580.54
371.535	1575.6
373.68	1570.67
375.837	1565.75
378.007	1560.83
380.189	1555.92
382.384	1551.01
384.592	1546.12
386.812	1541.22
389.045	1536.33
391.291	1531.45
393.55	1526.58
395.822	1521.71
398.107	1516.85
400.405	1511.99
402.717	1507.14
405.042	1502.3
407.38	1497.46
409.732	1492.63
412.098	1487.81
414.477	1482.99
416.869	1478.18
419.276	1473.76
421.697	1468.95
424.131	1464.16
426.58	1459.37
429.042	1454.59
431.519	1449.81
434.01	1445.05
436.516	1440.29
439.036	1435.53
441.57	1430.79
444.12	1426.05
446.684	1421.31
449.262	1416.59
451.856	1411.87
454.465	1407.16
457.088	1402.46
459.727	1397.77
462.381	1393.08
465.05	1388.4
467.735	1383.73
470.435	1379.06
473.151	1374.41
475.883	1369.76
478.63	1365.12
481.393	1360.49
484.172	1355.86
486.968	1351.24
489.779	1346.64
492.606	1342.03
495.45	1337.44
498.31	1332.86
501.187	1328.28
504.081	1323.72
506.991	1319.16
509.918	1314.61
512.861	1310.06
515.822	1305.53
518.8	1301
521.795	1296.49
524.807	1291.98
527.837	1287.48
530.884	1282.98
533.949	1278.5
537.032	1274.03
540.132	1269.56
543.25	1265.1
546.387	1260.65
549.541	1256.21
552.713	1251.78
555.904	1247.36
559.114	1242.95
562.341	1238.54
565.588	1234.15
568.853	1229.76
572.137	1225.39
575.44	1221.02
578.762	1217.24
582.103	1212.89
585.464	1208.54
588.844	1204.21
592.243	1199.88
595.662	1195.56
599.101	1191.25
602.56	1186.95
606.038	1182.66
609.537	1178.38
613.056	1174.11
616.595	1169.85
620.155	1165.6
623.735	1161.36
627.336	1157.13
630.957	1152.91
634.6	1148.69
638.263	1144.49
641.948	1140.3
645.654	1136.11
649.382	1131.94
653.131	1127.77
656.901	1123.62
660.693	1119.47
664.508	1115.34
668.344	1111.21
672.202	1107.1
676.083	1102.99
679.986	1098.9
683.912	1094.81
687.86	1090.74
691.831	1086.67
695.825	1082.61
699.842	1078.57
703.882	1074.53
707.946	1070.5
712.033	1066.49
716.143	1062.48
720.278	1058.48
724.436	1054.49
728.618	1050.52
732.825	1046.55
737.055	1042.59
741.31	1038.65
745.59	1034.71
749.894	1030.78
754.223	1026.86
758.578	1022.96
762.957	1019.06
767.361	1015.17
771.792	1011.3
776.247	1007.43
780.728	1003.58
785.236	999.729
789.769	995.893
794.328	992.067
798.914	988.252
803.526	984.446
808.165	980.651
812.831	976.866
817.523	973.091
822.243	969.327
826.99	965.573
831.764	961.829
836.566	958.095
841.395	954.372
846.253	950.659
851.138	946.957
856.052	943.264
860.994	939.582
865.964	935.911
870.964	932.249
875.992	928.598
881.049	924.958
886.135	921.327
891.251	917.707
896.396	914.098
901.571	910.499
906.776	906.91
912.011	903.332
917.276	899.764
922.571	896.206
927.897	892.659
933.254	889.122
938.642	885.596
944.061	882.08
949.511	878.575
954.993	875.08
960.506	871.595
966.051	868.121
971.628	864.658
977.237	861.205
982.879	857.762
988.553	854.33
994.26	850.908
1000	847.497
1005.77	844.097
1011.58	840.706
1017.42	837.326
1023.29	833.957
1029.2	830.598
1035.14	827.25
1041.12	823.912
1047.13	820.585
1053.17	817.269
1059.25	813.963
1065.37	810.667
1071.52	807.382
1077.71	804.107
1083.93	800.843
1090.18	797.59
1096.48	794.347
1102.81	791.114
1109.17	787.892
1115.58	784.68
1122.02	781.48
1128.5	778.289
1135.01	775.109
1141.56	771.939
1148.15	768.779
1154.78	765.63
1161.45	762.492
1168.15	759.364
1174.9	756.246
1181.68	753.139
1188.5	750.043
1195.36	746.956
1202.26	743.88
1209.21	740.814
1216.19	737.759
1223.21	734.715
1230.27	731.68
1237.37	728.657
1244.51	725.643
1251.7	722.64
1258.93	719.647
1266.19	716.665
1273.5	713.693
1280.86	710.731
1288.25	707.78
1295.69	704.839
1303.17	701.908
1310.69	698.987
1318.26	696.077
1325.87	693.177
1333.52	690.287
1341.22	687.408
1348.96	684.538
1356.75	681.679
1364.58	678.83
1372.46	675.992
1380.38	673.163
1388.35	670.345
1396.37	667.537
1404.43	664.739
1412.54	661.951
1420.69	659.173
1428.89	656.405
1437.14	653.648
1445.44	650.9
1453.78	648.163
1462.18	645.435
1470.62	642.718
1479.11	640.011
1487.65	637.313
1496.24	634.626
1504.87	631.948
1513.56	629.281
1522.3	626.624
1531.09	623.976
1539.93	621.338
1548.82	618.711
1557.76	616.093
1566.75	613.485
1575.8	610.886
1584.89	608.298
1594.04	605.72
1603.25	603.151
1612.5	600.592
1621.81	598.043
1631.17	595.503
1640.59	592.974
1650.06	590.454
1659.59	587.943
1669.17	585.443
1678.8	582.952
1688.5	580.471
1698.24	577.999
1708.05	575.537
1717.91	573.085
1727.83	570.642
1737.8	568.209
1747.83	565.785
1757.92	563.371
1768.07	560.966
1778.28	558.571
1788.55	556.185
1798.87	553.809
1809.26	551.442
1819.7	549.084
1830.21	546.736
1840.77	544.397
1851.4	542.068
1862.09	539.748
1872.84	537.437
1883.65	535.136
1894.52	532.844
1905.46	530.561
1916.46	528.287
1927.52	526.022
1938.65	523.767
1949.84	521.521
1961.1	519.284
1972.42	517.056
1983.81	514.837
1995.26	512.627
2006.78	510.427
2018.37	508.235
2030.02	506.052
2041.74	503.879
2053.53	501.714
2065.38	499.558
2077.3	497.412
2089.3	495.274
2101.36	493.145
2113.49	491.025
2125.69	488.914
2137.96	486.811
2150.3	484.718
2162.72	482.633
2175.2	480.557
2187.76	478.489
2200.39	476.431
2213.09	474.381
2225.87	472.339
2238.72	470.307
2251.65	468.283
2264.64	466.267
2277.72	464.26
2290.87	462.262
2304.09	460.272
2317.39	458.291
2330.77	456.318
2344.23	454.354
2357.76	452.398
2371.37	450.45
2385.06	448.511
2398.83	446.58
2412.68	444.658
2426.61	442.744
2440.62	440.838
2454.71	438.94
2468.88	437.051
2483.13	435.17
2497.47	433.297
2511.89	431.432
2526.39	429.576
2540.97	427.727
2555.64	425.887
2570.4	424.054
2585.23	422.23
2600.16	420.414
2615.17	418.606
2630.27	416.806
2645.45	415.013
2660.73	413.229
2676.09	411.453
2691.53	409.684
2707.07	407.923
2722.7	406.171
2738.42	404.425
2754.23	402.688
2770.13	400.959
2786.12	399.237
2802.21	397.523
2818.38	395.817
2834.65	394.118
2851.02	392.427
2867.48	390.743
2884.03	389.067
2900.68	387.399
2917.43	385.738
2934.27	384.085
2951.21	382.439
2968.25	380.801
2985.38	379.17
3002.62	377.547
3019.95	375.931
3037.39	374.322
3054.92	372.721
3072.56	371.127
3090.3	369.54
3108.14	367.96
3126.08	366.388
3144.13	364.823
3162.28	363.265
3180.53	361.715
3198.9	360.171
3217.36	358.635
3235.94	357.105
3254.62	355.583
3273.41	354.068
3292.3	352.56
3311.31	351.059
3330.43	349.564
3349.65	348.077
3368.99	346.597
3388.44	345.123
3408	343.657
3427.68	342.197
3447.47	340.744
3467.37	339.298
3487.39	337.858
3507.52	336.426
3527.77	335
3548.13	333.581
3568.62	332.168
3589.22	330.762
3609.94	329.363
3630.78	327.97
3651.74	326.584
3672.82	325.204
3694.03	323.831
3715.35	322.465
3736.8	321.105
3758.37	319.751
3780.07	318.404
3801.89	317.063
3823.84	315.729
3845.92	314.401
3868.12	313.079
3890.45	311.764
3912.91	310.455
3935.5	309.152
3958.22	307.855
3981.07	306.565
4004.05	305.281
4027.17	304.003
4050.42	302.731
4073.8	301.465
4097.32	300.206
4120.98	298.952
4144.77	297.704
4168.69	296.463
4192.76	295.227
4216.97	293.998
4241.31	292.774
4265.8	291.556
4290.42	290.345
4315.19	289.139
4340.1	287.939
4365.16	286.745
4390.36	285.556
4415.7	284.374
4441.2	283.197
4466.84	282.026
4492.62	280.86
4518.56	279.701
4544.65	278.547
4570.88	277.398
4597.27	276.256
4623.81	275.119
4650.5	273.987
4677.35	272.861
4704.35	271.741
4731.51	270.626
4758.83	269.516
4786.3	268.412
4813.93	267.314
4841.72	266.221
4869.68	265.133
4897.79	264.051
4926.06	262.974
4954.5	261.902
4983.1	260.836
5011.87	259.775
5040.81	258.719
5069.91	257.669
5099.18	256.624
5128.61	255.584
5158.22	254.549
5188	253.519
5217.95	252.494
5248.07	251.475
5278.37	250.461
5308.84	249.451
5339.49	248.447
5370.32	247.448
5401.32	246.454
5432.5	245.465
5463.87	244.48
5495.41	243.501
5527.13	242.527
5559.04	241.557
5591.14	240.593
5623.41	239.633
5655.88	238.678
5688.53	237.728
5721.37	236.783
5754.4	235.843
5787.62	234.907
5821.03	233.976
5854.64	233.05
5888.44	232.128
5922.43	231.211
5956.62	230.299
5991.01	229.392
6025.6	228.489
6060.38	227.59
6095.37	226.697
6130.56	225.807
6165.95	224.923
6201.55	224.043
6237.35	223.167
6273.36	222.296
6309.57	221.429
6346	220.567
6382.63	219.709
6419.48	218.856
6456.54	218.007
6493.82	217.162
6531.31	216.321
6569.01	215.485
6606.93	214.654
6645.08	213.826
6683.44	213.003
6722.02	212.184
6760.83	211.37
6799.86	210.559
6839.12	209.753
6878.6	208.951
6918.31	208.153
6958.25	207.359
6998.42	206.569
7038.82	205.784
7079.46	205.002
7120.33	204.225
7161.43	203.452
7202.78	202.682
7244.36	201.917
7286.18	201.156
7328.25	200.398
7370.55	199.645
7413.1	198.895
7455.9	198.15
7498.94	197.408
7542.23	196.67
7585.78	195.937
7629.57	195.206
7673.61	194.48
7717.92	193.758
7762.47	193.039
7807.28	192.325
7852.36	191.614
7897.69	190.906
7943.28	190.203
7989.14	189.503
8035.26	188.807
8081.65	188.114
8128.31	187.426
8175.23	186.741
8222.43	186.059
8269.9	185.381
8317.64	184.707
8365.66	184.036
8413.95	183.369
8462.53	182.706
8511.38	182.046
8560.52	181.389
8609.94	180.736
8659.64	180.087
8709.64	179.441
8759.92	178.798
8810.49	178.159
8861.35	177.524
8912.51	176.891
8963.96	176.262
9015.71	175.637
9067.76	175.015
9120.11	174.396
9172.76	173.781
9225.71	173.168
9278.97	172.56
9332.54	171.954
9386.42	171.352
9440.61	170.753
9495.11	170.157
9549.93	169.565
9605.06	168.975
9660.51	168.389
9716.28	167.806
9772.37	167.227
9828.79	166.65
9885.53	166.077
9942.6	165.506
10000	164.939
10057.7	164.375
10115.8	163.814
10174.2	163.256
10232.9	162.701
10292	162.15
10351.4	161.601
10411.2	161.055
10471.3	160.512
10531.7	159.973
10592.5	159.436
10653.7	158.902
10715.2	158.371
10777.1	157.843
10839.3	157.318
10901.8	156.796
10964.8	156.277
11028.1	155.761
11091.7	155.247
11155.8	154.737
11220.2	154.229
11285	153.724
11350.1	153.222
11415.6	152.723
11481.5	152.226
11547.8	151.732
11614.5	151.241
11681.5	150.753
11749	150.268
11816.8	149.785
11885	149.305
11953.6	148.828
12022.6	148.353
12092.1	147.881
12161.9	147.412
12232.1	146.945
12302.7	146.481
12373.7	146.02
12445.1	145.561
12517	145.105
12589.3	144.652
12661.9	144.201
12735	143.753
12808.6	143.307
12882.5	142.864
12956.9	142.423
13031.7	141.985
13106.9	141.549
13182.6	141.116
13258.7	140.685
13335.2	140.257
13412.2	139.831
13489.6	139.408
13567.5	138.987
13645.8	138.569
13724.6	138.153
13803.8	137.739
13883.5	137.328
13963.7	136.92
14044.3	136.513
14125.4	136.109
14206.9	135.708
14288.9	135.308
14371.4	134.911
14454.4	134.517
14537.8	134.125
14621.8	133.735
14706.2	133.347
14791.1	132.961
14876.5	132.578
14962.4	132.197
15048.7	131.819
15135.6	131.442
15223	131.068
15310.9	130.696
15399.3	130.327
15488.2	129.959
15577.6	129.594
15667.5	129.231
15758	128.87
15848.9	128.511
15940.4	128.154
16032.5	127.8
16125	127.448
16218.1	127.097
16311.7	126.749
16405.9	126.403
16500.6	126.059
16595.9	125.717
16691.7	125.378
16788	125.04
16885	124.704
16982.4	124.371
17080.5	124.039
17179.1	123.71
17278.3	123.382
17378	123.057
17478.3	122.733
17579.2	122.412
17680.7	122.092
17782.8	121.775
17885.5	121.459
17988.7	121.146
18092.6	120.834
18197	120.524
18302.1	120.217
18407.7	119.911
18514	119.607
18620.9	119.305
18728.4	119.005
18836.5	118.706
18945.2	118.41
19054.6	118.115
19164.6	117.823
19275.2	117.532
19386.5	117.243
19498.4	116.956
19611	116.671
19724.2	116.387
19838.1	116.106
19952.6	115.826
20067.8	115.548
20183.7	115.271
20300.2	114.997
20417.4	114.724
20535.3	114.453
20653.8	114.184
20773	113.917
20893	113.651
21013.6	113.387
21134.9	113.125
21256.9	112.864
21379.6	112.606
21503	112.349
21627.2	112.093
21752	111.839
21877.6	111.587
22003.9	111.337
22130.9	111.088
22258.7	110.841
22387.2	110.596
22516.5	110.352
22646.4	110.11
22777.2	109.869
22908.7	109.631
23040.9	109.393
23173.9	109.158
23307.7	108.924
23442.3	108.691
23577.6	108.46
23713.7	108.231
23850.6	108.003
23988.3	107.777
24126.8	107.552
24266.1	107.329
24406.2	107.108
24547.1	106.888
24688.8	106.669
24831.3	106.452
24974.7	106.237
25118.9	106.023
25263.9	105.811
25409.7	105.6
25556.4	105.39
25704	105.182
25852.3	104.976
26001.6	104.771
26151.7	104.567
26302.7	104.365
26454.5	104.164
26607.3	103.965
26760.9	103.767
26915.3	103.571
27070.7	103.376
27227	103.182
27384.2	102.99
27542.3	102.8
27701.3	102.61
27861.2	102.422
28022.1	102.236
28183.8	102.051
28346.5	101.867
28510.2	101.684
28674.8	101.503
28840.3	101.324
29006.8	101.145
29174.3	100.968
29342.7	100.792
29512.1	100.618
29682.5	100.445
29853.8	100.273
30026.2	100.103
30199.5	99.9338
30373.9	99.766
30549.2	99.5995
30725.6	99.4342
30903	99.2703
31081.4	99.1076
31260.8	98.9462
31441.3	98.7861
31622.8	98.6272
31805.3	98.4696
31989	98.3132
32173.6	98.1581
32359.4	98.0042
32546.2	97.8515
32734.1	97.7001
32923	97.5499
33113.1	97.4009
33304.3	97.2531
33496.5	97.1065
33689.9	96.9611
33884.4	96.8169
34080	96.6739
34276.8	96.5321
34474.7	96.3914
34673.7	96.252
34873.9	96.1136
35075.2	95.9765
35277.7	95.8405
35481.3	95.7057
35686.2	95.572
35892.2	95.4394
36099.4	95.308
36307.8	95.1777
36517.4	95.0485
36728.2	94.9205
36940.3	94.7936
37153.5	94.6677
37368	94.543
37583.7	94.4194
37800.7	94.2969
38018.9	94.1755
38238.4	94.0551
38459.2	93.9359
38681.2	93.8127
38904.5	93.6857
39129.1	93.5597
39355	93.4347
39582.2	93.3108
39810.7	93.1879
40040.5	93.066
40271.7	92.9452
40504.2	92.8254
40738	92.7066
40973.2	92.5888
41209.8	92.4721
41447.7	92.3563
41686.9	92.2415
41927.6	92.1277
42169.7	92.0149
42413.1	91.9031
42658	91.7923
42904.2	91.6824
43151.9	91.5735
43401	91.4656
43651.6	91.3586
43903.6	91.2526
44157	91.1475
44412	91.0434
44668.4	90.9402
44926.2	90.838
45185.6	90.7367
45446.5	90.6363
45708.8	90.5368
45972.7	90.4383
46238.1	90.3406
46505	90.2439
46773.5	90.1481
47043.5	90.0532
47315.1	89.9591
47588.3	89.866
47863	89.7737
48139.3	89.6824
48417.2	89.5919
48696.8	89.5023
48977.9	89.4135
49260.6	89.3256
49545	89.2386
49831	89.1525
50118.7	89.0672
50408.1	88.9827
50699.1	88.8991
50991.8	88.8163
51286.1	88.7343
51582.2	88.6532
51880	88.5729
52179.5	88.4935
52480.7	88.4148
52783.7	88.337
53088.4	88.26
53394.9	88.1837
53703.2	88.1083
54013.2	88.0337
54325	87.9599
54638.7	87.8869
54954.1	87.8146
55271.3	87.7431
55590.4	87.6725
55911.4	87.6025
56234.1	87.5334
56558.8	87.465
56885.3	87.3974
57213.7	87.3305
57544	87.2644
57876.2	87.1991
58210.3	87.1345
58546.4	87.0706
58884.4	87.0075
59224.3	86.9451
59566.2	86.8834
59910.1	86.8225
60256	86.7623
60603.8	86.7028
60953.7	86.644
61305.6	86.586
61659.5	86.5286
62015.5	86.4719
62373.5	86.416
62733.6	86.3607
63095.7	86.3062
63460	86.2523
63826.3	86.1991
64194.8	86.1466
64565.4	86.0948
64938.2	86.0437
65313.1	85.9932
65690.1	85.9434
66069.3	85.8943
66450.8	85.8458
66834.4	85.7979
67220.2	85.7508
67608.3	85.7043
67998.6	85.6584
68391.2	85.6132
68786	85.5686
69183.1	85.5246
69582.5	85.4813
69984.2	85.4386
70388.2	85.3965
70794.6	85.3551
71203.3	85.3143
71614.3	85.2741
72027.8	85.2345
72443.6	85.1955
72861.8	85.1571
73282.5	85.1193
73705.5	85.0821
74131	85.0456
74559	85.0096
74989.4	84.9742
75422.3	84.9393
75857.8	84.9051
76295.7	84.8715
76736.1	84.8384
77179.2	84.8059
77624.7	84.7739
78072.8	84.7425
78523.6	84.7117
78976.9	84.6815
79432.8	84.6518
79891.4	84.6227
80352.6	84.5941
80816.5	84.566
81283.1	84.5385
81752.3	84.5116
82224.3	84.4851
82699	84.4593
83176.4	84.4339
83656.6	84.4091
84139.5	84.3848
84625.3	84.361
85113.8	84.3377
85605.2	84.315
86099.4	84.2928
86596.4	84.271
87096.4	84.2498
87599.2	84.2291
88104.9	84.2089
88613.5	84.1892
89125.1	84.17
89639.6	84.1512
90157.1	84.133
90677.6	84.1153
91201.1	84.098
91727.6	84.0812
92257.1	84.0649
92789.7	84.0491
93325.4	84.0337
93864.2	84.0188
94406.1	84.0044
94951.1	83.9904
95499.3	83.9769
96050.6	83.9639
96605.1	83.9513
97162.8	83.9392
97723.7	83.9275
98287.9	83.9163
98855.3	83.9055
99426	83.8951
100000	83.8852
100577	83.8757
101158	83.8667
101742	83.8581
102329	83.8499
102920	83.8421
103514	83.8348
104112	83.8278
104713	83.8213
105317	83.8153
105925	83.8096
106537	83.8043
107152	83.7994
107771	83.795
108393	83.7909
109018	83.7873
109648	83.784
110281	83.7811
110917	83.7787
111558	83.7766
112202	83.7749
112850	83.7736
113501	83.7726
114156	83.7721
114815	83.7719
115478	83.7721
116145	83.7726
116815	83.7736
117490	83.7749
118168	83.7765
118850	83.7785
119536	83.7809
120226	83.7837
120921	83.7867
121619	83.7902
122321	83.794
123027	83.7981
123737	83.8026
124451	83.8074
125170	83.8126
125893	83.8181
126619	83.824
127350	83.8301
128086	83.8366
128825	83.8435
129569	83.8506
130317	83.8581
131069	83.8659
131826	83.8741
132587	83.8825
133352	83.8913
134122	83.9003
134896	83.9097
135675	83.9194
136458	83.9294
137246	83.9397
138038	83.9503
138835	83.9613
139637	83.9725
140443	83.984
141254	83.9958
142069	84.0078
142889	84.0202
143714	84.0329
144544	84.0458
145378	84.0591
146218	84.0726
147062	84.0864
147911	84.1005
148765	84.1148
149624	84.1294
150487	84.1443
151356	84.1595
152230	84.1749
153109	84.1906
153993	84.2066
154882	84.2228
155776	84.2393
156675	84.256
157580	84.273
158489	84.2903
159404	84.3078
160325	84.3255
161250	84.3435
162181	84.3618
163117	84.3803
164059	84.399
165006	84.418
165959	84.4372
166917	84.4566
167880	84.4763
168850	84.4962
169824	84.5164
170805	84.5368
171791	84.5574
172783	84.5782
173780	84.5993
174783	84.6205
175792	84.642
176807	84.6638
177828	84.6857
178855	84.7079
179887	84.7302
180926	84.7528
181970	84.7756
183021	84.7986
184077	84.8218
185140	84.8452
186209	84.8689
187284	84.8927
188365	84.9167
189452	84.9409
190546	84.9654
191646	84.99
192752	85.0148
193865	85.0398
194984	85.065
196110	85.0904
197242	85.116
198381	85.1417
199526	85.1677
200678	85.1938
201837	85.2201
203002	85.2466
204174	85.2733
205353	85.3001
206538	85.3271
207730	85.3543
208930	85.3817
210136	85.4093
211349	85.437
212569	85.4649
213796	85.4929
215030	85.5211
216272	85.5495
217520	85.5781
218776	85.6068
220039	85.6356
221309	85.6647
222587	85.6938
223872	85.7232
225165	85.7527
226464	85.7823
227772	85.8121
229087	85.8421
230409	85.8722
231739	85.9024
233077	85.9328
234423	85.9634
235776	85.994
237137	86.0249
238506	86.0558
239883	86.0869
241268	86.1182
242661	86.1496
244062	86.1811
245471	86.2128
246888	86.2446
248313	86.2765
249747	86.3085
251189	86.3407
252639	86.373
254097	86.4055
255564	86.4381
257040	86.4708
258523	86.5036
260016	86.5365
261517	86.5696
263027	86.6028
264545	86.6361
266073	86.6695
267609	86.7031
269153	86.7367
270707	86.7705
272270	86.8044
273842	86.8384
275423	86.8725
277013	86.9067
278612	86.9411
280221	86.9755
281838	87.0101
283465	87.0447
285102	87.0795
286748	87.1144
288403	87.1493
290068	87.1844
291743	87.2196
293427	87.2549
295121	87.2902
296825	87.3257
298538	87.3613
300262	87.397
301995	87.4327
303739	87.4686
305492	87.5045
307256	87.5406
309030	87.5767
310814	87.613
312608	87.6493
314413	87.6857
316228	87.7222
318053	87.7588
319890	87.7954
321736	87.8322
323594	87.869
325462	87.906
327341	87.943
329230	87.98
331131	88.0172
333043	88.0545
334965	88.0918
336899	88.1292
338844	88.1667
340800	88.2042
342768	88.2419
344747	88.2796
346737	88.3174
348739	88.3552
350752	88.3931
352777	88.4311
354813	88.4692
356862	88.5074
358922	88.5456
360994	88.5839
363078	88.6222
365174	88.6606
367282	88.6991
369403	88.7376
371535	88.7762
373680	88.8149
375837	88.8537
378007	88.8925
380189	88.9313
382384	88.9702
384592	89.0092
386812	89.0483
389045	89.0874
391291	89.1265
393550	89.1657
395822	89.205
398107	89.2443
400405	89.2837
402717	89.3232
405042	89.3626
407380	89.4022
409732	89.4418
412098	89.4814
414477	89.5211
416869	89.5609
419276	89.6007
421697	89.6405
424131	89.6804
426580	89.7204
429042	89.7604
431519	89.8004
434010	89.8405
436516	89.8807
439036	89.9208
441570	89.9611
444120	90.0013
446684	90.0416
449262	90.082
451856	90.1224
454465	90.1628
457088	90.2033
459727	90.2438
462381	90.2844
465050	90.325
467735	90.3656
470435	90.4063
473151	90.447
475883	90.4877
478630	90.5285
481393	90.5694
484172	90.6102
486968	90.6511
489779	90.692
492606	90.733
495450	90.774
498310	90.815
501187	90.8561
504081	90.8972
506991	90.9383
509918	90.9794
512861	91.0206
515822	91.0618
518800	91.1031
521795	91.1444
524807	91.1857
527837	91.227
530884	91.2683
533949	91.3097
537032	91.3511
540132	91.3926
543250	91.434
546387	91.4755
549541	91.517
552713	91.5586
555904	91.6001
559114	91.6417
562341	91.6833
565588	91.725
568853	91.7666
572137	91.8083
575440	91.85
578762	91.8917
582103	91.9335
585464	91.9752
588844	92.017
592243	92.0588
595662	92.1006
599101	92.1425
602560	92.1843
606038	92.2262
609537	92.2681
613056	92.31
616595	92.3519
620155	92.3939
623735	92.4358
627336	92.4778
630957	92.5198
634600	92.5618
638263	92.6038
641948	92.6459
645654	92.6879
649382	92.73
653131	92.7721
656901	92.8142
660693	92.8563
664508	92.8984
668344	92.9405
672202	92.9827
676083	93.0248
679986	93.067
683912	93.1092
687860	93.1513
691831	93.1935
695825	93.2358
699842	93.278
703882	93.3202
707946	93.3624
712033	93.4047
716143	93.4469
720278	93.4892
724436	93.5315
728618	93.5737
732825	93.616
737055	93.6583
741310	93.7006
745590	93.7429
749894	93.7852
754223	93.8276
758578	93.8699
762957	93.9122
767361	93.9545
771792	93.9969
776247	94.0392
780728	94.0816
785236	94.1239
789769	94.1663
794328	94.2087
798914	94.251
803526	94.2934
808165	94.3358
812831	94.3781
817523	94.4205
822243	94.4629
826990	94.5053
831764	94.5477
836566	94.59
841395	94.6324
846253	94.6748
851138	94.7172
856052	94.7596
860994	94.802
865964	94.8444
870964	94.8868
875992	94.9292
881049	94.9716
886135	95.014
891251	95.0564
896396	95.0987
901571	95.1411
906776	95.1835
912011	95.2259
917276	95.2683
922571	95.3107
927897	95.3531
933254	95.3955
938642	95.4378
944061	95.4802
949511	95.5226
954993	95.565
960506	95.6073
966051	95.6497
971628	95.692
977237	95.7344
982879	95.7768
988553	95.8191
994260	95.8615
1e+06	95.9038
1.00577e+06	95.9461
1.01158e+06	95.9885
1.01742e+06	96.0308
1.02329e+06	96.0731
1.0292e+06	96.1155
1.03514e+06	96.1578
1.04112e+06	96.2001
1.04713e+06	96.2424
1.05317e+06	96.2847
1.05925e+06	96.327
1.06537e+06	96.3693
1.07152e+06	96.4115
1.07771e+06	96.4538
1.08393e+06	96.4961
1.09018e+06	96.5384
1.09648e+06	96.5806
1.10281e+06	96.6229
1.10917e+06	96.6651
1.11558e+06	96.7073
1.12202e+06	96.7496
1.1285e+06	96.7918
1.13501e+06	96.834
1.14156e+06	96.8762
1.14815e+06	96.9184
1.15478e+06	96.9606
1.16145e+06	97.0028
1.16815e+06	97.045
1.1749e+06	97.0871
1.18168e+06	97.1293
1.1885e+06	97.1715
1.19536e+06	97.2136
1.20226e+06	97.2557
1.20921e+06	97.2979
1.21619e+06	97.34
1.22321e+06	97.3821
1.23027e+06	97.4242
1.23737e+06	97.4663
1.24451e+06	97.5084
1.2517e+06	97.5504
1.25893e+06	97.5925
1.26619e+06	97.6346
1.2735e+06	97.6766
1.28086e+06	97.7186
1.28825e+06	97.7607
1.29569e+06	97.8027
1.30317e+06	97.8447
1.31069e+06	97.8867
1.31826e+06	97.9287
1.32587e+06	97.9706
1.33352e+06	98.0126
1.34122e+06	98.0546
1.34896e+06	98.0965
1.35675e+06	98.1384
1.36458e+06	98.1804
1.37246e+06	98.2223
1.38038e+06	98.2642
1.38835e+06	98.3061
1.39637e+06	98.3479
1.40443e+06	98.3898
1.41254e+06	98.4317
1.42069e+06	98.4735
1.42889e+06	98.5153
1.43714e+06	98.5572
1.44544e+06	98.599
1.45378e+06	98.6408
1.46218e+06	98.6826
1.47062e+06	98.7243
1.47911e+06	98.7661
1.48765e+06	98.8079
1.49624e+06	98.8496
1.50487e+06	98.8913
1.51356e+06	98.933
1.5223e+06	98.9747
1.53109e+06	99.0164
1.53993e+06	99.0581
1.54882e+06	99.0998
1.55776e+06	99.1414
1.56675e+06	99.1831
1.5758e+06	99.2247
1.58489e+06	99.2663
1.59404e+06	99.3079
1.60325e+06	99.3495
1.6125e+06	99.3911
1.62181e+06	99.4326
1.63117e+06	99.4742
1.64059e+06	99.5157
1.65006e+06	99.5573
1.65959e+06	99.5988
1.66917e+06	99.6403
1.6788e+06	99.6817
1.6885e+06	99.7232
1.69824e+06	99.7647
1.70805e+06	99.8061
1.71791e+06	99.8476
1.72783e+06	99.889
1.7378e+06	99.9304
1.74783e+06	99.9718
1.75792e+06	100.013
1.76807e+06	100.054
1.77828e+06	100.096
1.78855e+06	100.137
1.79887e+06	100.178
1.80926e+06	100.22
1.8197e+06	100.261
1.83021e+06	100.302
1.84077e+06	100.344
1.8514e+06	100.385
1.86209e+06	100.426
1.87284e+06	100.467
1.88365e+06	100.509
1.89452e+06	100.55
1.90546e+06	100.591
1.91646e+06	100.632
1.92752e+06	100.673
1.93865e+06	100.714
1.94984e+06	100.755
1.9611e+06	100.797
1.97242e+06	100.838
1.98381e+06	100.879
1.99526e+06	100.92
2.00678e+06	100.961
2.01837e+06	101.002
2.03002e+06	101.043
2.04174e+06	101.084
2.05353e+06	101.125
2.06538e+06	101.166
2.0773e+06	101.207
2.0893e+06	101.248
2.10136e+06	101.289
2.11349e+06	101.33
2.12569e+06	101.37
2.13796e+06	101.411
2.1503e+06	101.452
2.16272e+06	101.493
2.1752e+06	101.534
2.18776e+06	101.575
2.20039e+06	101.615
2.21309e+06	101.656
2.22587e+06	101.697
2.23872e+06	101.738
2.25165e+06	101.779
2.26464e+06	101.819
2.27772e+06	101.86
2.29087e+06	101.901
2.30409e+06	101.941
2.31739e+06	101.982
2.33077e+06	102.023
2.34423e+06	102.063
2.35776e+06	102.104
2.37137e+06	102.144
2.38506e+06	102.185
2.39883e+06	102.226
2.41268e+06	102.266
2.42661e+06	102.307
2.44062e+06	102.347
2.45471e+06	102.388
2.46888e+06	102.428
2.48313e+06	102.469
2.49747e+06	102.509
2.51189e+06	102.55
2.52639e+06	102.59
2.54097e+06	102.63
2.55564e+06	102.671
2.5704e+06	102.711
2.58523e+06	102.751
2.60016e+06	102.792
2.61517e+06	102.832
2.63027e+06	102.872
2.64545e+06	102.913
2.66073e+06	102.953
2.67609e+06	102.993
2.69153e+06	103.033
2.70707e+06	103.074
2.7227e+06	103.114
2.73842e+06	103.154
2.75423e+06	103.194
2.77013e+06	103.234
2.78612e+06	103.275
2.80221e+06	103.315
2.81838e+06	103.355
2.83465e+06	103.395
2.85102e+06	103.435
2.86748e+06	103.475
2.88403e+06	103.515
2.90068e+06	103.555
2.91743e+06	103.595
2.93427e+06	103.635
2.95121e+06	103.675
2.96825e+06	103.715
2.98538e+06	103.755
3.00262e+06	103.795
3.01995e+06	103.835
3.03739e+06	103.875
3.05492e+06	103.914
3.07256e+06	103.954
3.0903e+06	103.994
3.10814e+06	104.034
3.12608e+06	104.074
3.14413e+06	104.114
3.16228e+06	104.153
3.18053e+06	104.193
3.1989e+06	104.233
3.21736e+06	104.273
3.23594e+06	104.312
3.25462e+06	104.352
3.27341e+06	104.392
3.2923e+06	104.431
3.31131e+06	104.471
3.33043e+06	104.51
3.34965e+06	104.55
3.36899e+06	104.59
3.38844e+06	104.629
3.408e+06	104.669
3.42768e+06	104.708
3.44747e+06	104.748
3.46737e+06	104.787
3.48739e+06	104.827
3.50752e+06	104.866
3.52777e+06	104.906
3.54813e+06	104.945
3.56862e+06	104.985
3.58922e+06	105.024
3.60994e+06	105.063
3.63078e+06	105.103
3.65174e+06	105.142
3.67282e+06	105.181
3.69403e+06	105.221
3.71535e+06	105.26
3.7368e+06	105.299
3.75837e+06	105.338
3.78007e+06	105.378
3.80189e+06	105.417
3.82384e+06	105.456
3.84592e+06	105.495
3.86812e+06	105.534
3.89045e+06	105.574
3.91291e+06	105.613
3.9355e+06	105.652
3.95822e+06	105.691
3.98107e+06	105.73
4.00405e+06	105.769
4.02717e+06	105.808
4.05042e+06	105.847
4.0738e+06	105.886
4.09732e+06	105.925
4.12098e+06	105.964
4.14477e+06	106.003
4.16869e+06	106.042
4.19276e+06	106.081
4.21697e+06	106.12
4.24131e+06	106.159
4.2658e+06	106.197
4.29042e+06	106.236
4.31519e+06	106.275
4.3401e+06	106.314
4.36516e+06	106.353
4.39036e+06	106.391
4.4157e+06	106.43
4.4412e+06	106.469
4.46684e+06	106.508
4.49262e+06	106.546
4.51856e+06	106.585
4.54465e+06	106.624
4.57088e+06	106.662
4.59727e+06	106.701
4.62381e+06	106.74
4.6505e+06	106.778
4.67735e+06	106.817
4.70435e+06	106.855
4.73151e+06	106.894
4.75883e+06	106.932
4.7863e+06	106.971
4.81393e+06	107.009
4.84172e+06	107.048
4.86968e+06	107.086
4.89779e+06	107.125
4.92606e+06	107.163
4.9545e+06	107.201
4.9831e+06	107.24
5.01187e+06	107.278
5.04081e+06	107.317
5.06991e+06	107.355
5.09918e+06	107.393
5.12861e+06	107.431
5.15822e+06	107.47
5.188e+06	107.508
5.21795e+06	107.546
5.24807e+06	107.584
5.27837e+06	107.623
5.30884e+06	107.661
5.33949e+06	107.699
5.37032e+06	107.737
5.40132e+06	107.775
5.4325e+06	107.813
5.46387e+06	107.851
5.49541e+06	107.889
5.52713e+06	107.927
5.55904e+06	107.965
5.59114e+06	108.003
5.62341e+06	108.041
5.65588e+06	108.079
5.68853e+06	108.117
5.72137e+06	108.155
5.7544e+06	108.193
5.78762e+06	108.231
5.82103e+06	108.269
5.85464e+06	108.307
5.88844e+06	108.345
5.92243e+06	108.383
5.95662e+06	108.42
5.99101e+06	108.458
6.0256e+06	108.496
6.06038e+06	108.534
6.09537e+06	108.571
6.13056e+06	108.609
6.16595e+06	108.647
6.20155e+06	108.684
6.23735e+06	108.722
6.27336e+06	108.76
6.30957e+06	108.797
6.346e+06	108.835
6.38263e+06	108.873
6.41948e+06	108.91
6.45654e+06	108.948
6.49382e+06	108.985
6.53131e+06	109.023
6.56901e+06	109.06
6.60693e+06	109.098
6.64508e+06	109.135
6.68344e+06	109.173
6.72202e+06	109.21
6.76083e+06	109.247
6.79986e+06	109.285
6.83912e+06	109.322
6.8786e+06	109.359
6.91831e+06	109.397
6.95825e+06	109.434
6.99842e+06	109.471
7.03882e+06	109.509
7.07946e+06	109.546
7.12033e+06	109.583
7.16143e+06	109.62
7.20278e+06	109.657
7.24436e+06	109.695
7.28618e+06	109.732
7.32825e+06	109.769
7.37055e+06	109.806
7.4131e+06	109.843
7.4559e+06	109.88
7.49894e+06	109.917
7.54223e+06	109.954
7.58578e+06	109.991
7.62957e+06	110.028
7.67361e+06	110.065
7.71792e+06	110.102
7.76247e+06	110.139
7.80728e+06	110.176
7.85236e+06	110.213
7.89769e+06	110.25
7.94328e+06	110.287
7.98914e+06	110.323
8.03526e+06	110.36
8.08165e+06	110.397
8.12831e+06	110.434
8.17523e+06	110.471
8.22243e+06	110.507
8.2699e+06	110.544
8.31764e+06	110.581
8.36566e+06	110.617
8.41395e+06	110.654
8.46253e+06	110.691
8.51138e+06	110.727
8.56052e+06	110.764
8.60994e+06	110.801
8.65964e+06	110.837
8.70964e+06	110.874
8.75992e+06	110.91
8.81049e+06	110.947
8.86135e+06	110.983
8.91251e+06	111.02
8.96396e+06	111.056
9.01571e+06	111.093
9.06776e+06	111.129
9.12011e+06	111.165
9.17276e+06	111.202
9.22571e+06	111.238
9.27897e+06	111.274
9.33254e+06	111.311
9.38642e+06	111.347
9.44061e+06	111.383
9.49511e+06	111.42
9.54993e+06	111.456
9.60506e+06	111.492
9.66051e+06	111.528
9.71628e+06	111.564
9.77237e+06	111.601
9.82879e+06	111.637
9.88553e+06	111.673
9.9426e+06	111.709
1e+07	111.745
