Stopping power dEdx from Ionisation for Ca40[0.0] Z = 20 in G4_Si, process name: ionIoni
E [MeV]	dEdx [MeV/mm]
0.001	30.117
0.00100577	30.2045
0.00101158	30.2922
0.00101742	30.3802
0.00102329	30.4685
0.0010292	30.5569
0.00103514	30.6457
0.00104112	30.7347
0.00104713	30.8239
0.00105317	30.9134
0.00105925	31.0032
0.00106537	31.0932
0.00107152	31.1835
0.00107771	31.2741
0.00108393	31.3649
0.00109018	31.4559
0.00109648	31.5473
0.00110281	31.6389
0.00110917	31.7307
0.00111558	31.8228
0.00112202	31.9152
0.0011285	32.0079
0.00113501	32.1008
0.00114156	32.194
0.00114815	32.2875
0.00115478	32.3812
0.00116145	32.4752
0.00116815	32.5695
0.0011749	32.664
0.00118168	32.7588
0.0011885	32.8539
0.00119536	32.9493
0.00120226	33.0449
0.00120921	33.1408
0.00121619	33.237
0.00122321	33.3335
0.00123027	33.4302
0.00123737	33.5272
0.00124451	33.6245
0.0012517	33.7221
0.00125893	33.82
0.00126619	33.9181
0.0012735	34.0165
0.00128086	34.1153
0.00128825	34.2143
0.00129569	34.3135
0.00130317	34.4131
0.00131069	34.513
0.00131826	34.6131
0.00132587	34.7135
0.00133352	34.8143
0.00134122	34.9153
0.00134896	35.0166
0.00135675	35.1182
0.00136458	35.2201
0.00137246	35.3222
0.00138038	35.4247
0.00138835	35.5275
0.00139637	35.6306
0.00140443	35.7339
0.00141254	35.8376
0.00142069	35.9415
0.00142889	36.0458
0.00143714	36.1504
0.00144544	36.2552
0.00145378	36.3604
0.00146218	36.4659
0.00147062	36.5716
0.00147911	36.6777
0.00148765	36.7841
0.00149624	36.8908
0.00150487	36.9978
0.00151356	37.1051
0.0015223	37.2127
0.00153109	37.3206
0.00153993	37.4289
0.00154882	37.5374
0.00155776	37.6463
0.00156675	37.7554
0.0015758	37.8649
0.00158489	37.9747
0.00159404	38.0849
0.00160325	38.1953
0.0016125	38.306
0.00162181	38.4171
0.00163117	38.5285
0.00164059	38.6402
0.00165006	38.7523
0.00165959	38.8646
0.00166917	38.9773
0.0016788	39.0903
0.0016885	39.2037
0.00169824	39.3173
0.00170805	39.4313
0.00171791	39.5456
0.00172783	39.6603
0.0017378	39.7753
0.00174783	39.8906
0.00175792	40.0062
0.00176807	40.1222
0.00177828	40.2385
0.00178855	40.3552
0.00179887	40.4721
0.00180926	40.5895
0.0018197	40.7071
0.00183021	40.8251
0.00184077	40.9435
0.0018514	41.0621
0.00186209	41.1812
0.00187284	41.3005
0.00188365	41.4202
0.00189452	41.5403
0.00190546	41.6607
0.00191646	41.7814
0.00192752	41.9025
0.00193865	42.024
0.00194984	42.1457
0.0019611	42.2679
0.00197242	42.3904
0.00198381	42.5132
0.00199526	42.6364
0.00200678	42.76
0.00201837	42.8839
0.00203002	43.0082
0.00204174	43.1328
0.00205353	43.2578
0.00206538	43.3832
0.0020773	43.5089
0.0020893	43.6349
0.00210136	43.7614
0.00211349	43.8882
0.00212569	44.0153
0.00213796	44.1429
0.0021503	44.2708
0.00216272	44.399
0.0021752	44.5277
0.00218776	44.6567
0.00220039	44.7861
0.00221309	44.9158
0.00222587	45.0459
0.00223872	45.1765
0.00225165	45.3073
0.00226464	45.4386
0.00227772	45.5702
0.00229087	45.7022
0.00230409	45.8346
0.00231739	45.9674
0.00233077	46.1006
0.00234423	46.2341
0.00235776	46.368
0.00237137	46.5024
0.00238506	46.6371
0.00239883	46.7721
0.00241268	46.9076
0.00242661	47.0435
0.00244062	47.1797
0.00245471	47.3164
0.00246888	47.4534
0.00248313	47.5909
0.00249747	47.7287
0.00251189	47.867
0.00252639	48.0056
0.00254097	48.1446
0.00255564	48.2841
0.0025704	48.4239
0.00258523	48.5641
0.00260016	48.7048
0.00261517	48.8458
0.00263027	48.9873
0.00264545	49.1292
0.00266073	49.2714
0.00267609	49.4141
0.00269153	49.5572
0.00270707	49.7007
0.0027227	49.8446
0.00273842	49.989
0.00275423	50.1337
0.00277013	50.2789
0.00278612	50.4245
0.00280221	50.5705
0.00281838	50.7169
0.00283465	50.8638
0.00285102	51.011
0.00286748	51.1587
0.00288403	51.3068
0.00290068	51.4554
0.00291743	51.6044
0.00293427	51.7538
0.00295121	51.9036
0.00296825	52.0539
0.00298538	52.2046
0.00300262	52.3557
0.00301995	52.5073
0.00303739	52.6593
0.00305492	52.8118
0.00307256	52.9646
0.0030903	53.118
0.00310814	53.2717
0.00312608	53.426
0.00314413	53.5806
0.00316228	53.7357
0.00318053	53.8913
0.0031989	54.0473
0.00321736	54.2037
0.00323594	54.3606
0.00325462	54.518
0.00327341	54.6758
0.0032923	54.834
0.00331131	54.9927
0.00333043	55.1519
0.00334965	55.3115
0.00336899	55.4716
0.00338844	55.6322
0.003408	55.7932
0.00342768	55.9547
0.00344747	56.1166
0.00346737	56.2791
0.00348739	56.4419
0.00350752	56.6053
0.00352777	56.7691
0.00354813	56.9334
0.00356862	57.0982
0.00358922	57.2634
0.00360994	57.4291
0.00363078	57.5953
0.00365174	57.762
0.00367282	57.9292
0.00369403	58.0968
0.00371535	58.2649
0.0037368	58.4335
0.00375837	58.6026
0.00378007	58.7722
0.00380189	58.9423
0.00382384	59.1128
0.00384592	59.2839
0.00386812	59.4554
0.00389045	59.6274
0.00391291	59.8
0.0039355	59.973
0.00395822	60.1465
0.00398107	60.3206
0.00400405	60.4951
0.00402717	60.6701
0.00405042	60.8457
0.0040738	61.0217
0.00409732	61.1983
0.00412098	61.3753
0.00414477	61.5529
0.00416869	61.731
0.00419276	61.9096
0.00421697	62.0887
0.00424131	62.2683
0.0042658	62.4484
0.00429042	62.6291
0.00431519	62.8103
0.0043401	62.992
0.00436516	63.1742
0.00439036	63.357
0.0044157	63.5403
0.0044412	63.7241
0.00446684	63.9084
0.00449262	64.0933
0.00451856	64.2787
0.00454465	64.4646
0.00457088	64.6511
0.00459727	64.8381
0.00462381	65.0257
0.0046505	65.2138
0.00467735	65.4024
0.00470435	65.5916
0.00473151	65.7813
0.00475883	65.9716
0.0047863	66.1624
0.00481393	66.3538
0.00484172	66.5457
0.00486968	66.7381
0.00489779	66.9312
0.00492606	67.1248
0.0049545	67.3189
0.0049831	67.5136
0.00501187	67.7089
0.00504081	67.9047
0.00506991	68.1011
0.00509918	68.298
0.00512861	68.4956
0.00515822	68.6937
0.005188	68.8923
0.00521795	69.0916
0.00524807	69.2914
0.00527837	69.4918
0.00530884	69.6927
0.00533949	69.8943
0.00537032	70.0964
0.00540132	70.2991
0.0054325	70.5024
0.00546387	70.7063
0.00549541	70.9107
0.00552713	71.1158
0.00555904	71.3214
0.00559114	71.5277
0.00562341	71.7345
0.00565588	71.9419
0.00568853	72.15
0.00572137	72.3586
0.0057544	72.5678
0.00578762	72.7777
0.00582103	72.9881
0.00585464	73.1991
0.00588844	73.4108
0.00592243	73.6231
0.00595662	73.8359
0.00599101	74.0494
0.0060256	74.2635
0.00606038	74.4782
0.00609537	74.6936
0.00613056	74.9095
0.00616595	75.1261
0.00620155	75.3433
0.00623735	75.5611
0.00627336	75.7796
0.00630957	75.9987
0.006346	76.2184
0.00638263	76.4388
0.00641948	76.6598
0.00645654	76.8814
0.00649382	77.1036
0.00653131	77.3266
0.00656901	77.5501
0.00660693	77.7743
0.00664508	77.9991
0.00668344	78.2246
0.00672202	78.4508
0.00676083	78.6775
0.00679986	78.905
0.00683912	79.1331
0.0068786	79.3618
0.00691831	79.5913
0.00695825	79.8213
0.00699842	80.0521
0.00703882	80.2835
0.00707946	80.5155
0.00712033	80.7483
0.00716143	80.9817
0.00720278	81.2158
0.00724436	81.4505
0.00728618	81.686
0.00732825	81.9221
0.00737055	82.1589
0.0074131	82.3964
0.0074559	82.6345
0.00749894	82.8734
0.00754223	83.1129
0.00758578	83.3531
0.00762957	83.594
0.00767361	83.8357
0.00771792	84.078
0.00776247	84.321
0.00780728	84.5647
0.00785236	84.8091
0.00789769	85.0542
0.00794328	85.3
0.00798914	85.5466
0.00803526	85.7938
0.00808165	86.0418
0.00812831	86.2904
0.00817523	86.5398
0.00822243	86.7899
0.0082699	87.0407
0.00831764	87.2923
0.00836566	87.5446
0.00841395	87.7976
0.00846253	88.0513
0.00851138	88.3058
0.00856052	88.5609
0.00860994	88.8169
0.00865964	89.0735
0.00870964	89.3309
0.00875992	89.5891
0.00881049	89.848
0.00886135	90.1076
0.00891251	90.368
0.00896396	90.6292
0.00901571	90.891
0.00906776	91.1537
0.00912011	91.4171
0.00917276	91.6813
0.00922571	91.9462
0.00927897	92.2119
0.00933254	92.4783
0.00938642	92.7455
0.00944061	93.0135
0.00949511	93.2823
0.00954993	93.5518
0.00960506	95.875
0.00966051	96.1507
0.00971628	96.4273
0.00977237	96.7046
0.00982879	96.9827
0.00988553	97.2617
0.0099426	97.5414
0.01	97.822
0.0100577	98.1033
0.0101158	98.3855
0.0101742	98.6684
0.0102329	98.9522
0.010292	99.2368
0.0103514	99.5222
0.0104112	99.8084
0.0104713	100.095
0.0105317	100.383
0.0105925	100.672
0.0106537	100.962
0.0107152	101.252
0.0107771	101.543
0.0108393	101.835
0.0109018	102.128
0.0109648	102.422
0.0110281	102.716
0.0110917	103.012
0.0111558	103.308
0.0112202	103.605
0.011285	103.903
0.0113501	104.202
0.0114156	104.501
0.0114815	104.802
0.0115478	105.103
0.0116145	105.405
0.0116815	105.708
0.011749	106.012
0.0118168	106.317
0.011885	106.623
0.0119536	106.93
0.0120226	107.237
0.0120921	107.545
0.0121619	107.855
0.0122321	108.165
0.0123027	108.476
0.0123737	108.788
0.0124451	109.101
0.012517	109.414
0.0125893	109.729
0.0126619	110.044
0.012735	110.361
0.0128086	110.678
0.0128825	110.996
0.0129569	111.315
0.0130317	111.636
0.0131069	111.957
0.0131826	112.278
0.0132587	112.601
0.0133352	112.925
0.0134122	113.25
0.0134896	113.575
0.0135675	113.902
0.0136458	114.229
0.0137246	114.558
0.0138038	114.887
0.0138835	115.217
0.0139637	115.549
0.0140443	115.881
0.0141254	116.214
0.0142069	116.548
0.0142889	116.883
0.0143714	117.219
0.0144544	117.556
0.0145378	117.894
0.0146218	118.233
0.0147062	118.573
0.0147911	118.914
0.0148765	119.256
0.0149624	119.598
0.0150487	119.942
0.0151356	120.287
0.015223	120.633
0.0153109	120.98
0.0153993	121.327
0.0154882	121.676
0.0155776	122.026
0.0156675	122.377
0.015758	122.728
0.0158489	123.081
0.0159404	123.435
0.0160325	123.79
0.016125	124.146
0.0162181	124.502
0.0163117	124.86
0.0164059	125.219
0.0165006	125.579
0.0165959	125.94
0.0166917	126.302
0.016788	126.665
0.016885	127.029
0.0169824	127.394
0.0170805	127.76
0.0171791	128.128
0.0172783	128.496
0.017378	128.865
0.0174783	129.235
0.0175792	129.607
0.0176807	129.979
0.0177828	130.353
0.0178855	130.728
0.0179887	131.103
0.0180926	131.48
0.018197	131.858
0.0183021	132.237
0.0184077	132.617
0.018514	132.998
0.0186209	133.38
0.0187284	133.764
0.0188365	134.148
0.0189452	134.534
0.0190546	134.92
0.0191646	135.308
0.0192752	135.697
0.0193865	136.087
0.0194984	136.478
0.019611	136.87
0.0197242	137.263
0.0198381	137.658
0.0199526	138.053
0.0200678	138.45
0.0201837	138.848
0.0203002	139.247
0.0204174	139.647
0.0205353	140.048
0.0206538	140.45
0.020773	140.854
0.020893	141.259
0.0210136	141.665
0.0211349	142.072
0.0212569	142.48
0.0213796	142.889
0.021503	143.3
0.0216272	143.711
0.021752	144.124
0.0218776	144.538
0.0220039	144.954
0.0221309	145.37
0.0222587	145.788
0.0223872	146.207
0.0225165	146.627
0.0226464	147.048
0.0227772	147.47
0.0229087	147.894
0.0230409	148.319
0.0231739	148.745
0.0233077	149.172
0.0234423	149.601
0.0235776	150.031
0.0237137	150.462
0.0238506	150.894
0.0239883	151.327
0.0241268	151.762
0.0242661	152.198
0.0244062	152.635
0.0245471	153.074
0.0246888	153.513
0.0248313	153.954
0.0249747	154.397
0.0251189	154.84
0.0252639	155.285
0.0254097	155.731
0.0255564	156.178
0.025704	156.627
0.0258523	157.077
0.0260016	157.528
0.0261517	157.98
0.0263027	158.434
0.0264545	158.889
0.0266073	159.346
0.0267609	159.803
0.0269153	160.262
0.0270707	160.722
0.027227	161.184
0.0273842	161.647
0.0275423	162.111
0.0277013	162.577
0.0278612	163.044
0.0280221	163.512
0.0281838	163.982
0.0283465	164.452
0.0285102	164.925
0.0286748	165.398
0.0288403	165.873
0.0290068	166.35
0.0291743	166.827
0.0293427	167.306
0.0295121	167.787
0.0296825	168.269
0.0298538	168.752
0.0300262	169.236
0.0301995	169.722
0.0303739	170.21
0.0305492	170.699
0.0307256	171.189
0.030903	171.68
0.0310814	172.173
0.0312608	172.668
0.0314413	173.163
0.0316228	173.661
0.0318053	174.159
0.031989	174.659
0.0321736	175.161
0.0323594	175.664
0.0325462	176.168
0.0327341	176.674
0.032923	177.181
0.0331131	177.69
0.0333043	178.2
0.0334965	178.711
0.0336899	179.224
0.0338844	179.739
0.03408	180.255
0.0342768	180.772
0.0344747	181.291
0.0346737	181.812
0.0348739	182.334
0.0350752	182.857
0.0352777	183.382
0.0354813	183.908
0.0356862	184.436
0.0358922	184.966
0.0360994	185.497
0.0363078	186.029
0.0365174	186.563
0.0367282	187.099
0.0369403	187.636
0.0371535	188.174
0.037368	188.714
0.0375837	189.256
0.0378007	189.799
0.0380189	190.344
0.0382384	190.89
0.0384592	191.438
0.0386812	191.988
0.0389045	192.539
0.0391291	193.091
0.039355	193.645
0.0395822	194.201
0.0398107	194.759
0.0400405	195.318
0.0402717	195.878
0.0405042	196.44
0.040738	197.004
0.0409732	197.569
0.0412098	198.136
0.0414477	198.705
0.0416869	199.275
0.0419276	199.847
0.0421697	200.42
0.0424131	200.995
0.042658	201.572
0.0429042	202.151
0.0431519	202.731
0.043401	203.312
0.0436516	203.896
0.0439036	204.481
0.044157	205.067
0.044412	205.656
0.0446684	206.246
0.0449262	206.838
0.0451856	207.431
0.0454465	208.026
0.0457088	208.623
0.0459727	209.222
0.0462381	209.822
0.046505	210.424
0.0467735	211.027
0.0470435	211.633
0.0473151	212.24
0.0475883	212.849
0.047863	213.459
0.0481393	214.072
0.0484172	214.686
0.0486968	215.302
0.0489779	215.919
0.0492606	216.539
0.049545	217.16
0.049831	217.783
0.0501187	218.407
0.0504081	219.034
0.0506991	219.662
0.0509918	220.292
0.0512861	220.924
0.0515822	221.558
0.05188	222.193
0.0521795	222.83
0.0524807	223.469
0.0527837	224.11
0.0530884	224.753
0.0533949	225.398
0.0537032	226.044
0.0540132	226.692
0.054325	227.343
0.0546387	227.994
0.0549541	228.648
0.0552713	229.304
0.0555904	229.962
0.0559114	230.621
0.0562341	231.282
0.0565588	231.946
0.0568853	232.611
0.0572137	233.278
0.057544	233.947
0.0578762	234.617
0.0582103	235.29
0.0585464	235.965
0.0588844	236.641
0.0592243	237.32
0.0595662	238
0.0599101	238.683
0.060256	239.367
0.0606038	240.053
0.0609537	240.741
0.0613056	241.432
0.0616595	242.124
0.0620155	242.818
0.0623735	243.514
0.0627336	244.212
0.0630957	244.912
0.06346	245.614
0.0638263	246.318
0.0641948	247.024
0.0645654	247.732
0.0649382	248.443
0.0653131	249.155
0.0656901	249.869
0.0660693	250.585
0.0664508	251.303
0.0668344	252.024
0.0672202	252.746
0.0676083	253.47
0.0679986	254.197
0.0683912	254.925
0.068786	255.656
0.0691831	256.389
0.0695825	257.124
0.0699842	257.86
0.0703882	258.599
0.0707946	259.341
0.0712033	260.084
0.0716143	260.829
0.0720278	261.577
0.0724436	262.326
0.0728618	263.078
0.0732825	263.832
0.0737055	264.588
0.074131	265.346
0.074559	266.106
0.0749894	266.869
0.0754223	267.633
0.0758578	268.4
0.0762957	269.169
0.0767361	269.94
0.0771792	270.714
0.0776247	271.489
0.0780728	272.267
0.0785236	273.047
0.0789769	273.829
0.0794328	274.614
0.0798914	275.4
0.0803526	276.189
0.0808165	276.981
0.0812831	277.774
0.0817523	278.57
0.0822243	279.368
0.082699	280.168
0.0831764	280.97
0.0836566	281.775
0.0841395	282.582
0.0846253	283.392
0.0851138	284.203
0.0856052	285.017
0.0860994	285.834
0.0865964	286.652
0.0870964	287.473
0.0875992	288.297
0.0881049	289.122
0.0886135	289.95
0.0891251	290.781
0.0896396	291.613
0.0901571	292.449
0.0906776	293.286
0.0912011	294.126
0.0917276	294.968
0.0922571	295.813
0.0927897	296.66
0.0933254	297.509
0.0938642	298.361
0.0944061	299.215
0.0949511	300.072
0.0954993	300.931
0.0960506	301.793
0.0966051	302.657
0.0971628	303.523
0.0977237	304.392
0.0982879	305.264
0.0988553	306.138
0.099426	307.014
0.1	307.893
0.100577	308.774
0.101158	309.658
0.101742	310.545
0.102329	311.434
0.10292	312.325
0.103514	313.219
0.104112	314.115
0.104713	315.015
0.105317	315.916
0.105925	316.82
0.106537	317.727
0.107152	318.636
0.107771	319.548
0.108393	320.463
0.109018	321.38
0.109648	322.3
0.110281	323.222
0.110917	324.147
0.111558	325.075
0.112202	326.005
0.11285	326.938
0.113501	327.873
0.114156	328.811
0.114815	329.752
0.115478	330.696
0.116145	331.642
0.116815	332.591
0.11749	333.542
0.118168	334.497
0.11885	335.454
0.119536	336.413
0.120226	337.376
0.120921	338.341
0.121619	339.309
0.122321	340.279
0.123027	341.253
0.123737	342.229
0.124451	343.208
0.12517	344.19
0.125893	345.174
0.126619	346.161
0.12735	347.151
0.128086	348.144
0.128825	349.14
0.129569	350.139
0.130317	351.14
0.131069	352.144
0.131826	353.151
0.132587	354.161
0.133352	355.174
0.134122	356.19
0.134896	357.208
0.135675	358.23
0.136458	359.254
0.137246	360.281
0.138038	361.311
0.138835	362.345
0.139637	363.381
0.140443	364.419
0.141254	365.461
0.142069	366.506
0.142889	367.554
0.143714	368.605
0.144544	369.659
0.145378	370.715
0.146218	371.775
0.147062	372.838
0.147911	373.904
0.148765	374.972
0.149624	376.044
0.150487	377.119
0.151356	378.197
0.15223	379.278
0.153109	380.362
0.153993	381.449
0.154882	382.539
0.155776	383.632
0.156675	384.729
0.15758	385.828
0.158489	386.931
0.159404	388.036
0.160325	389.145
0.16125	390.257
0.162181	391.372
0.163117	392.491
0.164059	393.612
0.165006	394.737
0.165959	395.865
0.166917	396.996
0.16788	398.13
0.16885	399.267
0.169824	400.408
0.170805	401.552
0.171791	402.699
0.172783	403.849
0.17378	405.003
0.174783	406.16
0.175792	407.32
0.176807	408.483
0.177828	409.65
0.178855	410.82
0.179887	411.993
0.180926	413.17
0.18197	414.35
0.183021	415.533
0.184077	416.72
0.18514	417.91
0.186209	419.104
0.187284	420.3
0.188365	421.5
0.189452	422.704
0.190546	423.911
0.191646	425.121
0.192752	426.335
0.193865	427.552
0.194984	428.773
0.19611	429.997
0.197242	431.225
0.198381	432.456
0.199526	433.69
0.200678	434.928
0.201837	436.17
0.203002	437.415
0.204174	438.664
0.205353	439.916
0.206538	441.171
0.20773	442.431
0.20893	443.693
0.210136	444.96
0.211349	446.23
0.212569	447.503
0.213796	448.78
0.21503	450.061
0.216272	451.345
0.21752	452.633
0.218776	453.925
0.220039	455.22
0.221309	456.519
0.222587	457.821
0.223872	459.127
0.225165	460.437
0.226464	461.751
0.227772	463.068
0.229087	464.389
0.230409	465.714
0.231739	467.043
0.233077	468.375
0.234423	469.711
0.235776	471.051
0.237137	472.394
0.238506	473.742
0.239883	475.093
0.241268	476.448
0.242661	477.807
0.244062	479.169
0.245471	480.536
0.246888	481.906
0.248313	483.28
0.249747	484.658
0.251189	486.04
0.252639	487.426
0.254097	488.816
0.255564	490.21
0.25704	491.607
0.258523	493.009
0.260016	494.414
0.261517	495.824
0.263027	497.237
0.264545	498.655
0.266073	500.076
0.267609	501.502
0.269153	502.931
0.270707	504.365
0.27227	505.802
0.273842	507.244
0.275423	508.689
0.277013	510.139
0.278612	511.593
0.280221	513.051
0.281838	514.513
0.283465	515.979
0.285102	517.449
0.286748	518.924
0.288403	520.402
0.290068	521.885
0.291743	523.372
0.293427	524.863
0.295121	526.358
0.296825	527.858
0.298538	529.361
0.300262	530.869
0.301995	532.381
0.303739	533.898
0.305492	535.419
0.307256	536.944
0.30903	538.473
0.310814	540.006
0.312608	541.544
0.314413	543.087
0.316228	544.633
0.318053	546.184
0.31989	547.739
0.321736	549.299
0.323594	550.863
0.325462	552.432
0.327341	554.004
0.32923	555.582
0.331131	557.163
0.333043	558.75
0.334965	560.34
0.336899	561.935
0.338844	563.535
0.3408	565.139
0.342768	566.748
0.344747	568.361
0.346737	569.978
0.348739	571.601
0.350752	573.227
0.352777	574.859
0.354813	576.494
0.356862	578.135
0.358922	579.78
0.360994	581.43
0.363078	583.084
0.365174	584.743
0.367282	586.407
0.369403	588.075
0.371535	589.748
0.37368	591.426
0.375837	593.108
0.378007	594.796
0.380189	596.487
0.382384	598.184
0.384592	599.885
0.386812	601.592
0.389045	603.303
0.391291	605.018
0.39355	606.739
0.395822	608.464
0.398107	610.195
0.400405	611.93
0.402717	613.67
0.405042	615.415
0.40738	617.164
0.409732	618.919
0.412098	620.679
0.414477	622.443
0.416869	624.213
0.419276	625.987
0.421697	627.766
0.424131	629.551
0.42658	631.34
0.429042	633.134
0.431519	634.934
0.43401	636.738
0.436516	638.548
0.439036	640.362
0.44157	642.182
0.44412	644.007
0.446684	645.837
0.449262	647.672
0.451856	649.512
0.454465	651.357
0.457088	653.208
0.459727	655.063
0.462381	656.924
0.46505	658.79
0.467735	660.662
0.470435	662.538
0.473151	664.42
0.475883	666.307
0.47863	668.199
0.481393	670.097
0.484172	672
0.486968	673.908
0.489779	675.822
0.492606	677.741
0.49545	679.665
0.49831	681.595
0.501187	683.53
0.504081	685.47
0.506991	687.416
0.509918	689.367
0.512861	691.324
0.515822	693.286
0.5188	695.254
0.521795	697.228
0.524807	699.206
0.527837	701.191
0.530884	703.18
0.533949	705.176
0.537032	707.177
0.540132	709.183
0.54325	711.196
0.546387	713.213
0.549541	715.237
0.552713	717.266
0.555904	719.301
0.559114	721.341
0.562341	723.387
0.565588	725.439
0.568853	727.497
0.572137	729.56
0.57544	731.629
0.578762	733.704
0.582103	735.785
0.585464	737.871
0.588844	739.963
0.592243	742.061
0.595662	744.165
0.599101	746.275
0.60256	748.391
0.606038	750.512
0.609537	752.64
0.613056	754.773
0.616595	756.913
0.620155	759.058
0.623735	761.21
0.627336	763.367
0.630957	765.53
0.6346	767.7
0.638263	769.875
0.641948	772.056
0.645654	774.244
0.649382	776.438
0.653131	778.637
0.656901	780.843
0.660693	783.055
0.664508	785.273
0.668344	787.498
0.672202	789.728
0.676083	791.965
0.679986	794.208
0.683912	796.457
0.68786	798.713
0.691831	800.975
0.695825	803.243
0.699842	805.517
0.703882	807.798
0.707946	810.085
0.712033	812.378
0.716143	814.678
0.720278	816.984
0.724436	819.297
0.728618	821.616
0.732825	823.941
0.737055	826.273
0.74131	828.611
0.74559	830.956
0.749894	833.308
0.754223	835.665
0.758578	838.03
0.762957	840.401
0.767361	842.779
0.771792	845.163
0.776247	847.554
0.780728	849.951
0.785236	852.355
0.789769	854.766
0.794328	857.184
0.798914	859.608
0.803526	862.039
0.808165	864.476
0.812831	866.921
0.817523	869.372
0.822243	871.83
0.82699	874.295
0.831764	876.767
0.836566	879.245
0.841395	881.731
0.846253	884.223
0.851138	886.722
0.856052	889.228
0.860994	891.741
0.865964	894.261
0.870964	896.788
0.875992	899.322
0.881049	901.863
0.886135	904.412
0.891251	906.967
0.896396	909.529
0.901571	912.098
0.906776	914.675
0.912011	917.258
0.917276	919.849
0.922571	922.447
0.927897	925.052
0.933254	927.664
0.938642	930.284
0.944061	932.91
0.949511	935.544
0.954993	938.186
0.960506	940.834
0.966051	943.49
0.971628	946.153
0.977237	948.824
0.982879	951.502
0.988553	954.187
0.99426	956.88
1	959.581
1.00577	962.796
1.01158	966.048
1.01742	969.317
1.02329	972.604
1.0292	975.907
1.03514	979.229
1.04112	982.568
1.04713	985.924
1.05317	989.298
1.05925	992.69
1.06537	996.099
1.07152	999.526
1.07771	1002.97
1.08393	1006.43
1.09018	1009.91
1.09648	1013.41
1.10281	1016.93
1.10917	1020.46
1.11558	1024.01
1.12202	1027.58
1.1285	1031.17
1.13501	1034.77
1.14156	1038.4
1.14815	1042.04
1.15478	1045.7
1.16145	1049.38
1.16815	1053.07
1.1749	1056.78
1.18168	1060.52
1.1885	1064.27
1.19536	1068.03
1.20226	1071.77
1.20921	1075.39
1.21619	1079.03
1.22321	1082.68
1.23027	1086.36
1.23737	1090.05
1.24451	1093.76
1.2517	1097.48
1.25893	1101.22
1.26619	1104.98
1.2735	1108.75
1.28086	1112.54
1.28825	1116.35
1.29569	1120.18
1.30317	1124.02
1.31069	1127.88
1.31826	1131.75
1.32587	1135.64
1.33352	1139.55
1.34122	1143.47
1.34896	1147.41
1.35675	1151.37
1.36458	1155.34
1.37246	1159.33
1.38038	1163.33
1.38835	1167.35
1.39637	1171.39
1.40443	1175.44
1.41254	1179.51
1.42069	1183.59
1.42889	1187.69
1.43714	1191.8
1.44544	1195.93
1.45378	1200.07
1.46218	1204.23
1.47062	1208.41
1.47911	1212.59
1.48765	1216.8
1.49624	1221.01
1.50487	1225.24
1.51356	1229.49
1.5223	1233.74
1.53109	1238.02
1.53993	1242.3
1.54882	1246.6
1.55776	1250.91
1.56675	1255.24
1.5758	1259.57
1.58489	1263.92
1.59404	1268.28
1.60325	1272.64
1.6125	1276.98
1.62181	1281.33
1.63117	1285.69
1.64059	1290.06
1.65006	1294.44
1.65959	1298.84
1.66917	1303.24
1.6788	1307.66
1.6885	1312.09
1.69824	1316.53
1.70805	1320.98
1.71791	1325.44
1.72783	1329.92
1.7378	1334.4
1.74783	1338.9
1.75792	1343.41
1.76807	1347.93
1.77828	1352.46
1.78855	1357
1.79887	1361.56
1.80926	1366.12
1.8197	1370.7
1.83021	1375.29
1.84077	1379.89
1.8514	1384.5
1.86209	1389.12
1.87284	1393.75
1.88365	1398.4
1.89452	1403.05
1.90546	1407.72
1.91646	1412.4
1.92752	1417.09
1.93865	1421.79
1.94984	1426.5
1.9611	1431.23
1.97242	1435.96
1.98381	1440.71
1.99526	1445.47
2.00678	1450.24
2.01837	1455.02
2.03002	1459.81
2.04174	1464.61
2.05353	1469.42
2.06538	1474.25
2.0773	1479.08
2.0893	1483.93
2.10136	1488.79
2.11349	1493.66
2.12569	1498.54
2.13796	1503.43
2.1503	1508.33
2.16272	1513.25
2.1752	1518.17
2.18776	1523.11
2.20039	1528.05
2.21309	1533.01
2.22587	1537.98
2.23872	1542.96
2.25165	1547.95
2.26464	1552.95
2.27772	1557.96
2.29087	1562.98
2.30409	1568.02
2.31739	1573.06
2.33077	1578.11
2.34423	1583.18
2.35776	1588.25
2.37137	1593.34
2.38506	1598.43
2.39883	1603.54
2.41268	1608.66
2.42661	1613.78
2.44062	1618.92
2.45471	1624.07
2.46888	1629.23
2.48313	1634.4
2.49747	1639.58
2.51189	1644.77
2.52639	1649.97
2.54097	1655.18
2.55564	1660.41
2.5704	1665.64
2.58523	1670.89
2.60016	1676.15
2.61517	1681.42
2.63027	1686.7
2.64545	1691.99
2.66073	1697.3
2.67609	1702.61
2.69153	1707.94
2.70707	1713.29
2.7227	1718.64
2.73842	1724.01
2.75423	1729.39
2.77013	1734.78
2.78612	1740.19
2.80221	1745.6
2.81838	1751.04
2.83465	1756.49
2.85102	1761.95
2.86748	1767.42
2.88403	1772.91
2.90068	1778.42
2.91743	1783.94
2.93427	1789.48
2.95121	1795.03
2.96825	1800.6
2.98538	1806.18
3.00262	1811.79
3.01995	1817.41
3.03739	1823.05
3.05492	1828.71
3.07256	1834.38
3.0903	1840.08
3.10814	1845.79
3.12608	1851.53
3.14413	1857.29
3.16228	1863.07
3.18053	1868.87
3.1989	1874.69
3.21736	1880.54
3.23594	1886.41
3.25462	1892.3
3.27341	1898.22
3.2923	1904.16
3.31131	1910.13
3.33043	1916.12
3.34965	1922.14
3.36899	1928.19
3.38844	1934.27
3.408	1940.37
3.42768	1946.5
3.44747	1952.66
3.46737	1958.84
3.48739	1965.06
3.50752	1971.31
3.52777	1977.59
3.54813	1983.9
3.56862	1990.24
3.58922	1996.62
3.60994	2003.03
3.63078	2009.47
3.65174	2015.95
3.67282	2022.46
3.69403	2029.01
3.71535	2035.59
3.7368	2042.21
3.75837	2048.85
3.78007	2055.54
3.80189	2062.25
3.82384	2069.01
3.84592	2075.79
3.86812	2082.61
3.89045	2089.46
3.91291	2096.35
3.9355	2103.27
3.95822	2110.23
3.98107	2117.22
4.00405	2124.25
4.02717	2131.3
4.05042	2138.4
4.0738	2145.52
4.09732	2152.68
4.12098	2159.88
4.14477	2167.1
4.16869	2174.37
4.19276	2181.66
4.21697	2188.99
4.24131	2196.35
4.2658	2203.74
4.29042	2211.17
4.31519	2218.63
4.3401	2226.12
4.36516	2233.65
4.39036	2241.21
4.4157	2248.8
4.4412	2256.42
4.46684	2264.08
4.49262	2271.77
4.51856	2279.49
4.54465	2287.24
4.57088	2295.02
4.59727	2302.83
4.62381	2310.68
4.6505	2318.55
4.67735	2326.46
4.70435	2334.39
4.73151	2342.36
4.75883	2350.35
4.7863	2358.38
4.81393	2366.43
4.84172	2374.51
4.86968	2382.63
4.89779	2390.76
4.92606	2398.93
4.9545	2407.13
4.9831	2415.35
5.01187	2423.6
5.04081	2431.87
5.06991	2440.17
5.09918	2448.5
5.12861	2456.85
5.15822	2465.22
5.188	2473.62
5.21795	2482.04
5.24807	2490.49
5.27837	2498.96
5.30884	2507.45
5.33949	2515.96
5.37032	2524.49
5.40132	2533.05
5.4325	2541.62
5.46387	2550.21
5.49541	2558.82
5.52713	2567.45
5.55904	2576.1
5.59114	2584.76
5.62341	2593.44
5.65588	2602.13
5.68853	2610.84
5.72137	2619.56
5.7544	2628.29
5.78762	2637.03
5.82103	2645.79
5.85464	2654.56
5.88844	2663.33
5.92243	2672.11
5.95662	2680.9
5.99101	2689.7
6.0256	2698.48
6.06038	2707.26
6.09537	2716.04
6.13056	2724.83
6.16595	2733.62
6.20155	2742.41
6.23735	2751.21
6.27336	2760.01
6.30957	2768.81
6.346	2777.62
6.38263	2786.42
6.41948	2795.23
6.45654	2804.04
6.49382	2812.85
6.53131	2821.67
6.56901	2830.48
6.60693	2839.3
6.64508	2848.11
6.68344	2856.93
6.72202	2865.74
6.76083	2874.55
6.79986	2883.37
6.83912	2892.18
6.8786	2900.99
6.91831	2909.8
6.95825	2918.61
6.99842	2927.41
7.03882	2936.21
7.07946	2945.01
7.12033	2953.81
7.16143	2962.6
7.20278	2971.39
7.24436	2980.18
7.28618	2988.96
7.32825	2997.74
7.37055	3006.51
7.4131	3015.28
7.4559	3024.04
7.49894	3032.8
7.54223	3041.55
7.58578	3050.3
7.62957	3059.04
7.67361	3067.77
7.71792	3076.5
7.76247	3085.22
7.80728	3093.93
7.85236	3102.64
7.89769	3111.34
7.94328	3120.03
7.98914	3128.71
8.03526	3137.41
8.08165	3146.1
8.12831	3154.79
8.17523	3163.47
8.22243	3172.14
8.2699	3180.8
8.31764	3189.44
8.36566	3198.08
8.41395	3206.72
8.46253	3215.33
8.51138	3223.94
8.56052	3232.54
8.60994	3241.13
8.65964	3249.71
8.70964	3258.27
8.75992	3266.82
8.81049	3275.36
8.86135	3283.89
8.91251	3292.41
8.96396	3300.91
9.01571	3309.4
9.06776	3317.88
9.12011	3326.34
9.17276	3334.79
9.22571	3343.23
9.27897	3351.65
9.33254	3360.06
9.38642	3368.46
9.44061	3376.84
9.49511	3385.2
9.54993	3393.55
9.60506	3401.89
9.66051	3410.21
9.71628	3418.52
9.77237	3426.81
9.82879	3435.09
9.88553	3443.35
9.9426	3451.6
10	3459.83
10.0577	3468.05
10.1158	3476.26
10.1742	3484.44
10.2329	3492.62
10.292	3500.77
10.3514	3508.91
10.4112	3517.04
10.4713	3525.15
10.5317	3533.24
10.5925	3541.31
10.6537	3549.36
10.7152	3557.4
10.7771	3565.42
10.8393	3573.43
10.9018	3581.41
10.9648	3589.38
11.0281	3597.33
11.0917	3605.26
11.1558	3613.17
11.2202	3621.07
11.285	3628.94
11.3501	3636.8
11.4156	3644.64
11.4815	3652.46
11.5478	3660.26
11.6145	3668.04
11.6815	3675.81
11.749	3683.55
11.8168	3691.28
11.885	3698.99
11.9536	3706.68
12.0226	3714.36
12.0921	3722.02
12.1619	3729.67
12.2321	3737.3
12.3027	3744.9
12.3737	3752.49
12.4451	3760.06
12.517	3767.61
12.5893	3775.15
12.6619	3782.66
12.735	3790.15
12.8086	3797.62
12.8825	3805.06
12.9569	3812.49
13.0317	3819.9
13.1069	3827.29
13.1826	3834.65
13.2587	3842
13.3352	3849.32
13.4122	3856.62
13.4896	3863.9
13.5675	3871.15
13.6458	3878.39
13.7246	3885.6
13.8038	3892.8
13.8835	3899.97
13.9637	3907.11
14.0443	3914.24
14.1254	3921.35
14.2069	3928.43
14.2889	3935.49
14.3714	3942.53
14.4544	3949.55
14.5378	3956.54
14.6218	3963.52
14.7062	3970.47
14.7911	3977.41
14.8765	3984.32
14.9624	3991.21
15.0487	3998.08
15.1356	4004.94
15.223	4011.77
15.3109	4018.58
15.3993	4025.37
15.4882	4032.15
15.5776	4038.91
15.6675	4045.65
15.758	4052.37
15.8489	4059.07
15.9404	4065.76
16.0325	4072.42
16.125	4079.04
16.2181	4085.63
16.3117	4092.21
16.4059	4098.78
16.5006	4105.33
16.5959	4111.86
16.6917	4118.37
16.788	4124.87
16.885	4131.34
16.9824	4137.8
17.0805	4144.24
17.1791	4150.66
17.2783	4157.07
17.378	4163.45
17.4783	4169.81
17.5792	4176.16
17.6807	4182.48
17.7828	4188.78
17.8855	4195.06
17.9887	4201.32
18.0926	4207.56
18.197	4213.78
18.3021	4219.98
18.4077	4226.15
18.514	4232.31
18.6209	4238.44
18.7284	4244.55
18.8365	4250.63
18.9452	4256.7
19.0546	4262.74
19.1646	4268.76
19.2752	4274.75
19.3865	4280.73
19.4984	4286.67
19.611	4292.6
19.7242	4298.5
19.8381	4304.38
19.9526	4310.24
20.0678	4316.08
20.1837	4321.9
20.3002	4327.69
20.4174	4333.46
20.5353	4339.21
20.6538	4344.93
20.773	4350.63
20.893	4356.3
21.0136	4361.94
21.1349	4367.56
21.2569	4373.15
21.3796	4378.72
21.503	4384.26
21.6272	4389.77
21.752	4395.25
21.8776	4400.7
22.0039	4406.13
22.1309	4411.52
22.2587	4416.89
22.3872	4422.23
22.5165	4427.54
22.6464	4432.82
22.7772	4438.07
22.9087	4443.29
23.0409	4448.48
23.1739	4453.64
23.3077	4458.76
23.4423	4463.86
23.5776	4468.92
23.7137	4473.96
23.8506	4478.96
23.9883	4483.93
24.1268	4488.87
24.2661	4493.78
24.4062	4498.65
24.5471	4503.49
24.6888	4508.3
24.8313	4513.08
24.9747	4517.82
25.1189	4522.52
25.2639	4527.19
25.4097	4531.83
25.5564	4536.43
25.704	4540.99
25.8523	4545.52
26.0016	4550.01
26.1517	4554.46
26.3027	4558.88
26.4545	4563.25
26.6073	4567.59
26.7609	4571.89
26.9153	4576.15
27.0707	4580.37
27.227	4584.56
27.3842	4588.7
27.5423	4592.8
27.7013	4596.86
27.8612	4600.88
28.0221	4604.86
28.1838	4608.8
28.3465	4612.7
28.5102	4616.55
28.6748	4620.36
28.8403	4624.13
29.0068	4627.85
29.1743	4631.54
29.3427	4635.17
29.5121	4638.77
29.6825	4642.32
29.8538	4645.82
30.0262	4649.28
30.1995	4652.69
30.3739	4656.06
30.5492	4659.38
30.7256	4662.65
30.903	4665.88
31.0814	4669.06
31.2608	4672.19
31.4413	4675.27
31.6228	4678.31
31.8053	4681.3
31.989	4684.24
32.1736	4687.13
32.3594	4689.97
32.5462	4692.77
32.7341	4695.51
32.923	4698.21
33.1131	4700.85
33.3043	4703.44
33.4965	4705.99
33.6899	4708.48
33.8844	4710.92
34.08	4713.3
34.2768	4715.64
34.4747	4717.92
34.6737	4720.15
34.8739	4722.33
35.0752	4724.45
35.2777	4726.52
35.4813	4728.54
35.6862	4730.5
35.8922	4732.41
36.0994	4734.26
36.3078	4736.06
36.5174	4737.81
36.7282	4739.5
36.9403	4741.14
37.1535	4742.72
37.368	4744.25
37.5837	4745.72
37.8007	4747.14
38.0189	4748.5
38.2384	4749.81
38.4592	4751.07
38.6812	4752.27
38.9045	4753.42
39.1291	4754.52
39.355	4755.56
39.5822	4756.55
39.8107	4757.49
40.0405	4758.38
40.2717	4759.23
40.5042	4760.02
40.738	4760.77
40.9732	4761.46
41.2098	4762.09
41.4477	4762.68
41.6869	4763.21
41.9276	4763.68
42.1697	4764.1
42.4131	4764.47
42.658	4764.78
42.9042	4765.04
43.1519	4765.24
43.401	4765.38
43.6516	4765.47
43.9036	4765.5
44.157	4765.48
44.412	4765.39
44.6684	4765.25
44.9262	4765.06
45.1856	4764.8
45.4465	4764.49
45.7088	4764.12
45.9727	4763.7
46.2381	4763.21
46.505	4762.67
46.7735	4762.07
47.0435	4761.41
47.3151	4760.69
47.5883	4759.91
47.863	4759.08
48.1393	4758.19
48.4172	4757.24
48.6968	4756.23
48.9779	4755.16
49.2606	4754.03
49.545	4752.85
49.831	4751.61
50.1187	4750.31
50.4081	4748.95
50.6991	4747.53
50.9918	4746.06
51.2861	4744.53
51.5822	4742.95
51.88	4741.31
52.1795	4739.61
52.4807	4737.86
52.7837	4736.05
53.0884	4734.19
53.3949	4732.27
53.7032	4730.3
54.0132	4728.27
54.325	4726.19
54.6387	4724.07
54.9541	4721.88
55.2713	4719.65
55.5904	4717.37
55.9114	4715.04
56.2341	4712.66
56.5588	4710.23
56.8853	4707.76
57.2137	4705.24
57.544	4702.68
57.8762	4700.07
58.2103	4697.42
58.5464	4694.72
58.8844	4691.99
59.2243	4689.22
59.5662	4686.4
59.9101	4683.56
60.256	4680.58
60.6038	4677.53
60.9537	4674.44
61.3056	4671.32
61.6595	4668.15
62.0155	4664.96
62.3735	4661.72
62.7336	4658.45
63.0957	4655.15
63.46	4651.8
63.8263	4648.42
64.1948	4645
64.5654	4641.55
64.9382	4638.05
65.3131	4634.52
65.6901	4630.95
66.0693	4627.35
66.4508	4623.7
66.8344	4620.02
67.2202	4616.3
67.6083	4612.54
67.9986	4608.75
68.3912	4604.91
68.786	4601.04
69.1831	4597.13
69.5825	4593.18
69.9842	4589.19
70.3882	4585.16
70.7946	4581.1
71.2033	4576.99
71.6143	4572.85
72.0278	4568.67
72.4436	4564.46
72.8618	4560.2
73.2825	4555.91
73.7055	4551.57
74.131	4547.2
74.559	4542.8
74.9894	4538.35
75.4223	4533.87
75.8578	4529.35
76.2957	4524.79
76.7361	4520.2
77.1792	4515.57
77.6247	4510.9
78.0728	4506.19
78.5236	4501.45
78.9769	4496.68
79.4328	4491.86
79.8914	4487.01
80.3526	4482.14
80.8165	4477.24
81.2831	4472.3
81.7523	4467.33
82.2243	4462.32
82.699	4457.28
83.1764	4452.2
83.6566	4447.09
84.1395	4441.94
84.6253	4436.76
85.1138	4431.55
85.6052	4426.3
86.0994	4421.02
86.5964	4415.7
87.0964	4410.36
87.5992	4404.97
88.1049	4399.56
88.6135	4394.11
89.1251	4388.63
89.6396	4383.12
90.1571	4377.58
90.6776	4372
91.2011	4366.4
91.7276	4360.76
92.2571	4355.09
92.7897	4349.4
93.3254	4343.67
93.8642	4337.91
94.4061	4332.13
94.9511	4326.32
95.4993	4320.47
96.0506	4314.6
96.6051	4308.71
97.1628	4302.78
97.7237	4296.84
98.2879	4290.86
98.8553	4284.86
99.426	4278.84
100	4272.79
100.577	4266.72
101.158	4260.63
101.742	4254.52
102.329	4248.38
102.92	4242.22
103.514	4236.04
104.112	4229.83
104.713	4223.6
105.317	4217.35
105.925	4211.08
106.537	4204.79
107.152	4198.47
107.771	4192.13
108.393	4185.77
109.018	4179.39
109.648	4172.99
110.281	4166.57
110.917	4160.12
111.558	4153.66
112.202	4147.17
112.85	4140.66
113.501	4134.13
114.156	4127.58
114.815	4121.01
115.478	4114.43
116.145	4107.82
116.815	4101.19
117.49	4094.54
118.168	4087.87
118.85	4081.19
119.536	4074.48
120.226	4067.76
120.921	4061.02
121.619	4054.26
122.321	4047.48
123.027	4040.69
123.737	4033.88
124.451	4027.05
125.17	4020.2
125.893	4013.33
126.619	4006.45
127.35	3999.55
128.086	3992.63
128.825	3985.69
129.569	3978.74
130.317	3971.77
131.069	3964.78
131.826	3957.78
132.587	3950.76
133.352	3943.72
134.122	3936.67
134.896	3929.6
135.675	3922.51
136.458	3915.41
137.246	3908.29
138.038	3901.15
138.835	3894.01
139.637	3886.84
140.443	3879.66
141.254	3872.46
142.069	3865.25
142.889	3858.03
143.714	3850.79
144.544	3843.53
145.378	3836.26
146.218	3828.98
147.062	3821.68
147.911	3814.37
148.765	3807.05
149.624	3799.71
150.487	3792.36
151.356	3784.99
152.23	3777.62
153.109	3770.23
153.993	3762.83
154.882	3755.42
155.776	3747.99
156.675	3740.56
157.58	3733.11
158.489	3725.65
159.404	3718.18
160.325	3710.71
161.25	3703.22
162.181	3695.73
163.117	3688.23
164.059	3680.72
165.006	3673.2
165.959	3665.67
166.917	3658.13
167.88	3650.58
168.85	3643.03
169.824	3635.46
170.805	3627.88
171.791	3620.3
172.783	3612.71
173.78	3605.11
174.783	3597.5
175.792	3589.88
176.807	3582.25
177.828	3574.62
178.855	3566.98
179.887	3559.33
180.926	3551.67
181.97	3544.01
183.021	3536.34
184.077	3528.66
185.14	3520.97
186.209	3513.28
187.284	3505.58
188.365	3497.87
189.452	3490.16
190.546	3482.44
191.646	3474.72
192.752	3466.99
193.865	3459.25
194.984	3451.51
196.11	3443.76
197.242	3436
198.381	3428.24
199.526	3420.48
200.678	3412.7
201.837	3404.93
203.002	3397.14
204.174	3389.35
205.353	3381.56
206.538	3373.76
207.73	3365.96
208.93	3358.15
210.136	3350.34
211.349	3342.52
212.569	3334.7
213.796	3326.88
215.03	3319.05
216.272	3311.22
217.52	3303.39
218.776	3295.55
220.039	3287.71
221.309	3279.87
222.587	3272.03
223.872	3264.18
225.165	3256.33
226.464	3248.47
227.772	3240.62
229.087	3232.76
230.409	3224.9
231.739	3217.04
233.077	3209.17
234.423	3201.31
235.776	3193.44
237.137	3185.57
238.506	3177.7
239.883	3169.82
241.268	3161.95
242.661	3154.07
244.062	3146.19
245.471	3138.32
246.888	3130.44
248.313	3122.56
249.747	3114.68
251.189	3106.8
252.639	3098.92
254.097	3091.04
255.564	3083.15
257.04	3075.27
258.523	3067.39
260.016	3059.51
261.517	3051.63
263.027	3043.75
264.545	3035.87
266.073	3028
267.609	3020.12
269.153	3012.24
270.707	3004.37
272.27	2996.49
273.842	2988.62
275.423	2980.75
277.013	2972.88
278.612	2965.01
280.221	2957.15
281.838	2949.28
283.465	2941.42
285.102	2933.56
286.748	2925.7
288.403	2917.84
290.068	2909.99
291.743	2902.14
293.427	2894.29
295.121	2886.44
296.825	2878.6
298.538	2870.76
300.262	2862.92
301.995	2855.09
303.739	2847.26
305.492	2839.43
307.256	2831.61
309.03	2823.79
310.814	2815.97
312.608	2808.16
314.413	2800.35
316.228	2792.55
318.053	2784.75
319.89	2776.95
321.736	2769.16
323.594	2761.37
325.462	2753.59
327.341	2745.81
329.23	2738.04
331.131	2730.27
333.043	2722.5
334.965	2714.74
336.899	2706.99
338.844	2699.24
340.8	2691.5
342.768	2683.76
344.747	2676.03
346.737	2668.3
348.739	2660.58
350.752	2652.87
352.777	2645.16
354.813	2637.46
356.862	2629.76
358.922	2622.08
360.994	2614.39
363.078	2606.72
365.174	2599.05
367.282	2591.38
369.403	2583.73
371.535	2576.08
373.68	2568.43
375.837	2560.8
378.007	2553.17
380.189	2545.55
382.384	2537.93
384.592	2530.33
386.812	2522.73
389.045	2515.14
391.291	2507.55
393.55	2499.97
395.822	2492.4
398.107	2484.84
400.405	2477.28
402.717	2469.73
405.042	2462.18
407.38	2454.64
409.732	2447.11
412.098	2439.58
414.477	2432.07
416.869	2424.56
419.276	2417.06
421.697	2409.57
424.131	2402.09
426.58	2394.62
429.042	2387.16
431.519	2379.71
434.01	2372.27
436.516	2364.83
439.036	2357.41
441.57	2350
444.12	2342.6
446.684	2335.21
449.262	2327.83
451.856	2320.46
454.465	2313.1
457.088	2305.75
459.727	2298.41
462.381	2291.09
465.05	2283.77
467.735	2276.47
470.435	2269.18
473.151	2261.9
475.883	2254.64
478.63	2247.38
481.393	2240.14
484.172	2232.91
486.968	2225.69
489.779	2218.48
492.606	2211.29
495.45	2204.1
498.31	2196.93
501.187	2189.78
504.081	2182.63
506.991	2175.5
509.918	2168.38
512.861	2161.27
515.822	2154.18
518.8	2147.09
521.795	2140.02
524.807	2132.97
527.837	2125.92
530.884	2118.89
533.949	2111.86
537.032	2104.86
540.132	2097.86
543.25	2090.87
546.387	2083.9
549.541	2076.94
552.713	2069.99
555.904	2063.05
559.114	2056.12
562.341	2049.2
565.588	2042.29
568.853	2035.4
572.137	2028.51
575.44	2021.63
578.762	2014.77
582.103	2007.91
585.464	2001.06
588.844	1994.22
592.243	1987.39
595.662	1980.57
599.101	1973.76
602.56	1967.01
606.038	1960.31
609.537	1953.61
613.056	1946.91
616.595	1940.23
620.155	1933.56
623.735	1926.89
627.336	1920.23
630.957	1913.59
634.6	1906.95
638.263	1900.32
641.948	1893.7
645.654	1887.09
649.382	1880.5
653.131	1873.91
656.901	1867.33
660.693	1860.77
664.508	1854.21
668.344	1847.67
672.202	1841.14
676.083	1834.62
679.986	1828.12
683.912	1821.62
687.86	1815.14
691.831	1808.67
695.825	1802.21
699.842	1795.77
703.882	1789.34
707.946	1782.92
712.033	1776.52
716.143	1770.13
720.278	1763.76
724.436	1757.4
728.618	1751.05
732.825	1744.72
737.055	1738.4
741.31	1732.1
745.59	1725.81
749.894	1719.54
754.223	1713.28
758.578	1707.04
762.957	1700.81
767.361	1694.6
771.792	1688.41
776.247	1682.23
780.728	1676.06
785.236	1669.92
789.769	1663.79
794.328	1657.67
798.914	1651.58
803.526	1645.48
808.165	1639.39
812.831	1633.33
817.523	1627.27
822.243	1621.24
826.99	1615.22
831.764	1609.22
836.566	1603.23
841.395	1597.27
846.253	1591.32
851.138	1585.39
856.052	1579.47
860.994	1573.57
865.964	1567.69
870.964	1561.83
875.992	1555.99
881.049	1550.16
886.135	1544.35
891.251	1538.56
896.396	1532.78
901.571	1527.03
906.776	1521.29
912.011	1515.56
917.276	1509.86
922.571	1504.17
927.897	1498.5
933.254	1492.85
938.642	1487.21
944.061	1481.59
949.511	1475.99
954.993	1470.4
960.506	1464.83
966.051	1459.27
971.628	1453.74
977.237	1448.21
982.879	1442.7
988.553	1437.21
994.26	1431.73
1000	1426.27
1005.77	1420.82
1011.58	1415.38
1017.42	1409.96
1023.29	1404.56
1029.2	1399.16
1035.14	1393.79
1041.12	1388.42
1047.13	1383.08
1053.17	1377.74
1059.25	1372.43
1065.37	1367.13
1071.52	1361.84
1077.71	1356.57
1083.93	1351.31
1090.18	1346.07
1096.48	1340.85
1102.81	1335.64
1109.17	1330.45
1115.58	1325.27
1122.02	1320.11
1128.5	1314.96
1135.01	1309.84
1141.56	1304.72
1148.15	1299.62
1154.78	1294.54
1161.45	1289.48
1168.15	1284.43
1174.9	1279.39
1181.68	1274.37
1188.5	1269.37
1195.36	1264.38
1202.26	1259.41
1209.21	1254.44
1216.19	1249.49
1223.21	1244.56
1230.27	1239.64
1237.37	1234.74
1244.51	1229.85
1251.7	1224.98
1258.93	1220.13
1266.19	1215.29
1273.5	1210.47
1280.86	1205.66
1288.25	1200.88
1295.69	1196.1
1303.17	1191.35
1310.69	1186.61
1318.26	1181.89
1325.87	1177.18
1333.52	1172.5
1341.22	1167.83
1348.96	1163.17
1356.75	1158.54
1364.58	1153.92
1372.46	1149.31
1380.38	1144.73
1388.35	1140.16
1396.37	1135.61
1404.43	1131.07
1412.54	1126.55
1420.69	1122.05
1428.89	1117.57
1437.14	1113.1
1445.44	1108.65
1453.78	1104.21
1462.18	1099.79
1470.62	1095.39
1479.11	1091.01
1487.65	1086.64
1496.24	1082.28
1504.87	1077.94
1513.56	1073.62
1522.3	1069.31
1531.09	1065.01
1539.93	1060.74
1548.82	1056.47
1557.76	1052.22
1566.75	1047.98
1575.8	1043.76
1584.89	1039.55
1594.04	1035.35
1603.25	1031.17
1612.5	1027.02
1621.81	1022.89
1631.17	1018.77
1640.59	1014.66
1650.06	1010.56
1659.59	1006.48
1669.17	1002.41
1678.8	998.349
1688.5	994.304
1698.24	990.273
1708.05	986.256
1717.91	982.252
1727.83	978.262
1737.8	974.286
1747.83	970.324
1757.92	966.375
1768.07	962.441
1778.28	958.521
1788.55	954.615
1798.87	950.724
1809.26	946.847
1819.7	942.985
1830.21	939.137
1840.77	935.304
1851.4	931.485
1862.09	927.681
1872.84	923.892
1883.65	920.117
1894.52	916.357
1905.46	912.612
1916.46	908.882
1927.52	905.167
1938.65	901.466
1949.84	897.78
1961.1	894.108
1972.42	890.451
1983.81	886.809
1995.26	883.181
2006.78	879.564
2018.37	875.958
2030.02	872.367
2041.74	868.79
2053.53	865.227
2065.38	861.68
2077.3	858.146
2089.3	854.628
2101.36	851.124
2113.49	847.635
2125.69	844.16
2137.96	840.7
2150.3	837.255
2162.72	833.824
2175.2	830.408
2187.76	827.007
2200.39	823.62
2213.09	820.248
2225.87	816.89
2238.72	813.546
2251.65	810.217
2264.64	806.901
2277.72	803.6
2290.87	800.313
2304.09	797.039
2317.39	793.779
2330.77	790.532
2344.23	787.299
2357.76	784.079
2371.37	780.872
2385.06	777.677
2398.83	774.495
2412.68	771.324
2426.61	768.166
2440.62	765.02
2454.71	761.887
2468.88	758.765
2483.13	755.657
2497.47	752.561
2511.89	749.477
2526.39	746.406
2540.97	743.348
2555.64	740.302
2570.4	737.269
2585.23	734.248
2600.16	731.241
2615.17	728.246
2630.27	725.263
2645.45	722.294
2660.73	719.336
2676.09	716.392
2691.53	713.46
2707.07	710.541
2722.7	707.634
2738.42	704.739
2754.23	701.857
2770.13	698.987
2786.12	696.129
2802.21	693.284
2818.38	690.45
2834.65	687.628
2851.02	684.818
2867.48	682.02
2884.03	679.234
2900.68	676.46
2917.43	673.698
2934.27	670.949
2951.21	668.211
2968.25	665.485
2985.38	662.772
3002.62	660.07
3019.95	657.38
3037.39	654.702
3054.92	652.036
3072.56	649.382
3090.3	646.739
3108.14	644.108
3126.08	641.489
3144.13	638.881
3162.28	636.284
3180.53	633.698
3198.9	631.124
3217.36	628.56
3235.94	626.008
3254.62	623.466
3273.41	620.935
3292.3	618.416
3311.31	615.907
3330.43	613.41
3349.65	610.923
3368.99	608.448
3388.44	605.984
3408	603.531
3427.68	601.089
3447.47	598.658
3467.37	596.239
3487.39	593.83
3507.52	591.432
3527.77	589.046
3548.13	586.67
3568.62	584.305
3589.22	581.951
3609.94	579.608
3630.78	577.275
3651.74	574.953
3672.82	572.641
3694.03	570.34
3715.35	568.049
3736.8	565.769
3758.37	563.499
3780.07	561.239
3801.89	558.988
3823.84	556.748
3845.92	554.518
3868.12	552.297
3890.45	550.085
3912.91	547.883
3935.5	545.69
3958.22	543.506
3981.07	541.33
4004.05	539.163
4027.17	536.999
4050.42	534.845
4073.8	532.698
4097.32	530.56
4120.98	528.431
4144.77	526.311
4168.69	524.2
4192.76	522.097
4216.97	520.004
4241.31	517.92
4265.8	515.845
4290.42	513.779
4315.19	511.723
4340.1	509.677
4365.16	507.639
4390.36	505.612
4415.7	503.594
4441.2	501.586
4466.84	499.588
4492.62	497.6
4518.56	495.621
4544.65	493.653
4570.88	491.695
4597.27	489.746
4623.81	487.808
4650.5	485.88
4677.35	483.963
4704.35	482.055
4731.51	480.158
4758.83	478.271
4786.3	476.394
4813.93	474.527
4841.72	472.671
4869.68	470.825
4897.79	468.99
4926.06	467.164
4954.5	465.349
4983.1	463.544
5011.87	461.749
5040.81	459.964
5069.91	458.189
5099.18	456.424
5128.61	454.67
5158.22	452.924
5188	451.189
5217.95	449.464
5248.07	447.748
5278.37	446.041
5308.84	444.344
5339.49	442.656
5370.32	440.977
5401.32	439.307
5432.5	437.645
5463.87	435.993
5495.41	434.349
5527.13	432.713
5559.04	431.085
5591.14	429.465
5623.41	427.852
5655.88	426.247
5688.53	424.649
5721.37	423.032
5754.4	421.315
5787.62	419.606
5821.03	417.904
5854.64	416.209
5888.44	414.521
5922.43	412.839
5956.62	411.163
5991.01	409.492
6025.6	407.86
6060.38	406.246
6095.37	404.637
6130.56	403.034
6165.95	401.437
6201.55	399.845
6237.35	398.258
6273.36	396.678
6309.57	395.103
6346	393.533
6382.63	391.97
6419.48	390.413
6456.54	388.861
6493.82	387.316
6531.31	385.777
6569.01	384.244
6606.93	382.718
6645.08	381.197
6683.44	379.684
6722.02	378.176
6760.83	376.676
6799.86	375.181
6839.12	373.694
6878.6	372.213
6918.31	370.739
6958.25	369.272
6998.42	367.812
7038.82	366.359
7079.46	364.912
7120.33	363.473
7161.43	362.041
7202.78	360.616
7244.36	359.198
7286.18	357.788
7328.25	356.384
7370.55	354.989
7413.1	353.6
7455.9	352.219
7498.94	350.845
7542.23	349.479
7585.78	348.12
7629.57	346.769
7673.61	345.425
7717.92	344.089
7762.47	342.761
7807.28	341.44
7852.36	340.127
7897.69	338.821
7943.28	337.523
7989.14	336.233
8035.26	334.945
8081.65	333.662
8128.31	332.387
8175.23	331.12
8222.43	329.86
8269.9	328.608
8317.64	327.364
8365.66	326.127
8413.95	324.898
8462.53	323.677
8511.38	322.463
8560.52	321.257
8609.94	320.058
8659.64	318.867
8709.64	317.684
8759.92	316.508
8810.49	315.339
8861.35	314.178
8912.51	313.024
8963.96	311.878
9015.71	310.738
9067.76	309.606
9120.11	308.481
9172.76	307.364
9225.71	306.253
9278.97	305.148
9332.54	304.051
9386.42	302.961
9440.61	301.876
9495.11	300.799
9549.93	299.727
9605.06	298.662
9660.51	297.603
9716.28	296.55
9772.37	295.503
9828.79	294.461
9885.53	293.424
9942.6	292.393
10000	291.367
10057.7	290.345
10115.8	289.329
10174.2	288.317
10232.9	287.31
10292	286.308
10351.4	285.311
10411.2	284.319
10471.3	283.332
10531.7	282.35
10592.5	281.373
10653.7	280.401
10715.2	279.435
10777.1	278.473
10839.3	277.516
10901.8	276.565
10964.8	275.619
11028.1	274.677
11091.7	273.741
11155.8	272.81
11220.2	271.884
11285	270.963
11350.1	270.047
11415.6	269.136
11481.5	268.23
11547.8	267.33
11614.5	266.434
11681.5	265.543
11749	264.657
11816.8	263.775
11885	262.899
11953.6	262.027
12022.6	261.16
12092.1	260.296
12161.9	259.436
12232.1	258.582
12302.7	257.732
12373.7	256.886
12445.1	256.046
12517	255.211
12589.3	254.38
12661.9	253.554
12735	252.733
12808.6	251.917
12882.5	251.106
12956.9	250.3
13031.7	249.499
13106.9	248.702
13182.6	247.911
13258.7	247.125
13335.2	246.343
13412.2	245.566
13489.6	244.795
13567.5	244.028
13645.8	243.266
13724.6	242.509
13803.8	241.757
13883.5	241.01
13963.7	240.267
14044.3	239.53
14125.4	238.797
14206.9	238.069
14288.9	237.345
14371.4	236.627
14454.4	235.912
14537.8	235.203
14621.8	234.498
14706.2	233.797
14791.1	233.101
14876.5	232.409
14962.4	231.721
15048.7	231.038
15135.6	230.358
15223	229.683
15310.9	229.012
15399.3	228.344
15488.2	227.68
15577.6	227.02
15667.5	226.364
15758	225.71
15848.9	225.06
15940.4	224.413
16032.5	223.772
16125	223.137
16218.1	222.506
16311.7	221.877
16405.9	221.252
16500.6	220.629
16595.9	220.01
16691.7	219.394
16788	218.781
16885	218.171
16982.4	217.565
17080.5	216.961
17179.1	216.361
17278.3	215.764
17378	215.171
17478.3	214.581
17579.2	213.994
17680.7	213.41
17782.8	212.83
17885.5	212.253
17988.7	211.68
18092.6	211.109
18197	210.543
18302.1	209.979
18407.7	209.42
18514	208.863
18620.9	208.31
18728.4	207.76
18836.5	207.214
18945.2	206.671
19054.6	206.132
19164.6	205.596
19275.2	205.063
19386.5	204.534
19498.4	204.008
19611	203.486
19724.2	202.966
19838.1	202.45
19952.6	201.938
20067.8	201.428
20183.7	200.92
20300.2	200.416
20417.4	199.915
20535.3	199.418
20653.8	198.923
20773	198.432
20893	197.944
21013.6	197.46
21134.9	196.979
21256.9	196.501
21379.6	196.026
21503	195.554
21627.2	195.086
21752	194.621
21877.6	194.159
22003.9	193.7
22130.9	193.245
22258.7	192.792
22387.2	192.343
22516.5	191.896
22646.4	191.453
22777.2	191.013
22908.7	190.576
23040.9	190.141
23173.9	189.71
23307.7	189.281
23442.3	188.856
23577.6	188.433
23713.7	188.012
23850.6	187.595
23988.3	187.18
24126.8	186.767
24266.1	186.357
24406.2	185.949
24547.1	185.544
24688.8	185.141
24831.3	184.741
24974.7	184.344
25118.9	183.949
25263.9	183.557
25409.7	183.167
25556.4	182.78
25704	182.395
25852.3	182.013
26001.6	181.634
26151.7	181.257
26302.7	180.882
26454.5	180.51
26607.3	180.141
26760.9	179.774
26915.3	179.41
27070.7	179.048
27227	178.689
27384.2	178.332
27542.3	177.977
27701.3	177.625
27861.2	177.275
28022.1	176.928
28183.8	176.583
28346.5	176.241
28510.2	175.9
28674.8	175.562
28840.3	175.227
29006.8	174.894
29174.3	174.563
29342.7	174.234
29512.1	173.908
29682.5	173.584
29853.8	173.263
30026.2	172.944
30199.5	172.627
30373.9	172.312
30549.2	172
30725.6	171.69
30903	171.382
31081.4	171.076
31260.8	170.773
31441.3	170.472
31622.8	170.173
31805.3	169.876
31989	169.581
32173.6	169.289
32359.4	168.998
32546.2	168.71
32734.1	168.423
32923	168.139
33113.1	167.857
33304.3	167.576
33496.5	167.298
33689.9	167.022
33884.4	166.748
34080	166.476
34276.8	166.206
34474.7	165.938
34673.7	165.672
34873.9	165.408
35075.2	165.146
35277.7	164.886
35481.3	164.627
35686.2	164.371
35892.2	164.116
36099.4	163.864
36307.8	163.613
36517.4	163.364
36728.2	163.116
36940.3	162.871
37153.5	162.626
37368	162.384
37583.7	162.143
37800.7	161.904
38018.9	161.666
38238.4	161.43
38459.2	161.195
38681.2	160.961
38904.5	160.729
39129.1	160.498
39355	160.268
39582.2	160.039
39810.7	159.811
40040.5	159.582
40271.7	159.338
40504.2	159.096
40738	158.856
40973.2	158.618
41209.8	158.381
41447.7	158.146
41686.9	157.914
41927.6	157.683
42169.7	157.453
42413.1	157.226
42658	157
42904.2	156.776
43151.9	156.554
43401	156.334
43651.6	156.115
43903.6	155.898
44157	155.683
44412	155.47
44668.4	155.258
44926.2	155.048
45185.6	154.839
45446.5	154.632
45708.8	154.427
45972.7	154.224
46238.1	154.022
46505	153.822
46773.5	153.623
47043.5	153.426
47315.1	153.231
47588.3	153.037
47863	152.845
48139.3	152.654
48417.2	152.465
48696.8	152.277
48977.9	152.091
49260.6	151.907
49545	151.724
49831	151.543
50118.7	151.363
50408.1	151.184
50699.1	151.007
50991.8	150.832
51286.1	150.658
51582.2	150.486
51880	150.314
52179.5	150.145
52480.7	149.977
52783.7	149.81
53088.4	149.645
53394.9	149.481
53703.2	149.318
54013.2	149.157
54325	148.998
54638.7	148.839
54954.1	148.683
55271.3	148.527
55590.4	148.373
55911.4	148.22
56234.1	148.068
56558.8	147.918
56885.3	147.769
57213.7	147.622
57544	147.476
57876.2	147.331
58210.3	147.187
58546.4	147.045
58884.4	146.904
59224.3	146.764
59566.2	146.626
59910.1	146.488
60256	146.352
60603.8	146.218
60953.7	146.084
61305.6	145.952
61659.5	145.821
62015.5	145.691
62373.5	145.562
62733.6	145.435
63095.7	145.308
63460	145.183
63826.3	145.059
64194.8	144.937
64565.4	144.815
64938.2	144.694
65313.1	144.575
65690.1	144.457
66069.3	144.34
66450.8	144.224
66834.4	144.109
67220.2	143.996
67608.3	143.883
67998.6	143.772
68391.2	143.661
68786	143.552
69183.1	143.444
69582.5	143.336
69984.2	143.23
70388.2	143.125
70794.6	143.021
71203.3	142.918
71614.3	142.817
72027.8	142.716
72443.6	142.616
72861.8	142.517
73282.5	142.419
73705.5	142.322
74131	142.227
74559	142.132
74989.4	142.038
75422.3	141.945
75857.8	141.853
76295.7	141.762
76736.1	141.672
77179.2	141.583
77624.7	141.495
78072.8	141.408
78523.6	141.322
78976.9	141.237
79432.8	141.152
79891.4	141.069
80352.6	140.986
80816.5	140.905
81283.1	140.824
81752.3	140.744
82224.3	140.665
82699	140.587
83176.4	140.51
83656.6	140.434
84139.5	140.358
84625.3	140.284
85113.8	140.21
85605.2	140.137
86099.4	140.065
86596.4	139.994
87096.4	139.924
87599.2	139.854
88104.9	139.785
88613.5	139.717
89125.1	139.65
89639.6	139.584
90157.1	139.518
90677.6	139.454
91201.1	139.39
91727.6	139.327
92257.1	139.264
92789.7	139.203
93325.4	139.142
93864.2	139.082
94406.1	139.022
94951.1	138.964
95499.3	138.906
96050.6	138.849
96605.1	138.793
97162.8	138.737
97723.7	138.682
98287.9	138.628
98855.3	138.574
99426	138.521
100000	138.469
100577	138.418
101158	138.367
101742	138.317
102329	138.268
102920	138.219
103514	138.171
104112	138.124
104713	138.077
105317	138.031
105925	137.986
106537	137.941
107152	137.897
107771	137.854
108393	137.811
109018	137.769
109648	137.728
110281	137.687
110917	137.646
111558	137.607
112202	137.568
112850	137.529
113501	137.491
114156	137.454
114815	137.417
115478	137.381
116145	137.346
116815	137.311
117490	137.276
118168	137.243
118850	137.209
119536	137.177
120226	137.144
120921	137.113
121619	137.082
122321	137.051
123027	137.021
123737	136.992
124451	136.963
125170	136.935
125893	136.907
126619	136.879
127350	136.852
128086	136.826
128825	136.8
129569	136.775
130317	136.75
131069	136.726
131826	136.702
132587	136.679
133352	136.656
134122	136.633
134896	136.611
135675	136.59
136458	136.569
137246	136.548
138038	136.528
138835	136.508
139637	136.489
140443	136.47
141254	136.452
142069	136.434
142889	136.417
143714	136.4
144544	136.383
145378	136.367
146218	136.351
147062	136.336
147911	136.321
148765	136.306
149624	136.292
150487	136.279
151356	136.265
152230	136.252
153109	136.24
153993	136.228
154882	136.216
155776	136.205
156675	136.194
157580	136.183
158489	136.173
159404	136.163
160325	136.153
161250	136.144
162181	136.135
163117	136.127
164059	136.119
165006	136.111
165959	136.104
166917	136.097
167880	136.09
168850	136.084
169824	136.077
170805	136.072
171791	136.066
172783	136.061
173780	136.057
174783	136.052
175792	136.048
176807	136.044
177828	136.041
178855	136.037
179887	136.035
180926	136.032
181970	136.03
183021	136.028
184077	136.026
185140	136.025
186209	136.023
187284	136.023
188365	136.022
189452	136.022
190546	136.022
191646	136.022
192752	136.022
193865	136.023
194984	136.024
196110	136.025
197242	136.027
198381	136.029
199526	136.031
200678	136.033
201837	136.036
203002	136.039
204174	136.042
205353	136.045
206538	136.049
207730	136.052
208930	136.056
210136	136.06
211349	136.065
212569	136.07
213796	136.075
215030	136.08
216272	136.085
217520	136.091
218776	136.096
220039	136.102
221309	136.108
222587	136.115
223872	136.121
225165	136.128
226464	136.135
227772	136.142
229087	136.15
230409	136.157
231739	136.165
233077	136.173
234423	136.181
235776	136.19
237137	136.198
238506	136.207
239883	136.216
241268	136.225
242661	136.234
244062	136.243
245471	136.253
246888	136.263
248313	136.273
249747	136.283
251189	136.293
252639	136.303
254097	136.314
255564	136.325
257040	136.335
258523	136.346
260016	136.358
261517	136.369
263027	136.38
264545	136.392
266073	136.404
267609	136.415
269153	136.427
270707	136.44
272270	136.452
273842	136.464
275423	136.477
277013	136.489
278612	136.502
280221	136.515
281838	136.528
283465	136.541
285102	136.555
286748	136.568
288403	136.582
290068	136.595
291743	136.609
293427	136.623
295121	136.637
296825	136.651
298538	136.665
300262	136.679
301995	136.694
303739	136.708
305492	136.723
307256	136.738
309030	136.753
310814	136.767
312608	136.782
314413	136.798
316228	136.813
318053	136.828
319890	136.843
321736	136.859
323594	136.874
325462	136.89
327341	136.906
329230	136.921
331131	136.937
333043	136.953
334965	136.969
336899	136.985
338844	137.002
340800	137.018
342768	137.034
344747	137.051
346737	137.067
348739	137.084
350752	137.1
352777	137.117
354813	137.134
356862	137.15
358922	137.167
360994	137.184
363078	137.201
365174	137.218
367282	137.235
369403	137.253
371535	137.27
373680	137.287
375837	137.304
378007	137.322
380189	137.339
382384	137.357
384592	137.374
386812	137.392
389045	137.409
391291	137.427
393550	137.445
395822	137.462
398107	137.48
400405	137.498
402717	137.516
405042	137.534
407380	137.552
409732	137.57
412098	137.588
414477	137.606
416869	137.624
419276	137.642
421697	137.66
424131	137.678
426580	137.697
429042	137.715
431519	137.733
434010	137.751
436516	137.77
439036	137.788
441570	137.807
444120	137.825
446684	137.843
449262	137.862
451856	137.88
454465	137.899
457088	137.917
459727	137.936
462381	137.954
465050	137.973
467735	137.991
470435	138.01
473151	138.029
475883	138.047
478630	138.066
481393	138.084
484172	138.103
486968	138.122
489779	138.14
492606	138.159
495450	138.178
498310	138.197
501187	138.215
504081	138.234
506991	138.253
509918	138.271
512861	138.29
515822	138.309
518800	138.328
521795	138.346
524807	138.365
527837	138.384
530884	138.402
533949	138.421
537032	138.44
540132	138.459
543250	138.477
546387	138.496
549541	138.515
552713	138.533
555904	138.552
559114	138.571
562341	138.59
565588	138.608
568853	138.627
572137	138.646
575440	138.664
578762	138.683
582103	138.701
585464	138.72
588844	138.739
592243	138.757
595662	138.776
599101	138.794
602560	138.813
606038	138.832
609537	138.85
613056	138.869
616595	138.887
620155	138.906
623735	138.924
627336	138.943
630957	138.961
634600	138.979
638263	138.998
641948	139.016
645654	139.035
649382	139.053
653131	139.071
656901	139.09
660693	139.108
664508	139.126
668344	139.144
672202	139.163
676083	139.181
679986	139.199
683912	139.217
687860	139.235
691831	139.253
695825	139.271
699842	139.289
703882	139.307
707946	139.325
712033	139.343
716143	139.361
720278	139.379
724436	139.397
728618	139.415
732825	139.433
737055	139.451
741310	139.468
745590	139.486
749894	139.504
754223	139.522
758578	139.539
762957	139.557
767361	139.574
771792	139.592
776247	139.61
780728	139.627
785236	139.645
789769	139.662
794328	139.679
798914	139.697
803526	139.714
808165	139.731
812831	139.749
817523	139.766
822243	139.783
826990	139.8
831764	139.817
836566	139.835
841395	139.852
846253	139.869
851138	139.886
856052	139.903
860994	139.919
865964	139.936
870964	139.953
875992	139.97
881049	139.987
886135	140.004
891251	140.02
896396	140.037
901571	140.054
906776	140.07
912011	140.087
917276	140.103
922571	140.12
927897	140.136
933254	140.152
938642	140.169
944061	140.185
949511	140.201
954993	140.218
960506	140.234
966051	140.25
971628	140.266
977237	140.282
982879	140.298
988553	140.314
994260	140.33
1e+06	140.346
1.00577e+06	140.362
1.01158e+06	140.378
1.01742e+06	140.393
1.02329e+06	140.409
1.0292e+06	140.425
1.03514e+06	140.44
1.04112e+06	140.456
1.04713e+06	140.472
1.05317e+06	140.487
1.05925e+06	140.503
1.06537e+06	140.518
1.07152e+06	140.533
1.07771e+06	140.549
1.08393e+06	140.564
1.09018e+06	140.579
1.09648e+06	140.595
1.10281e+06	140.61
1.10917e+06	140.625
1.11558e+06	140.64
1.12202e+06	140.655
1.1285e+06	140.67
1.13501e+06	140.685
1.14156e+06	140.7
1.14815e+06	140.715
1.15478e+06	140.73
1.16145e+06	140.744
1.16815e+06	140.759
1.1749e+06	140.774
1.18168e+06	140.788
1.1885e+06	140.803
1.19536e+06	140.817
1.20226e+06	140.832
1.20921e+06	140.846
1.21619e+06	140.861
1.22321e+06	140.875
1.23027e+06	140.89
1.23737e+06	140.904
1.24451e+06	140.918
1.2517e+06	140.932
1.25893e+06	140.946
1.26619e+06	140.96
1.2735e+06	140.975
1.28086e+06	140.989
1.28825e+06	141.002
1.29569e+06	141.016
1.30317e+06	141.03
1.31069e+06	141.044
1.31826e+06	141.058
1.32587e+06	141.072
1.33352e+06	141.085
1.34122e+06	141.099
1.34896e+06	141.112
1.35675e+06	141.126
1.36458e+06	141.139
1.37246e+06	141.153
1.38038e+06	141.166
1.38835e+06	141.18
1.39637e+06	141.193
1.40443e+06	141.206
1.41254e+06	141.219
1.42069e+06	141.233
1.42889e+06	141.246
1.43714e+06	141.259
1.44544e+06	141.272
1.45378e+06	141.285
1.46218e+06	141.298
1.47062e+06	141.311
1.47911e+06	141.323
1.48765e+06	141.336
1.49624e+06	141.349
1.50487e+06	141.362
1.51356e+06	141.374
1.5223e+06	141.387
1.53109e+06	141.399
1.53993e+06	141.412
1.54882e+06	141.424
1.55776e+06	141.437
1.56675e+06	141.449
1.5758e+06	141.461
1.58489e+06	141.474
1.59404e+06	141.486
1.60325e+06	141.498
1.6125e+06	141.51
1.62181e+06	141.522
1.63117e+06	141.534
1.64059e+06	141.546
1.65006e+06	141.558
1.65959e+06	141.57
1.66917e+06	141.582
1.6788e+06	141.594
1.6885e+06	141.606
1.69824e+06	141.617
1.70805e+06	141.629
1.71791e+06	141.641
1.72783e+06	141.652
1.7378e+06	141.664
1.74783e+06	141.675
1.75792e+06	141.687
1.76807e+06	141.698
1.77828e+06	141.709
1.78855e+06	141.721
1.79887e+06	141.732
1.80926e+06	141.743
1.8197e+06	141.754
1.83021e+06	141.765
1.84077e+06	141.776
1.8514e+06	141.787
1.86209e+06	141.798
1.87284e+06	141.809
1.88365e+06	141.82
1.89452e+06	141.831
1.90546e+06	141.842
1.91646e+06	141.852
1.92752e+06	141.863
1.93865e+06	141.874
1.94984e+06	141.884
1.9611e+06	141.895
1.97242e+06	141.905
1.98381e+06	141.916
1.99526e+06	141.926
2.00678e+06	141.937
2.01837e+06	141.947
2.03002e+06	141.957
2.04174e+06	141.967
2.05353e+06	141.978
2.06538e+06	141.988
2.0773e+06	141.998
2.0893e+06	142.008
2.10136e+06	142.018
2.11349e+06	142.028
2.12569e+06	142.038
2.13796e+06	142.047
2.1503e+06	142.057
2.16272e+06	142.067
2.1752e+06	142.077
2.18776e+06	142.086
2.20039e+06	142.096
2.21309e+06	142.106
2.22587e+06	142.115
2.23872e+06	142.125
2.25165e+06	142.134
2.26464e+06	142.144
2.27772e+06	142.153
2.29087e+06	142.162
2.30409e+06	142.172
2.31739e+06	142.181
2.33077e+06	142.19
2.34423e+06	142.199
2.35776e+06	142.208
2.37137e+06	142.217
2.38506e+06	142.226
2.39883e+06	142.235
2.41268e+06	142.244
2.42661e+06	142.253
2.44062e+06	142.262
2.45471e+06	142.271
2.46888e+06	142.279
2.48313e+06	142.288
2.49747e+06	142.297
2.51189e+06	142.305
2.52639e+06	142.314
2.54097e+06	142.323
2.55564e+06	142.331
2.5704e+06	142.339
2.58523e+06	142.348
2.60016e+06	142.356
2.61517e+06	142.365
2.63027e+06	142.373
2.64545e+06	142.381
2.66073e+06	142.389
2.67609e+06	142.397
2.69153e+06	142.406
2.70707e+06	142.414
2.7227e+06	142.422
2.73842e+06	142.43
2.75423e+06	142.437
2.77013e+06	142.445
2.78612e+06	142.453
2.80221e+06	142.461
2.81838e+06	142.469
2.83465e+06	142.477
2.85102e+06	142.484
2.86748e+06	142.492
2.88403e+06	142.499
2.90068e+06	142.507
2.91743e+06	142.515
2.93427e+06	142.522
2.95121e+06	142.529
2.96825e+06	142.537
2.98538e+06	142.544
3.00262e+06	142.552
3.01995e+06	142.559
3.03739e+06	142.566
3.05492e+06	142.573
3.07256e+06	142.58
3.0903e+06	142.588
3.10814e+06	142.595
3.12608e+06	142.602
3.14413e+06	142.609
3.16228e+06	142.616
3.18053e+06	142.623
3.1989e+06	142.629
3.21736e+06	142.636
3.23594e+06	142.643
3.25462e+06	142.65
3.27341e+06	142.657
3.2923e+06	142.663
3.31131e+06	142.67
3.33043e+06	142.676
3.34965e+06	142.683
3.36899e+06	142.69
3.38844e+06	142.696
3.408e+06	142.702
3.42768e+06	142.709
3.44747e+06	142.715
3.46737e+06	142.722
3.48739e+06	142.728
3.50752e+06	142.734
3.52777e+06	142.74
3.54813e+06	142.747
3.56862e+06	142.753
3.58922e+06	142.759
3.60994e+06	142.765
3.63078e+06	142.771
3.65174e+06	142.777
3.67282e+06	142.783
3.69403e+06	142.789
3.71535e+06	142.795
3.7368e+06	142.801
3.75837e+06	142.806
3.78007e+06	142.812
3.80189e+06	142.818
3.82384e+06	142.824
3.84592e+06	142.829
3.86812e+06	142.835
3.89045e+06	142.84
3.91291e+06	142.846
3.9355e+06	142.852
3.95822e+06	142.857
3.98107e+06	142.862
4.00405e+06	142.868
4.02717e+06	142.873
4.05042e+06	142.879
4.0738e+06	142.884
4.09732e+06	142.889
4.12098e+06	142.894
4.14477e+06	142.9
4.16869e+06	142.905
4.19276e+06	142.91
4.21697e+06	142.915
4.24131e+06	142.92
4.2658e+06	142.925
4.29042e+06	142.93
4.31519e+06	142.935
4.3401e+06	142.94
4.36516e+06	142.945
4.39036e+06	142.95
4.4157e+06	142.955
4.4412e+06	142.959
4.46684e+06	142.964
4.49262e+06	142.969
4.51856e+06	142.974
4.54465e+06	142.978
4.57088e+06	142.983
4.59727e+06	142.988
4.62381e+06	142.992
4.6505e+06	142.997
4.67735e+06	143.001
4.70435e+06	143.006
4.73151e+06	143.01
4.75883e+06	143.014
4.7863e+06	143.019
4.81393e+06	143.023
4.84172e+06	143.027
4.86968e+06	143.032
4.89779e+06	143.036
4.92606e+06	143.04
4.9545e+06	143.044
4.9831e+06	143.049
5.01187e+06	143.053
5.04081e+06	143.057
5.06991e+06	143.061
5.09918e+06	143.065
5.12861e+06	143.069
5.15822e+06	143.073
5.188e+06	143.077
5.21795e+06	143.081
5.24807e+06	143.085
5.27837e+06	143.088
5.30884e+06	143.092
5.33949e+06	143.096
5.37032e+06	143.1
5.40132e+06	143.103
5.4325e+06	143.107
5.46387e+06	143.111
5.49541e+06	143.115
5.52713e+06	143.118
5.55904e+06	143.122
5.59114e+06	143.125
5.62341e+06	143.129
5.65588e+06	143.132
5.68853e+06	143.136
5.72137e+06	143.139
5.7544e+06	143.143
5.78762e+06	143.146
5.82103e+06	143.149
5.85464e+06	143.153
5.88844e+06	143.156
5.92243e+06	143.159
5.95662e+06	143.163
5.99101e+06	143.166
6.0256e+06	143.169
6.06038e+06	143.172
6.09537e+06	143.175
6.13056e+06	143.178
6.16595e+06	143.181
6.20155e+06	143.184
6.23735e+06	143.188
6.27336e+06	143.191
6.30957e+06	143.194
6.346e+06	143.196
6.38263e+06	143.199
6.41948e+06	143.202
6.45654e+06	143.205
6.49382e+06	143.208
6.53131e+06	143.211
6.56901e+06	143.214
6.60693e+06	143.216
6.64508e+06	143.219
6.68344e+06	143.222
6.72202e+06	143.225
6.76083e+06	143.227
6.79986e+06	143.23
6.83912e+06	143.233
6.8786e+06	143.235
6.91831e+06	143.238
6.95825e+06	143.24
6.99842e+06	143.243
7.03882e+06	143.245
7.07946e+06	143.248
7.12033e+06	143.25
7.16143e+06	143.253
7.20278e+06	143.255
7.24436e+06	143.257
7.28618e+06	143.26
7.32825e+06	143.262
7.37055e+06	143.265
7.4131e+06	143.267
7.4559e+06	143.269
7.49894e+06	143.271
7.54223e+06	143.274
7.58578e+06	143.276
7.62957e+06	143.278
7.67361e+06	143.28
7.71792e+06	143.282
7.76247e+06	143.284
7.80728e+06	143.286
7.85236e+06	143.289
7.89769e+06	143.291
7.94328e+06	143.293
7.98914e+06	143.295
8.03526e+06	143.297
8.08165e+06	143.299
8.12831e+06	143.301
8.17523e+06	143.302
8.22243e+06	143.304
8.2699e+06	143.306
8.31764e+06	143.308
8.36566e+06	143.31
8.41395e+06	143.312
8.46253e+06	143.314
8.51138e+06	143.315
8.56052e+06	143.317
8.60994e+06	143.319
8.65964e+06	143.321
8.70964e+06	143.322
8.75992e+06	143.324
8.81049e+06	143.326
8.86135e+06	143.327
8.91251e+06	143.329
8.96396e+06	143.33
9.01571e+06	143.332
9.06776e+06	143.334
9.12011e+06	143.335
9.17276e+06	143.337
9.22571e+06	143.338
9.27897e+06	143.34
9.33254e+06	143.341
9.38642e+06	143.343
9.44061e+06	143.344
9.49511e+06	143.346
9.54993e+06	143.347
9.60506e+06	143.348
9.66051e+06	143.35
9.71628e+06	143.351
9.77237e+06	143.352
9.82879e+06	143.354
9.88553e+06	143.355
9.9426e+06	143.356
1e+07	143.358
