Stopping power dEdx from Ionisation for Cl35[0.0] Z = 17 in G4_TISSUE_SOFT_ICRP, process name: ionIoni
E [MeV]	dEdx [MeV/mm]
0.001	61.6414
0.00100577	61.8191
0.00101158	61.9973
0.00101742	62.176
0.00102329	62.3552
0.0010292	62.5349
0.00103514	62.7152
0.00104112	62.896
0.00104713	63.0772
0.00105317	63.2591
0.00105925	63.4414
0.00106537	63.6243
0.00107152	63.8076
0.00107771	63.9916
0.00108393	64.176
0.00109018	64.361
0.00109648	64.5465
0.00110281	64.7325
0.00110917	64.9191
0.00111558	65.1063
0.00112202	65.2939
0.0011285	65.4821
0.00113501	65.6709
0.00114156	65.8601
0.00114815	66.05
0.00115478	66.2404
0.00116145	66.4313
0.00116815	66.6228
0.0011749	66.8148
0.00118168	67.0074
0.0011885	67.2005
0.00119536	67.3942
0.00120226	67.5885
0.00120921	67.7833
0.00121619	67.9787
0.00122321	68.1746
0.00123027	68.3711
0.00123737	68.5682
0.00124451	68.7658
0.0012517	68.964
0.00125893	69.1628
0.00126619	69.3622
0.0012735	69.5621
0.00128086	69.7626
0.00128825	69.9637
0.00129569	70.1653
0.00130317	70.3676
0.00131069	70.5704
0.00131826	70.7738
0.00132587	70.9778
0.00133352	71.1824
0.00134122	71.3876
0.00134896	71.5934
0.00135675	71.7997
0.00136458	72.0067
0.00137246	72.2142
0.00138038	72.4224
0.00138835	72.6311
0.00139637	72.8405
0.00140443	73.0504
0.00141254	73.261
0.00142069	73.4721
0.00142889	73.6839
0.00143714	73.8963
0.00144544	74.1093
0.00145378	74.3229
0.00146218	74.5371
0.00147062	74.752
0.00147911	74.9674
0.00148765	75.1835
0.00149624	75.4002
0.00150487	75.6176
0.00151356	75.8355
0.0015223	76.0541
0.00153109	76.2733
0.00153993	76.4932
0.00154882	76.7137
0.00155776	76.9348
0.00156675	77.1565
0.0015758	77.3789
0.00158489	77.602
0.00159404	77.8256
0.00160325	78.05
0.0016125	78.2749
0.00162181	78.5005
0.00163117	78.7268
0.00164059	78.9537
0.00165006	79.1813
0.00165959	79.4095
0.00166917	79.6384
0.0016788	79.868
0.0016885	80.0982
0.00169824	80.3291
0.00170805	80.5606
0.00171791	80.7928
0.00172783	81.0257
0.0017378	81.2592
0.00174783	81.4934
0.00175792	81.7283
0.00176807	81.9639
0.00177828	82.2002
0.00178855	82.4371
0.00179887	82.6747
0.00180926	82.913
0.0018197	83.152
0.00183021	83.3917
0.00184077	83.632
0.0018514	83.8731
0.00186209	84.1149
0.00187284	84.3573
0.00188365	84.6005
0.00189452	84.8443
0.00190546	85.0889
0.00191646	85.3341
0.00192752	85.5801
0.00193865	85.8268
0.00194984	86.0741
0.0019611	86.3222
0.00197242	86.5711
0.00198381	86.8206
0.00199526	87.0708
0.00200678	87.3218
0.00201837	87.5735
0.00203002	87.8259
0.00204174	88.0791
0.00205353	88.3329
0.00206538	88.5875
0.0020773	88.8429
0.0020893	89.099
0.00210136	89.3558
0.00211349	89.6133
0.00212569	89.8716
0.00213796	90.1307
0.0021503	90.3905
0.00216272	90.651
0.0021752	90.9123
0.00218776	91.1744
0.00220039	91.4372
0.00221309	91.7007
0.00222587	91.965
0.00223872	92.2301
0.00225165	92.4959
0.00226464	92.7626
0.00227772	93.0299
0.00229087	93.2981
0.00230409	93.567
0.00231739	93.8367
0.00233077	94.1072
0.00234423	94.3784
0.00235776	94.6505
0.00237137	94.9233
0.00238506	95.1969
0.00239883	95.4713
0.00241268	95.7465
0.00242661	96.0224
0.00244062	96.2992
0.00245471	96.5768
0.00246888	96.8551
0.00248313	97.1343
0.00249747	97.4143
0.00251189	97.6951
0.00252639	97.9767
0.00254097	98.2591
0.00255564	98.5423
0.0025704	98.8263
0.00258523	99.1112
0.00260016	99.3969
0.00261517	99.6834
0.00263027	99.9707
0.00264545	100.259
0.00266073	100.548
0.00267609	100.838
0.00269153	101.128
0.00270707	101.42
0.0027227	101.712
0.00273842	102.005
0.00275423	102.299
0.00277013	102.594
0.00278612	102.89
0.00280221	103.186
0.00281838	103.484
0.00283465	103.782
0.00285102	104.081
0.00286748	104.381
0.00288403	104.682
0.00290068	104.984
0.00291743	105.287
0.00293427	105.59
0.00295121	105.894
0.00296825	106.2
0.00298538	106.506
0.00300262	106.813
0.00301995	107.121
0.00303739	107.429
0.00305492	107.739
0.00307256	108.049
0.0030903	108.361
0.00310814	108.673
0.00312608	108.986
0.00314413	109.301
0.00316228	109.616
0.00318053	109.932
0.0031989	110.249
0.00321736	110.566
0.00323594	110.885
0.00325462	111.205
0.00327341	111.525
0.0032923	111.847
0.00331131	112.169
0.00333043	112.492
0.00334965	112.817
0.00336899	113.142
0.00338844	113.468
0.003408	113.795
0.00342768	114.123
0.00344747	114.452
0.00346737	114.782
0.00348739	115.113
0.00350752	115.444
0.00352777	115.777
0.00354813	116.111
0.00356862	116.445
0.00358922	116.781
0.00360994	117.118
0.00363078	117.455
0.00365174	117.794
0.00367282	118.133
0.00369403	118.474
0.00371535	118.815
0.0037368	119.158
0.00375837	119.501
0.00378007	119.846
0.00380189	120.191
0.00382384	120.538
0.00384592	120.885
0.00386812	121.234
0.00389045	121.583
0.00391291	121.933
0.0039355	122.285
0.00395822	122.637
0.00398107	122.991
0.00400405	123.345
0.00402717	123.701
0.00405042	124.057
0.0040738	124.415
0.00409732	124.774
0.00412098	125.133
0.00414477	125.494
0.00416869	125.856
0.00419276	126.218
0.00421697	126.582
0.00424131	126.947
0.0042658	127.313
0.00429042	127.68
0.00431519	128.048
0.0043401	128.417
0.00436516	128.787
0.00439036	129.158
0.0044157	129.531
0.0044412	129.904
0.00446684	130.278
0.00449262	130.654
0.00451856	131.031
0.00454465	131.408
0.00457088	131.787
0.00459727	132.167
0.00462381	132.548
0.0046505	132.93
0.00467735	133.313
0.00470435	133.697
0.00473151	134.083
0.00475883	134.469
0.0047863	134.857
0.00481393	135.245
0.00484172	135.635
0.00486968	136.026
0.00489779	136.418
0.00492606	136.812
0.0049545	137.206
0.0049831	137.601
0.00501187	137.998
0.00504081	138.396
0.00506991	138.795
0.00509918	139.195
0.00512861	139.596
0.00515822	139.998
0.005188	140.402
0.00521795	140.806
0.00524807	141.212
0.00527837	141.619
0.00530884	142.028
0.00533949	142.437
0.00537032	142.848
0.00540132	143.259
0.0054325	143.672
0.00546387	144.086
0.00549541	144.502
0.00552713	144.918
0.00555904	145.336
0.00559114	145.755
0.00562341	146.175
0.00565588	146.596
0.00568853	147.019
0.00572137	147.443
0.0057544	147.867
0.00578762	148.294
0.00582103	148.721
0.00585464	149.15
0.00588844	149.58
0.00592243	150.011
0.00595662	150.443
0.00599101	150.877
0.0060256	151.312
0.00606038	151.748
0.00609537	152.185
0.00613056	152.624
0.00616595	153.064
0.00620155	153.505
0.00623735	153.948
0.00627336	154.391
0.00630957	154.836
0.006346	155.283
0.00638263	155.73
0.00641948	156.179
0.00645654	156.629
0.00649382	157.081
0.00653131	157.533
0.00656901	157.987
0.00660693	158.443
0.00664508	158.9
0.00668344	159.358
0.00672202	159.817
0.00676083	160.278
0.00679986	160.74
0.00683912	161.203
0.0068786	161.667
0.00691831	162.133
0.00695825	162.601
0.00699842	163.069
0.00703882	163.54
0.00707946	164.011
0.00712033	164.484
0.00716143	164.958
0.00720278	165.433
0.00724436	165.91
0.00728618	166.388
0.00732825	166.868
0.00737055	167.349
0.0074131	167.831
0.0074559	168.315
0.00749894	168.8
0.00754223	169.287
0.00758578	169.775
0.00762957	170.264
0.00767361	170.755
0.00771792	171.247
0.00776247	171.74
0.00780728	172.236
0.00785236	172.732
0.00789769	173.23
0.00794328	173.729
0.00798914	174.23
0.00803526	174.732
0.00808165	175.236
0.00812831	175.741
0.00817523	176.247
0.00822243	176.755
0.0082699	177.265
0.00831764	177.776
0.00836566	178.288
0.00841395	178.802
0.00846253	179.318
0.00851138	179.834
0.00856052	180.353
0.00860994	180.873
0.00865964	181.394
0.00870964	181.917
0.00875992	182.435
0.00881049	182.948
0.00886135	183.463
0.00891251	183.979
0.00896396	184.497
0.00901571	185.016
0.00906776	185.536
0.00912011	186.058
0.00917276	186.582
0.00922571	187.107
0.00927897	187.634
0.00933254	188.162
0.00938642	188.691
0.00944061	189.222
0.00949511	189.755
0.00954993	190.289
0.00960506	190.825
0.00966051	191.362
0.00971628	191.901
0.00977237	192.442
0.00982879	192.983
0.00988553	193.527
0.0099426	194.072
0.01	194.619
0.0100577	195.167
0.0101158	195.717
0.0101742	196.268
0.0102329	196.821
0.010292	197.376
0.0103514	197.932
0.0104112	198.49
0.0104713	199.049
0.0105317	199.61
0.0105925	200.173
0.0106537	200.737
0.0107152	201.303
0.0107771	201.87
0.0108393	202.439
0.0109018	203.01
0.0109648	203.582
0.0110281	204.157
0.0110917	204.732
0.0111558	205.31
0.0112202	205.889
0.011285	206.469
0.0113501	207.052
0.0114156	207.636
0.0114815	208.222
0.0115478	208.809
0.0116145	209.398
0.0116815	209.989
0.011749	210.582
0.0118168	211.176
0.011885	211.772
0.0119536	212.37
0.0120226	212.969
0.0120921	213.57
0.0121619	214.173
0.0122321	214.778
0.0123027	215.384
0.0123737	215.992
0.0124451	216.602
0.012517	217.214
0.0125893	217.827
0.0126619	218.443
0.012735	219.06
0.0128086	219.678
0.0128825	220.299
0.0129569	220.921
0.0130317	221.546
0.0131069	222.171
0.0131826	222.799
0.0132587	223.429
0.0133352	224.06
0.0134122	224.693
0.0134896	225.329
0.0135675	225.965
0.0136458	226.604
0.0137246	227.245
0.0138038	227.887
0.0138835	228.532
0.0139637	229.178
0.0140443	229.826
0.0141254	230.476
0.0142069	231.128
0.0142889	231.781
0.0143714	232.437
0.0144544	233.094
0.0145378	233.754
0.0146218	234.415
0.0147062	235.078
0.0147911	235.743
0.0148765	236.41
0.0149624	237.079
0.0150487	237.75
0.0151356	238.423
0.015223	239.098
0.0153109	239.775
0.0153993	240.453
0.0154882	241.134
0.0155776	241.817
0.0156675	242.501
0.015758	243.188
0.0158489	243.877
0.0159404	244.567
0.0160325	245.26
0.016125	245.955
0.0162181	246.651
0.0163117	247.35
0.0164059	248.051
0.0165006	248.753
0.0165959	249.458
0.0166917	250.165
0.016788	250.874
0.016885	251.585
0.0169824	252.298
0.0170805	253.013
0.0171791	253.73
0.0172783	254.449
0.017378	255.17
0.0174783	255.894
0.0175792	256.619
0.0176807	257.347
0.0177828	258.077
0.0178855	258.808
0.0179887	259.542
0.0180926	260.278
0.018197	261.017
0.0183021	261.757
0.0184077	262.5
0.018514	263.244
0.0186209	263.991
0.0187284	264.74
0.0188365	265.491
0.0189452	266.245
0.0190546	267
0.0191646	267.758
0.0192752	268.518
0.0193865	269.28
0.0194984	270.044
0.019611	270.811
0.0197242	271.58
0.0198381	272.351
0.0199526	273.124
0.0200678	273.9
0.0201837	274.678
0.0203002	275.458
0.0204174	276.24
0.0205353	277.025
0.0206538	277.811
0.020773	278.601
0.020893	279.392
0.0210136	280.186
0.0211349	280.982
0.0212569	281.78
0.0213796	282.581
0.021503	283.384
0.0216272	284.19
0.021752	284.997
0.0218776	285.807
0.0220039	286.62
0.0221309	287.435
0.0222587	288.252
0.0223872	289.072
0.0225165	289.894
0.0226464	290.718
0.0227772	291.545
0.0229087	292.374
0.0230409	293.205
0.0231739	294.039
0.0233077	294.876
0.0234423	295.715
0.0235776	296.556
0.0237137	297.4
0.0238506	298.246
0.0239883	299.095
0.0241268	299.946
0.0242661	300.8
0.0244062	301.656
0.0245471	302.514
0.0246888	303.375
0.0248313	304.239
0.0249747	305.105
0.0251189	305.974
0.0252639	306.845
0.0254097	307.719
0.0255564	308.595
0.025704	309.474
0.0258523	310.356
0.0260016	311.24
0.0261517	312.126
0.0263027	313.015
0.0264545	313.907
0.0266073	314.801
0.0267609	315.698
0.0269153	316.598
0.0270707	317.5
0.027227	318.405
0.0273842	319.313
0.0275423	320.223
0.0277013	321.136
0.0278612	322.051
0.0280221	322.969
0.0281838	323.89
0.0283465	324.814
0.0285102	325.74
0.0286748	326.669
0.0288403	327.6
0.0290068	328.535
0.0291743	329.472
0.0293427	330.412
0.0295121	331.354
0.0296825	332.299
0.0298538	333.248
0.0300262	334.198
0.0301995	335.152
0.0303739	336.108
0.0305492	337.068
0.0307256	338.03
0.030903	338.995
0.0310814	339.962
0.0312608	340.933
0.0314413	341.906
0.0316228	342.882
0.0318053	343.861
0.031989	344.843
0.0321736	345.828
0.0323594	346.816
0.0325462	347.806
0.0327341	348.8
0.032923	349.796
0.0331131	350.795
0.0333043	351.797
0.0334965	352.802
0.0336899	353.811
0.0338844	354.822
0.03408	355.835
0.0342768	356.852
0.0344747	357.872
0.0346737	358.895
0.0348739	359.921
0.0350752	360.496
0.0352777	360.736
0.0354813	360.978
0.0356862	361.223
0.0358922	361.471
0.0360994	361.721
0.0363078	361.973
0.0365174	362.228
0.0367282	362.486
0.0369403	362.745
0.0371535	363.007
0.037368	363.271
0.0375837	363.538
0.0378007	363.807
0.0380189	364.078
0.0382384	364.351
0.0384592	364.626
0.0386812	364.903
0.0389045	365.183
0.0391291	365.464
0.039355	365.748
0.0395822	366.033
0.0398107	366.321
0.0400405	366.61
0.0402717	366.902
0.0405042	367.195
0.040738	367.49
0.0409732	367.787
0.0412098	368.086
0.0414477	368.387
0.0416869	368.69
0.0419276	368.994
0.0421697	369.3
0.0424131	369.608
0.042658	369.918
0.0429042	370.229
0.0431519	370.542
0.043401	370.857
0.0436516	371.173
0.0439036	371.491
0.044157	371.81
0.044412	372.132
0.0446684	372.454
0.0449262	372.779
0.0451856	373.105
0.0454465	373.432
0.0457088	373.761
0.0459727	374.092
0.0462381	374.424
0.046505	374.757
0.0467735	375.092
0.0470435	375.429
0.0473151	375.767
0.0475883	376.106
0.047863	376.447
0.0481393	376.789
0.0484172	377.133
0.0486968	377.478
0.0489779	377.824
0.0492606	378.172
0.049545	378.521
0.049831	378.871
0.0501187	379.223
0.0504081	379.577
0.0506991	379.931
0.0509918	380.287
0.0512861	380.644
0.0515822	381.003
0.05188	381.363
0.0521795	381.724
0.0524807	382.086
0.0527837	382.45
0.0530884	382.815
0.0533949	383.181
0.0537032	383.549
0.0540132	383.918
0.054325	384.288
0.0546387	384.659
0.0549541	385.032
0.0552713	385.406
0.0555904	385.781
0.0559114	386.157
0.0562341	386.535
0.0565588	386.914
0.0568853	387.294
0.0572137	387.675
0.057544	388.058
0.0578762	388.442
0.0582103	388.827
0.0585464	389.213
0.0588844	389.6
0.0592243	389.989
0.0595662	390.379
0.0599101	390.77
0.060256	391.163
0.0606038	391.556
0.0609537	391.951
0.0613056	392.347
0.0616595	392.744
0.0620155	393.143
0.0623735	393.542
0.0627336	393.943
0.0630957	394.345
0.06346	394.749
0.0638263	395.153
0.0641948	395.559
0.0645654	395.966
0.0649382	396.375
0.0653131	396.784
0.0656901	397.195
0.0660693	397.607
0.0664508	398.02
0.0668344	398.435
0.0672202	398.85
0.0676083	399.267
0.0679986	399.686
0.0683912	400.105
0.068786	400.526
0.0691831	400.948
0.0695825	401.371
0.0699842	401.796
0.0703882	402.222
0.0707946	402.649
0.0712033	403.077
0.0716143	403.507
0.0720278	403.938
0.0724436	404.37
0.0728618	404.804
0.0732825	405.239
0.0737055	405.675
0.074131	406.113
0.074559	406.552
0.0749894	406.992
0.0754223	407.434
0.0758578	407.876
0.0762957	408.321
0.0767361	408.766
0.0771792	409.213
0.0776247	409.662
0.0780728	410.111
0.0785236	410.563
0.0789769	411.015
0.0794328	411.469
0.0798914	411.924
0.0803526	412.381
0.0808165	412.839
0.0812831	413.299
0.0817523	413.76
0.0822243	414.222
0.082699	414.686
0.0831764	415.151
0.0836566	415.618
0.0841395	416.086
0.0846253	416.556
0.0851138	417.027
0.0856052	417.5
0.0860994	417.974
0.0865964	418.45
0.0870964	418.927
0.0875992	419.406
0.0881049	419.886
0.0886135	420.368
0.0891251	420.851
0.0896396	421.336
0.0901571	421.823
0.0906776	422.311
0.0912011	422.801
0.0917276	423.292
0.0922571	423.785
0.0927897	424.279
0.0933254	424.775
0.0938642	425.273
0.0944061	425.773
0.0949511	426.274
0.0954993	426.776
0.0960506	427.281
0.0966051	427.787
0.0971628	428.294
0.0977237	428.804
0.0982879	429.315
0.0988553	429.828
0.099426	430.342
0.1	430.859
0.100577	431.377
0.101158	431.897
0.101742	432.418
0.102329	432.941
0.10292	433.467
0.103514	433.994
0.104112	434.522
0.104713	435.053
0.105317	435.585
0.105925	436.119
0.106537	436.656
0.107152	437.193
0.107771	437.733
0.108393	438.275
0.109018	438.818
0.109648	439.364
0.110281	439.911
0.110917	440.461
0.111558	441.012
0.112202	441.565
0.11285	442.12
0.113501	442.677
0.114156	443.236
0.114815	443.797
0.115478	444.36
0.116145	444.925
0.116815	445.492
0.11749	446.061
0.118168	446.633
0.11885	447.206
0.119536	447.781
0.120226	448.358
0.120921	448.938
0.121619	449.519
0.122321	450.103
0.123027	450.688
0.123737	451.276
0.124451	451.866
0.12517	452.458
0.125893	453.053
0.126619	453.649
0.12735	454.248
0.128086	454.848
0.128825	455.451
0.129569	456.057
0.130317	456.664
0.131069	457.274
0.131826	457.886
0.132587	458.5
0.133352	459.116
0.134122	459.735
0.134896	460.356
0.135675	460.98
0.136458	461.605
0.137246	462.233
0.138038	462.864
0.138835	463.496
0.139637	464.131
0.140443	464.769
0.141254	465.409
0.142069	466.051
0.142889	466.696
0.143714	467.343
0.144544	467.992
0.145378	468.644
0.146218	469.298
0.147062	469.955
0.147911	470.615
0.148765	471.276
0.149624	471.941
0.150487	472.607
0.151356	473.277
0.15223	473.949
0.153109	474.623
0.153993	475.3
0.154882	475.98
0.155776	476.662
0.156675	477.346
0.15758	478.034
0.158489	478.724
0.159404	479.416
0.160325	480.112
0.16125	480.809
0.162181	481.51
0.163117	482.213
0.164059	482.919
0.165006	483.627
0.165959	484.339
0.166917	485.053
0.16788	485.769
0.16885	486.489
0.169824	487.211
0.170805	487.936
0.171791	488.664
0.172783	489.394
0.17378	490.128
0.174783	490.864
0.175792	491.603
0.176807	492.345
0.177828	493.089
0.178855	493.837
0.179887	494.587
0.180926	495.34
0.18197	496.096
0.183021	496.855
0.184077	497.617
0.18514	498.382
0.186209	499.15
0.187284	499.921
0.188365	500.694
0.189452	501.471
0.190546	502.251
0.191646	503.033
0.192752	503.819
0.193865	504.608
0.194984	505.399
0.19611	506.194
0.197242	506.992
0.198381	507.792
0.199526	508.596
0.200678	509.403
0.201837	510.213
0.203002	511.026
0.204174	511.843
0.205353	512.662
0.206538	513.485
0.20773	514.31
0.20893	515.139
0.210136	515.971
0.211349	516.806
0.212569	517.644
0.213796	518.486
0.21503	519.331
0.216272	520.179
0.21752	521.03
0.218776	521.884
0.220039	522.742
0.221309	523.603
0.222587	524.467
0.223872	525.335
0.225165	526.206
0.226464	527.08
0.227772	527.957
0.229087	528.838
0.230409	529.722
0.231739	530.61
0.233077	531.501
0.234423	532.395
0.235776	533.293
0.237137	534.194
0.238506	535.098
0.239883	536.006
0.241268	536.917
0.242661	537.832
0.244062	538.75
0.245471	539.671
0.246888	540.596
0.248313	541.525
0.249747	542.457
0.251189	543.392
0.252639	544.331
0.254097	545.274
0.255564	546.22
0.25704	547.17
0.258523	548.123
0.260016	549.079
0.261517	550.04
0.263027	551.004
0.264545	551.971
0.266073	552.942
0.267609	553.917
0.269153	554.895
0.270707	555.877
0.27227	556.862
0.273842	557.851
0.275423	558.844
0.277013	559.841
0.278612	560.841
0.280221	561.845
0.281838	562.852
0.283465	563.863
0.285102	564.878
0.286748	565.897
0.288403	566.919
0.290068	567.945
0.291743	568.975
0.293427	570.009
0.295121	571.046
0.296825	572.087
0.298538	573.132
0.300262	574.181
0.301995	575.233
0.303739	576.29
0.305492	577.35
0.307256	578.414
0.30903	579.482
0.310814	580.553
0.312608	581.629
0.314413	582.708
0.316228	583.791
0.318053	584.878
0.31989	585.969
0.321736	587.064
0.323594	588.163
0.325462	589.266
0.327341	590.372
0.32923	591.483
0.331131	592.597
0.333043	593.716
0.334965	594.838
0.336899	595.964
0.338844	597.095
0.3408	598.229
0.342768	599.367
0.344747	600.509
0.346737	601.655
0.348739	602.806
0.350752	603.96
0.352777	605.118
0.354813	606.28
0.356862	607.446
0.358922	608.616
0.360994	609.791
0.363078	610.969
0.365174	612.151
0.367282	613.338
0.369403	614.528
0.371535	615.723
0.37368	616.922
0.375837	618.124
0.378007	619.331
0.380189	620.542
0.382384	621.757
0.384592	622.976
0.386812	624.199
0.389045	625.426
0.391291	626.658
0.39355	627.893
0.395822	629.133
0.398107	630.377
0.400405	631.625
0.402717	632.877
0.405042	634.133
0.40738	635.393
0.409732	636.658
0.412098	637.926
0.414477	639.199
0.416869	640.476
0.419276	641.757
0.421697	643.043
0.424131	644.332
0.42658	645.626
0.429042	646.924
0.431519	648.226
0.43401	649.532
0.436516	650.842
0.439036	652.157
0.44157	653.475
0.44412	654.798
0.446684	656.126
0.449262	657.457
0.451856	658.792
0.454465	660.132
0.457088	661.476
0.459727	662.824
0.462381	664.177
0.46505	665.533
0.467735	666.894
0.470435	668.259
0.473151	669.628
0.475883	671.001
0.47863	672.379
0.481393	673.761
0.484172	675.147
0.486968	676.537
0.489779	677.931
0.492606	679.33
0.49545	680.733
0.49831	682.14
0.501187	683.551
0.504081	684.966
0.506991	686.386
0.509918	687.81
0.512861	689.238
0.515822	690.67
0.5188	692.106
0.521795	693.547
0.524807	694.991
0.527837	696.44
0.530884	697.893
0.533949	699.35
0.537032	700.812
0.540132	702.277
0.54325	703.747
0.546387	705.221
0.549541	706.699
0.552713	708.181
0.555904	709.667
0.559114	711.157
0.562341	712.652
0.565588	714.15
0.568853	715.653
0.572137	717.16
0.57544	718.671
0.578762	720.186
0.582103	721.705
0.585464	723.228
0.588844	724.755
0.592243	726.286
0.595662	727.821
0.599101	729.36
0.60256	730.904
0.606038	732.451
0.609537	734.002
0.613056	735.558
0.616595	737.117
0.620155	738.68
0.623735	740.247
0.627336	741.818
0.630957	743.393
0.6346	744.972
0.638263	746.555
0.641948	748.142
0.645654	749.733
0.649382	751.327
0.653131	752.926
0.656901	754.528
0.660693	756.134
0.664508	757.744
0.668344	759.358
0.672202	760.975
0.676083	762.596
0.679986	764.221
0.683912	765.85
0.68786	767.482
0.691831	769.118
0.695825	770.758
0.699842	772.402
0.703882	774.049
0.707946	775.699
0.712033	777.354
0.716143	779.012
0.720278	780.673
0.724436	782.338
0.728618	784.006
0.732825	785.678
0.737055	787.354
0.74131	789.033
0.74559	790.715
0.749894	792.401
0.754223	794.09
0.758578	795.782
0.762957	797.478
0.767361	799.177
0.771792	800.88
0.776247	802.585
0.780728	804.294
0.785236	806.006
0.789769	807.722
0.794328	809.44
0.798914	811.162
0.803526	812.886
0.808165	814.614
0.812831	816.345
0.817523	818.078
0.822243	819.815
0.82699	821.555
0.831764	823.297
0.836566	825.043
0.841395	826.791
0.846253	828.542
0.851138	830.296
0.856052	832.052
0.860994	833.811
0.865964	837.784
0.870964	842.099
0.875992	846.447
0.881049	850.434
0.886135	854.116
0.891251	857.819
0.896396	861.542
0.901571	865.286
0.906776	869.05
0.912011	872.835
0.917276	876.641
0.922571	880.468
0.927897	884.316
0.933254	888.185
0.938642	892.075
0.944061	895.986
0.949511	899.919
0.954993	903.873
0.960506	907.848
0.966051	911.845
0.971628	915.863
0.977237	919.903
0.982879	923.965
0.988553	928.049
0.99426	932.154
1	936.281
1.00577	940.431
1.01158	944.602
1.01742	948.796
1.02329	953.011
1.0292	957.249
1.03514	961.51
1.04112	965.793
1.04713	970.098
1.05317	974.426
1.05925	978.776
1.06537	983.149
1.07152	987.545
1.07771	991.963
1.08393	996.405
1.09018	1000.87
1.09648	1005.36
1.10281	1009.87
1.10917	1014.4
1.11558	1018.96
1.12202	1023.54
1.1285	1028.14
1.13501	1032.77
1.14156	1037.42
1.14815	1042.09
1.15478	1046.78
1.16145	1051.5
1.16815	1056.25
1.1749	1061.02
1.18168	1065.81
1.1885	1070.62
1.19536	1075.46
1.20226	1080.32
1.20921	1085.21
1.21619	1090.12
1.22321	1095.05
1.23027	1100.01
1.23737	1104.99
1.24451	1110
1.2517	1115.03
1.25893	1120.08
1.26619	1125.16
1.2735	1130.26
1.28086	1135.39
1.28825	1140.54
1.29569	1145.72
1.30317	1150.92
1.31069	1156.14
1.31826	1161.39
1.32587	1166.66
1.33352	1171.96
1.34122	1177.28
1.34896	1182.63
1.35675	1188
1.36458	1193.4
1.37246	1198.81
1.38038	1204.26
1.38835	1209.73
1.39637	1215.22
1.40443	1220.74
1.41254	1226.28
1.42069	1231.85
1.42889	1237.44
1.43714	1243.06
1.44544	1248.7
1.45378	1254.36
1.46218	1260.05
1.47062	1265.77
1.47911	1271.51
1.48765	1277.27
1.49624	1283.06
1.50487	1288.87
1.51356	1294.71
1.5223	1300.57
1.53109	1306.46
1.53993	1312.37
1.54882	1318.3
1.55776	1324.26
1.56675	1330.25
1.5758	1336.25
1.58489	1342.29
1.59404	1348.34
1.60325	1354.43
1.6125	1360.53
1.62181	1366.66
1.63117	1372.81
1.64059	1378.99
1.65006	1385.19
1.65959	1391.42
1.66917	1397.67
1.6788	1403.94
1.6885	1410.24
1.69824	1416.56
1.70805	1422.9
1.71791	1429.27
1.72783	1435.66
1.7378	1442.08
1.74783	1448.52
1.75792	1454.98
1.76807	1461.46
1.77828	1467.97
1.78855	1474.5
1.79887	1481.06
1.80926	1487.64
1.8197	1494.24
1.83021	1500.86
1.84077	1507.51
1.8514	1514.17
1.86209	1520.86
1.87284	1527.58
1.88365	1534.31
1.89452	1541.07
1.90546	1547.85
1.91646	1554.65
1.92752	1561.47
1.93865	1568.32
1.94984	1575.18
1.9611	1582.07
1.97242	1588.98
1.98381	1595.91
1.99526	1602.86
2.00678	1609.83
2.01837	1616.82
2.03002	1623.83
2.04174	1630.87
2.05353	1637.92
2.06538	1644.99
2.0773	1652.08
2.0893	1659.2
2.10136	1666.33
2.11349	1673.48
2.12569	1680.65
2.13796	1687.84
2.1503	1695.05
2.16272	1702.28
2.1752	1709.52
2.18776	1716.79
2.20039	1724.07
2.21309	1731.37
2.22587	1738.69
2.23872	1746.02
2.25165	1753.37
2.26464	1760.74
2.27772	1768.13
2.29087	1775.53
2.30409	1782.95
2.31739	1790.39
2.33077	1797.84
2.34423	1805.31
2.35776	1812.79
2.37137	1820.29
2.38506	1827.8
2.39883	1835.33
2.41268	1842.87
2.42661	1850.43
2.44062	1858
2.45471	1865.58
2.46888	1873.18
2.48313	1880.79
2.49747	1888.41
2.51189	1896.05
2.52639	1903.7
2.54097	1911.36
2.55564	1919.03
2.5704	1926.72
2.58523	1934.41
2.60016	1942.12
2.61517	1949.84
2.63027	1957.56
2.64545	1965.3
2.66073	1973.05
2.67609	1980.8
2.69153	1988.57
2.70707	1996.34
2.7227	2004.13
2.73842	2011.92
2.75423	2019.72
2.77013	2027.52
2.78612	2035.34
2.80221	2043.16
2.81838	2050.98
2.83465	2058.82
2.85102	2066.65
2.86748	2074.5
2.88403	2082.35
2.90068	2090.2
2.91743	2098.06
2.93427	2105.92
2.95121	2113.79
2.96825	2121.66
2.98538	2129.53
3.00262	2137.4
3.01995	2145.28
3.03739	2153.16
3.05492	2161.04
3.07256	2168.92
3.0903	2176.8
3.10814	2184.68
3.12608	2192.56
3.14413	2200.44
3.16228	2208.32
3.18053	2216.2
3.1989	2224.08
3.21736	2231.95
3.23594	2239.82
3.25462	2247.69
3.27341	2255.55
3.2923	2263.42
3.31131	2271.27
3.33043	2279.12
3.34965	2286.97
3.36899	2294.81
3.38844	2302.65
3.408	2310.48
3.42768	2318.3
3.44747	2326.11
3.46737	2333.92
3.48739	2341.72
3.50752	2349.51
3.52777	2357.29
3.54813	2365.07
3.56862	2372.83
3.58922	2380.58
3.60994	2388.32
3.63078	2396.05
3.65174	2403.77
3.67282	2409.97
3.69403	2417.65
3.71535	2425.31
3.7368	2432.96
3.75837	2440.59
3.78007	2448.21
3.80189	2455.82
3.82384	2463.41
3.84592	2470.98
3.86812	2478.54
3.89045	2486.08
3.91291	2493.6
3.9355	2501.11
3.95822	2508.6
3.98107	2516.06
4.00405	2523.51
4.02717	2530.94
4.05042	2538.35
4.0738	2545.74
4.09732	2553.11
4.12098	2560.46
4.14477	2567.79
4.16869	2575.09
4.19276	2582.37
4.21697	2589.63
4.24131	2596.86
4.2658	2604.07
4.29042	2611.26
4.31519	2618.42
4.3401	2625.55
4.36516	2632.66
4.39036	2639.74
4.4157	2646.8
4.4412	2653.83
4.46684	2660.83
4.49262	2667.8
4.51856	2674.74
4.54465	2681.66
4.57088	2688.55
4.59727	2695.4
4.62381	2702.23
4.6505	2709.02
4.67735	2715.79
4.70435	2722.52
4.73151	2729.22
4.75883	2735.89
4.7863	2742.52
4.81393	2749.12
4.84172	2755.69
4.86968	2762.23
4.89779	2768.73
4.92606	2775.19
4.9545	2781.62
4.9831	2788.01
5.01187	2794.37
5.04081	2800.69
5.06991	2806.98
5.09918	2813.23
5.12861	2819.44
5.15822	2825.61
5.188	2831.74
5.21795	2837.84
5.24807	2843.9
5.27837	2849.91
5.30884	2855.89
5.33949	2861.83
5.37032	2867.72
5.40132	2873.58
5.4325	2879.39
5.46387	2885.17
5.49541	2890.9
5.52713	2896.59
5.55904	2902.24
5.59114	2907.84
5.62341	2913.4
5.65588	2918.92
5.68853	2924.39
5.72137	2929.83
5.7544	2935.21
5.78762	2940.55
5.82103	2945.85
5.85464	2951.1
5.88844	2956.31
5.92243	2961.47
5.95662	2966.59
5.99101	2971.65
6.0256	2976.68
6.06038	2981.65
6.09537	2986.58
6.13056	2991.46
6.16595	2996.3
6.20155	3001.09
6.23735	3005.83
6.27336	3010.52
6.30957	3015.16
6.346	3019.76
6.38263	3024.31
6.41948	3028.8
6.45654	3033.25
6.49382	3037.65
6.53131	3042
6.56901	3046.31
6.60693	3050.56
6.64508	3054.76
6.68344	3058.91
6.72202	3063.02
6.76083	3067.07
6.79986	3071.07
6.83912	3075.02
6.8786	3078.93
6.91831	3082.78
6.95825	3086.58
6.99842	3090.33
7.03882	3094.03
7.07946	3097.67
7.12033	3101.27
7.16143	3104.82
7.20278	3108.31
7.24436	3111.75
7.28618	3115.15
7.32825	3118.49
7.37055	3121.78
7.4131	3125.02
7.4559	3128.2
7.49894	3131.34
7.54223	3134.42
7.58578	3137.46
7.62957	3140.44
7.67361	3143.37
7.71792	3146.25
7.76247	3149.07
7.80728	3151.85
7.85236	3154.57
7.89769	3157.25
7.94328	3159.87
7.98914	3162.44
8.03526	3164.96
8.08165	3167.43
8.12831	3169.85
8.17523	3172.21
8.22243	3174.53
8.2699	3176.79
8.31764	3179.01
8.36566	3181.17
8.41395	3183.28
8.46253	3185.34
8.51138	3187.36
8.56052	3189.32
8.60994	3191.23
8.65964	3193.09
8.70964	3194.9
8.75992	3196.67
8.81049	3198.38
8.86135	3200.04
8.91251	3201.66
8.96396	3203.22
9.01571	3204.74
9.06776	3206.2
9.12011	3207.62
9.17276	3208.99
9.22571	3210.31
9.27897	3211.59
9.33254	3212.81
9.38642	3213.99
9.44061	3215.12
9.49511	3216.2
9.54993	3217.24
9.60506	3218.23
9.66051	3219.17
9.71628	3220.07
9.77237	3220.92
9.82879	3221.72
9.88553	3222.48
9.9426	3223.19
10	3223.86
10.0577	3224.48
10.1158	3225.06
10.1742	3225.59
10.2329	3226.08
10.292	3226.53
10.3514	3226.93
10.4112	3227.29
10.4713	3227.6
10.5317	3227.87
10.5925	3228.1
10.6537	3228.29
10.7152	3228.43
10.7771	3228.53
10.8393	3228.59
10.9018	3228.61
10.9648	3228.59
11.0281	3228.53
11.0917	3228.43
11.1558	3228.29
11.2202	3228.1
11.285	3227.88
11.3501	3227.62
11.4156	3227.32
11.4815	3226.98
11.5478	3226.61
11.6145	3226.19
11.6815	3215.19
11.749	3214.81
11.8168	3214.4
11.885	3213.94
11.9536	3213.45
12.0226	3212.93
12.0921	3212.37
12.1619	3211.77
12.2321	3211.13
12.3027	3210.46
12.3737	3209.76
12.4451	3209.02
12.517	3208.24
12.5893	3207.44
12.6619	3206.59
12.735	3205.72
12.8086	3204.81
12.8825	3203.87
12.9569	3202.9
13.0317	3201.89
13.1069	3200.85
13.1826	3199.78
13.2587	3198.68
13.3352	3197.55
13.4122	3196.39
13.4896	3195.2
13.5675	3193.98
13.6458	3192.73
13.7246	3191.46
13.8038	3190.15
13.8835	3188.81
13.9637	3187.45
14.0443	3186.06
14.1254	3184.64
14.2069	3183.2
14.2889	3181.73
14.3714	3180.23
14.4544	3178.71
14.5378	3177.16
14.6218	3175.58
14.7062	3173.99
14.7911	3172.36
14.8765	3170.72
14.9624	3169.05
15.0487	3167.35
15.1356	3165.63
15.223	3163.89
15.3109	3162.13
15.3993	3160.35
15.4882	3158.54
15.5776	3156.71
15.6675	3154.86
15.758	3152.99
15.8489	3151.1
15.9404	3149.19
16.0325	3147.26
16.125	3145.31
16.2181	3143.34
16.3117	3141.35
16.4059	3139.35
16.5006	3137.32
16.5959	3135.28
16.6917	3133.22
16.788	3131.14
16.885	3129.05
16.9824	3126.93
17.0805	3124.81
17.1791	3122.66
17.2783	3120.5
17.378	3118.32
17.4783	3116.13
17.5792	3113.93
17.6807	3111.71
17.7828	3109.47
17.8855	3107.22
17.9887	3104.96
18.0926	3102.68
18.197	3100.39
18.3021	3098.08
18.4077	3095.77
18.514	3093.44
18.6209	3091.09
18.7284	3088.74
18.8365	3086.37
18.9452	3084
19.0546	3081.61
19.1646	3079.21
19.2752	3076.79
19.3865	3074.37
19.4984	3071.94
19.611	3069.5
19.7242	3067.05
19.8381	3064.58
19.9526	3062.11
20.0678	3059.63
20.1837	3057.14
20.3002	3054.64
20.4174	3052.13
20.5353	3049.62
20.6538	3047.09
20.773	3044.56
20.893	3042.02
21.0136	3039.47
21.1349	3036.91
21.2569	3034.35
21.3796	3031.78
21.503	3029.2
21.6272	3026.61
21.752	3024.02
21.8776	3021.42
22.0039	3018.82
22.1309	3016.21
22.2587	3013.59
22.3872	3010.97
22.5165	3008.34
22.6464	3005.71
22.7772	3003.07
22.9087	3000.43
23.0409	2997.78
23.1739	2995.12
23.3077	2992.46
23.4423	2989.8
23.5776	2987.13
23.7137	2984.46
23.8506	2981.78
23.9883	2979.1
24.1268	2976.41
24.2661	2973.72
24.4062	2971.03
24.5471	2968.33
24.6888	2965.63
24.8313	2962.92
24.9747	2960.21
25.1189	2957.5
25.2639	2954.78
25.4097	2952.06
25.5564	2949.34
25.704	2946.62
25.8523	2943.89
26.0016	2941.16
26.1517	2938.42
26.3027	2935.68
26.4545	2932.94
26.6073	2930.2
26.7609	2927.46
26.9153	2924.71
27.0707	2921.96
27.227	2919.21
27.3842	2916.45
27.5423	2913.69
27.7013	2910.93
27.8612	2908.17
28.0221	2905.41
28.1838	2902.64
28.3465	2899.87
28.5102	2897.1
28.6748	2894.33
28.8403	2891.55
29.0068	2888.78
29.1743	2886
29.3427	2883.22
29.5121	2880.43
29.6825	2877.65
29.8538	2874.86
30.0262	2872.08
30.1995	2869.29
30.3739	2866.49
30.5492	2863.7
30.7256	2860.9
30.903	2858.11
31.0814	2855.31
31.2608	2852.51
31.4413	2849.7
31.6228	2846.9
31.8053	2844.09
31.989	2841.28
32.1736	2838.47
32.3594	2835.66
32.5462	2832.85
32.7341	2830.03
32.923	2827.21
33.1131	2824.39
33.3043	2821.57
33.4965	2818.75
33.6899	2815.93
33.8844	2813.1
34.08	2810.27
34.2768	2807.44
34.4747	2804.61
34.6737	2801.77
34.8739	2798.93
35.0752	2796.1
35.2777	2793.25
35.4813	2790.41
35.6862	2787.57
35.8922	2784.72
36.0994	2781.87
36.3078	2779.02
36.5174	2776.17
36.7282	2773.31
36.9403	2770.45
37.1535	2767.59
37.368	2764.73
37.5837	2761.86
37.8007	2758.99
38.0189	2756.12
38.2384	2753.25
38.4592	2750.38
38.6812	2747.5
38.9045	2744.62
39.1291	2741.73
39.355	2738.85
39.5822	2735.96
39.8107	2733.07
40.0405	2730.17
40.2717	2727.28
40.5042	2724.38
40.738	2721.48
40.9732	2718.57
41.2098	2715.66
41.4477	2712.75
41.6869	2709.83
41.9276	2706.92
42.1697	2703.99
42.4131	2701.07
42.658	2698.14
42.9042	2695.21
43.1519	2692.28
43.401	2689.34
43.6516	2686.4
43.9036	2683.45
44.157	2680.5
44.412	2677.56
44.6684	2674.6
44.9262	2671.64
45.1856	2668.68
45.4465	2665.71
45.7088	2662.74
45.9727	2659.76
46.2381	2656.78
46.505	2653.8
46.7735	2650.81
47.0435	2647.82
47.3151	2644.83
47.5883	2641.83
47.863	2638.83
48.1393	2635.82
48.4172	2632.81
48.6968	2629.79
48.9779	2626.77
49.2606	2623.74
49.545	2620.71
49.831	2617.68
50.1187	2614.64
50.4081	2611.6
50.6991	2608.55
50.9918	2605.5
51.2861	2602.44
51.5822	2599.37
51.88	2596.31
52.1795	2593.23
52.4807	2590.16
52.7837	2587.08
53.0884	2583.99
53.3949	2580.9
53.7032	2577.8
54.0132	2574.69
54.325	2571.59
54.6387	2568.47
54.9541	2565.35
55.2713	2562.23
55.5904	2559.1
55.9114	2555.97
56.2341	2552.82
56.5588	2549.68
56.8853	2546.53
57.2137	2543.37
57.544	2540.21
57.8762	2537.04
58.2103	2533.86
58.5464	2530.68
58.8844	2527.5
59.2243	2524.31
59.5662	2521.11
59.9101	2517.9
60.256	2514.69
60.6038	2511.48
60.9537	2508.26
61.3056	2505.03
61.6595	2501.79
62.0155	2498.55
62.3735	2495.31
62.7336	2492.05
63.0957	2488.79
63.46	2485.53
63.8263	2482.26
64.1948	2478.98
64.5654	2475.69
64.9382	2472.4
65.3131	2469.1
65.6901	2465.8
66.0693	2462.49
66.4508	2459.17
66.8344	2455.85
67.2202	2452.52
67.6083	2449.18
67.9986	2445.83
68.3912	2442.48
68.786	2439.12
69.1831	2435.76
69.5825	2431.84
69.9842	2427.02
70.3882	2422.2
70.7946	2417.4
71.2033	2412.6
71.6143	2407.81
72.0278	2403.02
72.4436	2398.37
72.8618	2393.59
73.2825	2388.8
73.7055	2384.03
74.131	2379.25
74.559	2374.48
74.9894	2369.7
75.4223	2364.93
75.8578	2360.16
76.2957	2355.4
76.7361	2350.63
77.1792	2345.87
77.6247	2341.42
78.0728	2336.67
78.5236	2332
78.9769	2327.25
79.4328	2322.49
79.8914	2317.74
80.3526	2312.99
80.8165	2308.24
81.2831	2303.5
81.7523	2298.75
82.2243	2294.01
82.699	2289.27
83.1764	2284.53
83.6566	2279.78
84.1395	2275.04
84.6253	2270.3
85.1138	2266.91
85.6052	2262.16
86.0994	2257.41
86.5964	2252.67
87.0964	2243.39
87.5992	2238.57
88.1049	2234.16
88.6135	2229.34
89.1251	2224.52
89.6396	2219.7
90.1571	2214.89
90.6776	2210.09
91.2011	2205.29
91.7276	2200.48
92.2571	2195.68
92.7897	2190.88
93.3254	2186.08
93.8642	2181.27
94.4061	2176.47
94.9511	2171.66
95.4993	2166.86
96.0506	2162.06
96.6051	2157.25
97.1628	2152.44
97.7237	2147.64
98.2879	2142.83
98.8553	2138.03
99.426	2133.22
100	2128.4
100.577	2123.59
101.158	2118.78
101.742	2113.97
102.329	2109.15
102.92	2104.34
103.514	2100.87
104.112	2096.05
104.713	2091.22
105.317	2086.4
105.925	2081.58
106.537	2076.75
107.152	2071.92
107.771	2067.09
108.393	2062.26
109.018	2057.43
109.648	2052.6
110.281	2047.76
110.917	2042.93
111.558	2038.1
112.202	2033.27
112.85	2028.43
113.501	2023.6
114.156	2018.76
114.815	2013.93
115.478	2009.09
116.145	2004.26
116.815	1999.42
117.49	1994.68
118.168	1989.84
118.85	1985
119.536	1980.17
120.226	1975.34
120.921	1970.5
121.619	1965.67
122.321	1960.94
123.027	1956.32
123.737	1951.7
124.451	1947.07
125.17	1942.44
125.893	1937.8
126.619	1933.17
127.35	1928.54
128.086	1923.9
128.825	1919.26
129.569	1914.63
130.317	1909.99
131.069	1905.35
131.826	1900.71
132.587	1896.07
133.352	1891.43
134.122	1886.78
134.896	1882.14
135.675	1877.5
136.458	1872.86
137.246	1868.21
138.038	1863.57
138.835	1858.93
139.637	1854.29
140.443	1849.64
141.254	1845
142.069	1840.88
142.889	1836.23
143.714	1831.59
144.544	1826.94
145.378	1822.29
146.218	1817.65
147.062	1813
147.911	1808.36
148.765	1803.72
149.624	1799.08
150.487	1794.44
151.356	1789.8
152.23	1785.17
153.109	1780.54
153.993	1775.91
154.882	1771.28
155.776	1767.89
156.675	1763.25
157.58	1758.62
158.489	1753.99
159.404	1749.36
160.325	1744.74
161.25	1740.12
162.181	1735.5
163.117	1730.88
164.059	1726.27
165.006	1721.66
165.959	1717.05
166.917	1712.45
167.88	1707.85
168.85	1703.25
169.824	1698.66
170.805	1694.07
171.791	1689.49
172.783	1684.91
173.78	1680.33
174.783	1675.75
175.792	1671.18
176.807	1666.61
177.828	1662.05
178.855	1657.49
179.887	1652.93
180.926	1648.38
181.97	1643.83
183.021	1639.29
184.077	1634.75
185.14	1630.21
186.209	1625.68
187.284	1621.15
188.365	1616.63
189.452	1612.11
190.546	1607.59
191.646	1603.08
192.752	1598.57
193.865	1594.07
194.984	1589.57
196.11	1585.08
197.242	1580.62
198.381	1576.13
199.526	1571.99
200.678	1567.51
201.837	1563.03
203.002	1558.56
204.174	1554.09
205.353	1549.62
206.538	1545.16
207.73	1540.7
208.93	1536.25
210.136	1531.8
211.349	1527.36
212.569	1522.92
213.796	1518.49
215.03	1514.05
216.272	1509.63
217.52	1505.21
218.776	1500.79
220.039	1496.38
221.309	1491.97
222.587	1487.57
223.872	1483.17
225.165	1478.78
226.464	1474.39
227.772	1470.01
229.087	1465.63
230.409	1461.26
231.739	1456.89
233.077	1452.52
234.423	1448.16
235.776	1443.81
237.137	1439.46
238.506	1435.11
239.883	1430.77
241.268	1426.44
242.661	1422.11
244.062	1417.78
245.471	1413.46
246.888	1409.15
248.313	1404.84
249.747	1400.54
251.189	1396.24
252.639	1391.94
254.097	1387.65
255.564	1383.37
257.04	1379.09
258.523	1374.82
260.016	1370.55
261.517	1366.74
263.027	1362.47
264.545	1358.21
266.073	1353.96
267.609	1349.71
269.153	1345.47
270.707	1341.23
272.27	1337
273.842	1332.77
275.423	1328.55
277.013	1324.35
278.612	1320.14
280.221	1315.94
281.838	1311.74
283.465	1307.54
285.102	1303.35
286.748	1299.17
288.403	1295
290.068	1290.82
291.743	1286.66
293.427	1282.5
295.121	1278.35
296.825	1274.2
298.538	1270.06
300.262	1265.92
301.995	1261.79
303.739	1257.67
305.492	1253.55
307.256	1249.44
309.03	1245.33
310.814	1241.23
312.608	1237.14
314.413	1233.05
316.228	1228.97
318.053	1224.89
319.89	1220.82
321.736	1216.75
323.594	1212.69
325.462	1208.64
327.341	1204.6
329.23	1200.56
331.131	1196.52
333.043	1192.5
334.965	1188.48
336.899	1184.46
338.844	1180.45
340.8	1176.45
342.768	1172.46
344.747	1168.47
346.737	1164.49
348.739	1160.51
350.752	1156.54
352.777	1152.58
354.813	1149.21
356.862	1145.26
358.922	1141.31
360.994	1137.37
363.078	1133.44
365.174	1129.51
367.282	1125.88
369.403	1121.96
371.535	1118.05
373.68	1114.15
375.837	1110.26
378.007	1106.37
380.189	1102.49
382.384	1098.61
384.592	1094.75
386.812	1090.89
389.045	1087.04
391.291	1083.19
393.55	1079.36
395.822	1075.53
398.107	1071.71
400.405	1067.89
402.717	1064.08
405.042	1060.29
407.38	1056.49
409.732	1052.71
412.098	1048.93
414.477	1045.17
416.869	1041.4
419.276	1037.65
421.697	1033.91
424.131	1030.17
426.58	1026.44
429.042	1022.72
431.519	1019
434.01	1015.3
436.516	1011.6
439.036	1007.91
441.57	1004.23
444.12	1000.56
446.684	996.894
449.262	993.237
451.856	989.587
454.465	985.946
457.088	982.314
459.727	978.689
462.381	975.073
465.05	971.464
467.735	967.864
470.435	964.273
473.151	960.69
475.883	957.115
478.63	953.548
481.393	949.99
484.172	946.44
486.968	942.899
489.779	939.366
492.606	935.841
495.45	932.326
498.31	928.818
501.187	925.319
504.081	921.829
506.991	918.347
509.918	914.875
512.861	911.41
515.822	907.954
518.8	904.507
521.795	901.068
524.807	897.637
527.837	894.216
530.884	890.805
533.949	887.402
537.032	884.008
540.132	880.623
543.25	877.247
546.387	873.879
549.541	870.52
552.713	867.17
555.904	863.828
559.114	860.495
562.341	857.171
565.588	853.856
568.853	850.55
572.137	847.253
575.44	843.964
578.762	840.685
582.103	837.415
585.464	834.153
588.844	830.901
592.243	827.657
595.662	824.422
599.101	821.196
602.56	817.979
606.038	814.771
609.537	811.572
613.056	808.382
616.595	805.201
620.155	802.028
623.735	798.865
627.336	795.71
630.957	792.565
634.6	789.428
638.263	786.301
641.948	783.182
645.654	780.073
649.382	776.972
653.131	773.88
656.901	770.798
660.693	767.724
664.508	764.66
668.344	761.604
672.202	758.558
676.083	755.52
679.986	752.492
683.912	749.472
687.86	746.461
691.831	743.46
695.825	740.468
699.842	737.484
703.882	734.51
707.946	731.544
712.033	728.588
716.143	725.641
720.278	722.703
724.436	719.773
728.618	716.853
732.825	713.942
737.055	711.04
741.31	708.147
745.59	705.263
749.894	702.388
754.223	699.523
758.578	696.666
762.957	693.818
767.361	690.98
771.792	688.15
776.247	685.329
780.728	682.518
785.236	679.715
789.769	676.921
794.328	674.137
798.914	671.361
803.526	668.595
808.165	665.838
812.831	663.089
817.523	660.35
822.243	657.619
826.99	654.898
831.764	652.186
836.566	649.482
841.395	646.788
846.253	644.103
851.138	641.426
856.052	638.759
860.994	636.1
865.964	633.451
870.964	630.811
875.992	628.179
881.049	625.557
886.135	622.943
891.251	620.338
896.396	617.742
901.571	615.156
906.776	612.578
912.011	610.009
917.276	607.449
922.571	604.899
927.897	602.357
933.254	599.823
938.642	597.299
944.061	594.784
949.511	592.278
954.993	589.78
960.506	587.291
966.051	584.812
971.628	582.341
977.237	579.878
982.879	577.425
988.553	574.981
994.26	572.545
1000	570.118
1005.77	567.699
1011.58	565.29
1017.42	562.889
1023.29	560.497
1029.2	558.114
1035.14	555.739
1041.12	553.374
1047.13	551.016
1053.17	548.667
1059.25	546.328
1065.37	543.997
1071.52	541.674
1077.71	539.36
1083.93	537.055
1090.18	534.759
1096.48	532.471
1102.81	530.191
1109.17	527.921
1115.58	525.658
1122.02	523.405
1128.5	521.16
1135.01	518.923
1141.56	516.695
1148.15	514.475
1154.78	512.264
1161.45	510.061
1168.15	507.867
1174.9	505.681
1181.68	503.503
1188.5	501.334
1195.36	499.173
1202.26	497.021
1209.21	494.877
1216.19	492.741
1223.21	490.614
1230.27	488.495
1237.37	486.384
1244.51	484.281
1251.7	482.187
1258.93	480.101
1266.19	478.023
1273.5	475.953
1280.86	473.892
1288.25	471.839
1295.69	469.793
1303.17	467.756
1310.69	465.727
1318.26	463.707
1325.87	461.694
1333.52	459.689
1341.22	457.692
1348.96	455.704
1356.75	453.723
1364.58	451.75
1372.46	449.786
1380.38	447.829
1388.35	445.88
1396.37	443.939
1404.43	442.006
1412.54	440.081
1420.69	438.164
1428.89	436.254
1437.14	434.352
1445.44	432.459
1453.78	430.573
1462.18	428.694
1470.62	426.824
1479.11	424.961
1487.65	423.106
1496.24	421.258
1504.87	419.419
1513.56	417.587
1522.3	415.762
1531.09	413.945
1539.93	412.136
1548.82	410.334
1557.76	408.54
1566.75	406.754
1575.8	404.974
1584.89	403.203
1594.04	401.439
1603.25	399.682
1612.5	397.933
1621.81	396.191
1631.17	394.457
1640.59	392.73
1650.06	391.01
1659.59	389.297
1669.17	387.592
1678.8	385.895
1688.5	384.204
1698.24	382.521
1708.05	380.845
1717.91	379.176
1727.83	377.514
1737.8	375.86
1747.83	374.212
1757.92	372.572
1768.07	370.939
1778.28	369.313
1788.55	367.694
1798.87	366.082
1809.26	364.477
1819.7	362.879
1830.21	361.289
1840.77	359.705
1851.4	358.128
1862.09	356.558
1872.84	354.994
1883.65	353.438
1894.52	351.889
1905.46	350.346
1916.46	348.81
1927.52	347.281
1938.65	345.759
1949.84	344.243
1961.1	342.734
1972.42	341.232
1983.81	339.737
1995.26	338.248
2006.78	336.766
2018.37	335.291
2030.02	333.822
2041.74	332.359
2053.53	330.904
2065.38	329.454
2077.3	328.012
2089.3	326.575
2101.36	325.146
2113.49	323.722
2125.69	322.305
2137.96	320.895
2150.3	319.491
2162.72	318.093
2175.2	316.702
2187.76	315.317
2200.39	313.938
2213.09	312.565
2225.87	311.199
2238.72	309.839
2251.65	308.485
2264.64	307.138
2277.72	305.796
2290.87	304.461
2304.09	303.132
2317.39	301.809
2330.77	300.492
2344.23	299.181
2357.76	297.876
2371.37	296.577
2385.06	295.284
2398.83	293.997
2412.68	292.716
2426.61	291.441
2440.62	290.172
2454.71	288.909
2468.88	287.651
2483.13	286.4
2497.47	285.154
2511.89	283.914
2526.39	282.68
2540.97	281.452
2555.64	280.229
2570.4	279.012
2585.23	277.801
2600.16	276.596
2615.17	275.396
2630.27	274.202
2645.45	273.013
2660.73	271.83
2676.09	270.653
2691.53	269.481
2707.07	268.314
2722.7	267.154
2738.42	265.998
2754.23	264.848
2770.13	263.704
2786.12	262.565
2802.21	261.431
2818.38	260.303
2834.65	259.18
2851.02	258.063
2867.48	256.95
2884.03	255.843
2900.68	254.742
2917.43	253.645
2934.27	252.554
2951.21	251.468
2968.25	250.388
2985.38	249.312
3002.62	248.242
3019.95	247.176
3037.39	246.116
3054.92	245.061
3072.56	244.011
3090.3	242.966
3108.14	241.926
3126.08	240.892
3144.13	239.862
3162.28	238.837
3180.53	237.817
3198.9	236.802
3217.36	235.792
3235.94	234.786
3254.62	233.786
3273.41	232.791
3292.3	231.8
3311.31	230.814
3330.43	229.833
3349.65	228.857
3368.99	227.885
3388.44	226.919
3408	225.957
3427.68	224.999
3447.47	224.047
3467.37	223.099
3487.39	222.155
3507.52	221.216
3527.77	220.282
3548.13	219.353
3568.62	218.428
3589.22	217.507
3609.94	216.591
3630.78	215.68
3651.74	214.773
3672.82	213.871
3694.03	212.973
3715.35	212.079
3736.8	211.19
3758.37	210.305
3780.07	209.425
3801.89	208.549
3823.84	207.677
3845.92	206.809
3868.12	205.946
3890.45	205.088
3912.91	204.233
3935.5	203.383
3958.22	202.537
3981.07	201.695
4004.05	200.857
4027.17	200.024
4050.42	199.194
4073.8	198.369
4097.32	197.548
4120.98	196.731
4144.77	195.918
4168.69	195.11
4192.76	194.305
4216.97	193.504
4241.31	192.707
4265.8	191.915
4290.42	191.126
4315.19	190.341
4340.1	189.561
4365.16	188.784
4390.36	188.011
4415.7	187.242
4441.2	186.476
4466.84	185.715
4492.62	184.958
4518.56	184.204
4544.65	183.454
4570.88	182.708
4597.27	181.966
4623.81	181.227
4650.5	180.492
4677.35	179.761
4704.35	179.034
4731.51	178.31
4758.83	177.59
4786.3	176.874
4813.93	176.161
4841.72	175.452
4869.68	174.747
4897.79	174.045
4926.06	173.347
4954.5	172.652
4983.1	171.961
5011.87	171.274
5040.81	170.589
5069.91	169.909
5099.18	169.232
5128.61	168.558
5158.22	167.888
5188	167.221
5217.95	166.558
5248.07	165.898
5278.37	165.242
5308.84	164.589
5339.49	163.939
5370.32	163.292
5401.32	162.649
5432.5	162.01
5463.87	161.373
5495.41	160.74
5527.13	160.11
5559.04	159.483
5591.14	158.86
5623.41	158.24
5655.88	157.623
5688.53	157.009
5721.37	156.399
5754.4	155.791
5787.62	155.187
5821.03	154.586
5854.64	153.988
5888.44	153.393
5922.43	152.801
5956.62	152.213
5991.01	151.627
6025.6	151.045
6060.38	150.465
6095.37	149.889
6130.56	149.315
6165.95	148.745
6201.55	148.177
6237.35	147.613
6273.36	147.051
6309.57	146.493
6346	145.937
6382.63	145.385
6419.48	144.835
6456.54	144.288
6493.82	143.744
6531.31	143.203
6569.01	142.664
6606.93	142.129
6645.08	141.596
6683.44	141.067
6722.02	140.54
6760.83	140.015
6799.86	139.494
6839.12	138.975
6878.6	138.459
6918.31	137.946
6958.25	137.436
6998.42	136.928
7038.82	136.423
7079.46	135.921
7120.33	135.421
7161.43	134.924
7202.78	134.43
7244.36	133.938
7286.18	133.449
7328.25	132.962
7370.55	132.478
7413.1	131.997
7455.9	131.519
7498.94	131.042
7542.23	130.569
7585.78	130.098
7629.57	129.629
7673.61	129.163
7717.92	128.7
7762.47	128.239
7807.28	127.781
7852.36	127.325
7897.69	126.871
7943.28	126.42
7989.14	125.971
8035.26	125.525
8081.65	125.081
8128.31	124.64
8175.23	124.201
8222.43	123.765
8269.9	123.33
8317.64	122.898
8365.66	122.469
8413.95	122.042
8462.53	121.617
8511.38	121.195
8560.52	120.774
8609.94	120.357
8659.64	119.941
8709.64	119.528
8759.92	119.117
8810.49	118.708
8861.35	118.301
8912.51	117.897
8963.96	117.495
9015.71	117.095
9067.76	116.697
9120.11	116.302
9172.76	115.909
9225.71	115.518
9278.97	115.129
9332.54	114.742
9386.42	114.357
9440.61	113.975
9495.11	113.594
9549.93	113.216
9605.06	112.84
9660.51	112.466
9716.28	112.094
9772.37	111.724
9828.79	111.356
9885.53	110.991
9942.6	110.627
10000	110.265
10057.7	109.906
10115.8	109.548
10174.2	109.192
10232.9	108.839
10292	108.487
10351.4	108.138
10411.2	107.79
10471.3	107.444
10531.7	107.1
10592.5	106.759
10653.7	106.419
10715.2	106.081
10777.1	105.745
10839.3	105.411
10901.8	105.079
10964.8	104.748
11028.1	104.42
11091.7	104.094
11155.8	103.769
11220.2	103.446
11285	103.125
11350.1	102.806
11415.6	102.489
11481.5	102.173
11547.8	101.86
11614.5	101.548
11681.5	101.238
11749	100.93
11816.8	100.623
11885	100.319
11953.6	100.016
12022.6	99.7148
12092.1	99.4154
12161.9	99.1178
12232.1	98.8219
12302.7	98.5277
12373.7	98.2353
12445.1	97.9446
12517	97.6556
12589.3	97.3682
12661.9	97.0826
12735	96.7986
12808.6	96.5163
12882.5	96.2357
12956.9	95.9568
13031.7	95.6795
13106.9	95.4038
13182.6	95.1298
13258.7	94.8574
13335.2	94.5866
13412.2	94.3174
13489.6	94.0498
13567.5	93.7839
13645.8	93.5195
13724.6	93.2567
13803.8	92.9955
13883.5	92.7359
13963.7	92.4778
14044.3	92.2212
14125.4	91.9663
14206.9	91.7128
14288.9	91.4609
14371.4	91.2105
14454.4	90.9617
14537.8	90.7143
14621.8	90.4685
14706.2	90.2242
14791.1	89.9813
14876.5	89.7399
14962.4	89.5001
15048.7	89.2616
15135.6	89.0247
15223	88.7892
15310.9	88.5552
15399.3	88.3226
15488.2	88.0914
15577.6	87.8617
15667.5	87.6334
15758	87.4065
15848.9	87.1811
15940.4	86.957
16032.5	86.7344
16125	86.5131
16218.1	86.2932
16311.7	86.0747
16405.9	85.8576
16500.6	85.6418
16595.9	85.4275
16691.7	85.2144
16788	85.0027
16885	84.7924
16982.4	84.5834
17080.5	84.3757
17179.1	84.1694
17278.3	83.9644
17378	83.7606
17478.3	83.5582
17579.2	83.3571
17680.7	83.1573
17782.8	82.9588
17885.5	82.7616
17988.7	82.5656
18092.6	82.3709
18197	82.1775
18302.1	81.9854
18407.7	81.7945
18514	81.6048
18620.9	81.4164
18728.4	81.2292
18836.5	81.0433
18945.2	80.8586
19054.6	80.6751
19164.6	80.4928
19275.2	80.3118
19386.5	80.1319
19498.4	79.9533
19611	79.7758
19724.2	79.5995
19838.1	79.4244
19952.6	79.2505
20067.8	79.0778
20183.7	78.9062
20300.2	78.7358
20417.4	78.5666
20535.3	78.3985
20653.8	78.2315
20773	78.0657
20893	77.901
21013.6	77.7375
21134.9	77.5751
21256.9	77.4138
21379.6	77.2536
21503	77.0945
21627.2	76.9366
21752	76.7797
21877.6	76.6239
22003.9	76.4693
22130.9	76.3157
22258.7	76.1632
22387.2	76.0117
22516.5	75.8614
22646.4	75.7121
22777.2	75.5639
22908.7	75.4167
23040.9	75.2706
23173.9	75.1255
23307.7	74.9815
23442.3	74.8385
23577.6	74.6965
23713.7	74.5556
23850.6	74.4157
23988.3	74.2768
24126.8	74.1389
24266.1	74.0021
24406.2	73.8662
24547.1	73.7314
24688.8	73.5975
24831.3	73.4647
24974.7	73.3328
25118.9	73.2019
25263.9	73.072
25409.7	72.9431
25556.4	72.8151
25704	72.6881
25852.3	72.5621
26001.6	72.437
26151.7	72.3129
26302.7	72.1897
26454.5	72.0674
26607.3	71.9462
26760.9	71.8258
26915.3	71.7064
27070.7	71.5879
27227	71.4703
27384.2	71.3537
27542.3	71.2379
27701.3	71.1231
27861.2	71.0092
28022.1	70.8962
28183.8	70.784
28346.5	70.6728
28510.2	70.5625
28674.8	70.453
28840.3	70.3445
29006.8	70.2368
29174.3	70.13
29342.7	70.0241
29512.1	69.919
29682.5	69.8148
29853.8	69.7114
30026.2	69.6089
30199.5	69.5073
30373.9	69.4065
30549.2	69.3066
30725.6	69.2075
30903	69.1092
31081.4	69.0117
31260.8	68.9151
31441.3	68.8194
31622.8	68.7244
31805.3	68.6302
31989	68.5369
32173.6	68.4444
32359.4	68.3527
32546.2	68.2618
32734.1	68.1716
32923	68.0823
33113.1	67.9938
33304.3	67.9061
33496.5	67.8191
33689.9	67.7329
33884.4	67.6426
34080	67.5508
34276.8	67.4598
34474.7	67.3695
34673.7	67.28
34873.9	67.1912
35075.2	67.1031
35277.7	67.0158
35481.3	66.9293
35686.2	66.8434
35892.2	66.7584
36099.4	66.674
36307.8	66.5903
36517.4	66.5074
36728.2	66.4252
36940.3	66.3437
37153.5	66.2629
37368	66.1829
37583.7	66.1035
37800.7	66.0248
38018.9	65.9469
38238.4	65.8696
38459.2	65.793
38681.2	65.7171
38904.5	65.6419
39129.1	65.5673
39355	65.4935
39582.2	65.4203
39810.7	65.3478
40040.5	65.2759
40271.7	65.2047
40504.2	65.1342
40738	65.0643
40973.2	64.9951
41209.8	64.9265
41447.7	64.8586
41686.9	64.7913
41927.6	64.7247
42169.7	64.6587
42413.1	64.5933
42658	64.5286
42904.2	64.4645
43151.9	64.401
43401	64.3382
43651.6	64.2759
43903.6	64.2143
44157	64.1533
44412	64.0929
44668.4	64.0331
44926.2	63.9739
45185.6	63.9153
45446.5	63.8574
45708.8	63.8
45972.7	63.7432
46238.1	63.6869
46505	63.6313
46773.5	63.5763
47043.5	63.5218
47315.1	63.4679
47588.3	63.4146
47863	63.3618
48139.3	63.3097
48417.2	63.258
48696.8	63.207
48977.9	63.1565
49260.6	63.1066
49545	63.0572
49831	63.0084
50118.7	62.9601
50408.1	62.9123
50699.1	62.8651
50991.8	62.8185
51286.1	62.7724
51582.2	62.7268
51880	62.6817
52179.5	62.6372
52480.7	62.5932
52783.7	62.5497
53088.4	62.5068
53394.9	62.4643
53703.2	62.4224
54013.2	62.381
54325	62.3401
54638.7	62.2997
54954.1	62.2598
55271.3	62.2204
55590.4	62.1815
55911.4	62.1431
56234.1	62.1052
56558.8	62.0678
56885.3	62.0308
57213.7	61.9944
57544	61.9584
57876.2	61.9229
58210.3	61.8879
58546.4	61.8534
58884.4	61.8194
59224.3	61.7858
59566.2	61.7527
59910.1	61.72
60256	61.6878
60603.8	61.6561
60953.7	61.6248
61305.6	61.594
61659.5	61.5636
62015.5	61.5337
62373.5	61.5042
62733.6	61.4752
63095.7	61.4466
63460	61.4185
63826.3	61.3908
64194.8	61.3635
64565.4	61.3367
64938.2	61.3103
65313.1	61.2843
65690.1	61.2587
66069.3	61.2336
66450.8	61.2089
66834.4	61.1846
67220.2	61.1607
67608.3	61.1372
67998.6	61.1142
68391.2	61.0916
68786	61.0693
69183.1	61.0475
69582.5	61.0261
69984.2	61.005
70388.2	60.9844
70794.6	60.9642
71203.3	60.9443
71614.3	60.9249
72027.8	60.9058
72443.6	60.8871
72861.8	60.8688
73282.5	60.8509
73705.5	60.8334
74131	60.8162
74559	60.7994
74989.4	60.783
75422.3	60.767
75857.8	60.7513
76295.7	60.736
76736.1	60.7211
77179.2	60.7065
77624.7	60.6923
78072.8	60.6784
78523.6	60.6649
78976.9	60.6517
79432.8	60.6389
79891.4	60.6265
80352.6	60.6144
80816.5	60.6026
81283.1	60.5912
81752.3	60.5801
82224.3	60.5694
82699	60.559
83176.4	60.5489
83656.6	60.5392
84139.5	60.5298
84625.3	60.5207
85113.8	60.512
85605.2	60.5036
86099.4	60.4955
86596.4	60.4877
87096.4	60.4802
87599.2	60.4731
88104.9	60.4663
88613.5	60.4597
89125.1	60.4535
89639.6	60.4476
90157.1	60.4421
90677.6	60.4368
91201.1	60.4318
91727.6	60.4271
92257.1	60.4227
92789.7	60.4186
93325.4	60.4149
93864.2	60.4114
94406.1	60.4082
94951.1	60.4053
95499.3	60.4026
96050.6	60.4003
96605.1	60.3982
97162.8	60.3965
97723.7	60.395
98287.9	60.3938
98855.3	60.3928
99426	60.3922
100000	60.3918
100577	60.3917
101158	60.3918
101742	60.3922
102329	60.3929
102920	60.3939
103514	60.3951
104112	60.3966
104713	60.3983
105317	60.4003
105925	60.4026
106537	60.4051
107152	60.4078
107771	60.4108
108393	60.4141
109018	60.4176
109648	60.4213
110281	60.4253
110917	60.4296
111558	60.4341
112202	60.4388
112850	60.4437
113501	60.4489
114156	60.4543
114815	60.46
115478	60.4659
116145	60.472
116815	60.4783
117490	60.4849
118168	60.4917
118850	60.4987
119536	60.506
120226	60.5134
120921	60.5211
121619	60.529
122321	60.5371
123027	60.5454
123737	60.554
124451	60.5627
125170	60.5717
125893	60.5808
126619	60.5902
127350	60.5998
128086	60.6096
128825	60.6195
129569	60.6297
130317	60.6401
131069	60.6507
131826	60.6614
132587	60.6724
133352	60.6836
134122	60.6949
134896	60.7065
135675	60.7182
136458	60.7301
137246	60.7422
138038	60.7545
138835	60.767
139637	60.7796
140443	60.7925
141254	60.8055
142069	60.8187
142889	60.832
143714	60.8456
144544	60.8593
145378	60.8732
146218	60.8873
147062	60.9015
147911	60.9159
148765	60.9305
149624	60.9452
150487	60.9601
151356	60.9752
152230	60.9904
153109	61.0058
153993	61.0213
154882	61.037
155776	61.0529
156675	61.0689
157580	61.0851
158489	61.1014
159404	61.1178
160325	61.1345
161250	61.1513
162181	61.1682
163117	61.1853
164059	61.2025
165006	61.2198
165959	61.2373
166917	61.255
167880	61.2728
168850	61.2907
169824	61.3088
170805	61.327
171791	61.3454
172783	61.3638
173780	61.3825
174783	61.4012
175792	61.4201
176807	61.4391
177828	61.4583
178855	61.4775
179887	61.4969
180926	61.5165
181970	61.5361
183021	61.5559
184077	61.5758
185140	61.5958
186209	61.616
187284	61.6363
188365	61.6567
189452	61.6772
190546	61.6978
191646	61.7185
192752	61.7394
193865	61.7604
194984	61.7815
196110	61.8027
197242	61.824
198381	61.8454
199526	61.8669
200678	61.8886
201837	61.9103
203002	61.9322
204174	61.9541
205353	61.9762
206538	61.9984
207730	62.0207
208930	62.043
210136	62.0655
211349	62.0881
212569	62.1108
213796	62.1336
215030	62.1564
216272	62.1794
217520	62.2025
218776	62.2256
220039	62.2489
221309	62.2722
222587	62.2957
223872	62.3192
225165	62.3428
226464	62.3666
227772	62.3904
229087	62.4143
230409	62.4382
231739	62.4623
233077	62.4865
234423	62.5107
235776	62.535
237137	62.5594
238506	62.5839
239883	62.6085
241268	62.6331
242661	62.6578
244062	62.6827
245471	62.7075
246888	62.7325
248313	62.7575
249747	62.7827
251189	62.8079
252639	62.8331
254097	62.8585
255564	62.8839
257040	62.9094
258523	62.9349
260016	62.9606
261517	62.9863
263027	63.012
264545	63.0379
266073	63.0638
267609	63.0898
269153	63.1158
270707	63.1419
272270	63.1681
273842	63.1943
275423	63.2206
277013	63.247
278612	63.2734
280221	63.2999
281838	63.3265
283465	63.3531
285102	63.3798
286748	63.4065
288403	63.4333
290068	63.4602
291743	63.4871
293427	63.514
295121	63.5411
296825	63.5681
298538	63.5953
300262	63.6225
301995	63.6497
303739	63.677
305492	63.7044
307256	63.7318
309030	63.7592
310814	63.7867
312608	63.8143
314413	63.8419
316228	63.8695
318053	63.8972
319890	63.925
321736	63.9528
323594	63.9806
325462	64.0085
327341	64.0365
329230	64.0644
331131	64.0925
333043	64.1206
334965	64.1487
336899	64.1768
338844	64.205
340800	64.2333
342768	64.2616
344747	64.2899
346737	64.3183
348739	64.3467
350752	64.3751
352777	64.4036
354813	64.4322
356862	64.4607
358922	64.4893
360994	64.518
363078	64.5467
365174	64.5754
367282	64.6041
369403	64.6329
371535	64.6617
373680	64.6906
375837	64.7195
378007	64.7484
380189	64.7774
382384	64.8064
384592	64.8354
386812	64.8645
389045	64.8935
391291	64.9227
393550	64.9518
395822	64.981
398107	65.0102
400405	65.0395
402717	65.0687
405042	65.098
407380	65.1274
409732	65.1567
412098	65.1861
414477	65.2155
416869	65.2449
419276	65.2744
421697	65.3039
424131	65.3334
426580	65.363
429042	65.3925
431519	65.4221
434010	65.4517
436516	65.4814
439036	65.511
441570	65.5407
444120	65.5704
446684	65.6001
449262	65.6299
451856	65.6597
454465	65.6895
457088	65.7193
459727	65.7491
462381	65.779
465050	65.8088
467735	65.8387
470435	65.8687
473151	65.8986
475883	65.9285
478630	65.9585
481393	65.9885
484172	66.0185
486968	66.0485
489779	66.0786
492606	66.1086
495450	66.1387
498310	66.1688
501187	66.1989
504081	66.229
506991	66.2592
509918	66.2893
512861	66.3195
515822	66.3497
518800	66.3799
521795	66.4101
524807	66.4403
527837	66.4705
530884	66.5008
533949	66.5311
537032	66.5613
540132	66.5916
543250	66.6219
546387	66.6522
549541	66.6826
552713	66.7129
555904	66.7432
559114	66.7736
562341	66.804
565588	66.8343
568853	66.8647
572137	66.8951
575440	66.9255
578762	66.956
582103	66.9864
585464	67.0168
588844	67.0473
592243	67.0777
595662	67.1082
599101	67.1386
602560	67.1691
606038	67.1996
609537	67.2301
613056	67.2606
616595	67.2911
620155	67.3216
623735	67.3521
627336	67.3826
630957	67.4132
634600	67.4437
638263	67.4742
641948	67.5048
645654	67.5353
649382	67.5659
653131	67.5964
656901	67.627
660693	67.6576
664508	67.6882
668344	67.7187
672202	67.7493
676083	67.7799
679986	67.8105
683912	67.8411
687860	67.8717
691831	67.9023
695825	67.9329
699842	67.9635
703882	67.9941
707946	68.0247
712033	68.0553
716143	68.0859
720278	68.1165
724436	68.1472
728618	68.1778
732825	68.2084
737055	68.239
741310	68.2696
745590	68.3003
749894	68.3309
754223	68.3615
758578	68.3921
762957	68.4228
767361	68.4534
771792	68.484
776247	68.5146
780728	68.5452
785236	68.5759
789769	68.6065
794328	68.6371
798914	68.6677
803526	68.6984
808165	68.729
812831	68.7596
817523	68.7902
822243	68.8208
826990	68.8514
831764	68.882
836566	68.9127
841395	68.9433
846253	68.9739
851138	69.0045
856052	69.0351
860994	69.0657
865964	69.0963
870964	69.1268
875992	69.1574
881049	69.188
886135	69.2186
891251	69.2492
896396	69.2798
901571	69.3103
906776	69.3409
912011	69.3715
917276	69.402
922571	69.4326
927897	69.4631
933254	69.4937
938642	69.5242
944061	69.5548
949511	69.5853
954993	69.6158
960506	69.6463
966051	69.6769
971628	69.7074
977237	69.7379
982879	69.7684
988553	69.7989
994260	69.8294
1e+06	69.8599
1.00577e+06	69.8904
1.01158e+06	69.9209
1.01742e+06	69.9513
1.02329e+06	69.9818
1.0292e+06	70.0123
1.03514e+06	70.0427
1.04112e+06	70.0732
1.04713e+06	70.1036
1.05317e+06	70.134
1.05925e+06	70.1645
1.06537e+06	70.1949
1.07152e+06	70.2253
1.07771e+06	70.2557
1.08393e+06	70.2861
1.09018e+06	70.3165
1.09648e+06	70.3469
1.10281e+06	70.3773
1.10917e+06	70.4077
1.11558e+06	70.4381
1.12202e+06	70.4684
1.1285e+06	70.4988
1.13501e+06	70.5291
1.14156e+06	70.5595
1.14815e+06	70.5898
1.15478e+06	70.6202
1.16145e+06	70.6505
1.16815e+06	70.6808
1.1749e+06	70.7111
1.18168e+06	70.7414
1.1885e+06	70.7717
1.19536e+06	70.802
1.20226e+06	70.8323
1.20921e+06	70.8625
1.21619e+06	70.8928
1.22321e+06	70.923
1.23027e+06	70.9533
1.23737e+06	70.9835
1.24451e+06	71.0137
1.2517e+06	71.044
1.25893e+06	71.0742
1.26619e+06	71.1044
1.2735e+06	71.1346
1.28086e+06	71.1648
1.28825e+06	71.1949
1.29569e+06	71.2251
1.30317e+06	71.2553
1.31069e+06	71.2854
1.31826e+06	71.3156
1.32587e+06	71.3457
1.33352e+06	71.3758
1.34122e+06	71.4059
1.34896e+06	71.4361
1.35675e+06	71.4662
1.36458e+06	71.4962
1.37246e+06	71.5263
1.38038e+06	71.5564
1.38835e+06	71.5865
1.39637e+06	71.6165
1.40443e+06	71.6466
1.41254e+06	71.6766
1.42069e+06	71.7066
1.42889e+06	71.7366
1.43714e+06	71.7666
1.44544e+06	71.7966
1.45378e+06	71.8266
1.46218e+06	71.8566
1.47062e+06	71.8866
1.47911e+06	71.9165
1.48765e+06	71.9465
1.49624e+06	71.9764
1.50487e+06	72.0063
1.51356e+06	72.0363
1.5223e+06	72.0662
1.53109e+06	72.0961
1.53993e+06	72.126
1.54882e+06	72.1558
1.55776e+06	72.1857
1.56675e+06	72.2156
1.5758e+06	72.2454
1.58489e+06	72.2752
1.59404e+06	72.3051
1.60325e+06	72.3349
1.6125e+06	72.3647
1.62181e+06	72.3945
1.63117e+06	72.4243
1.64059e+06	72.4541
1.65006e+06	72.4838
1.65959e+06	72.5136
1.66917e+06	72.5433
1.6788e+06	72.5731
1.6885e+06	72.6028
1.69824e+06	72.6325
1.70805e+06	72.6622
1.71791e+06	72.6919
1.72783e+06	72.7216
1.7378e+06	72.7513
1.74783e+06	72.7809
1.75792e+06	72.8106
1.76807e+06	72.8402
1.77828e+06	72.8698
1.78855e+06	72.8994
1.79887e+06	72.9291
1.80926e+06	72.9586
1.8197e+06	72.9882
1.83021e+06	73.0178
1.84077e+06	73.0474
1.8514e+06	73.0769
1.86209e+06	73.1065
1.87284e+06	73.136
1.88365e+06	73.1655
1.89452e+06	73.195
1.90546e+06	73.2245
1.91646e+06	73.254
1.92752e+06	73.2835
1.93865e+06	73.3129
1.94984e+06	73.3424
1.9611e+06	73.3718
1.97242e+06	73.4013
1.98381e+06	73.4307
1.99526e+06	73.4601
2.00678e+06	73.4895
2.01837e+06	73.5189
2.03002e+06	73.5482
2.04174e+06	73.5776
2.05353e+06	73.6069
2.06538e+06	73.6363
2.0773e+06	73.6656
2.0893e+06	73.6949
2.10136e+06	73.7242
2.11349e+06	73.7535
2.12569e+06	73.7828
2.13796e+06	73.8121
2.1503e+06	73.8413
2.16272e+06	73.8706
2.1752e+06	73.8998
2.18776e+06	73.929
2.20039e+06	73.9582
2.21309e+06	73.9874
2.22587e+06	74.0166
2.23872e+06	74.0458
2.25165e+06	74.0749
2.26464e+06	74.1041
2.27772e+06	74.1332
2.29087e+06	74.1624
2.30409e+06	74.1915
2.31739e+06	74.2206
2.33077e+06	74.2497
2.34423e+06	74.2788
2.35776e+06	74.3078
2.37137e+06	74.3369
2.38506e+06	74.3659
2.39883e+06	74.395
2.41268e+06	74.424
2.42661e+06	74.453
2.44062e+06	74.482
2.45471e+06	74.511
2.46888e+06	74.5399
2.48313e+06	74.5689
2.49747e+06	74.5978
2.51189e+06	74.6268
2.52639e+06	74.6557
2.54097e+06	74.6846
2.55564e+06	74.7135
2.5704e+06	74.7424
2.58523e+06	74.7713
2.60016e+06	74.8001
2.61517e+06	74.829
2.63027e+06	74.8578
2.64545e+06	74.8867
2.66073e+06	74.9155
2.67609e+06	74.9443
2.69153e+06	74.9731
2.70707e+06	75.0018
2.7227e+06	75.0306
2.73842e+06	75.0594
2.75423e+06	75.0881
2.77013e+06	75.1168
2.78612e+06	75.1455
2.80221e+06	75.1743
2.81838e+06	75.2029
2.83465e+06	75.2316
2.85102e+06	75.2603
2.86748e+06	75.2889
2.88403e+06	75.3176
2.90068e+06	75.3462
2.91743e+06	75.3748
2.93427e+06	75.4034
2.95121e+06	75.432
2.96825e+06	75.4606
2.98538e+06	75.4892
3.00262e+06	75.5177
3.01995e+06	75.5463
3.03739e+06	75.5748
3.05492e+06	75.6033
3.07256e+06	75.6318
3.0903e+06	75.6603
3.10814e+06	75.6888
3.12608e+06	75.7173
3.14413e+06	75.7457
3.16228e+06	75.7742
3.18053e+06	75.8026
3.1989e+06	75.831
3.21736e+06	75.8594
3.23594e+06	75.8878
3.25462e+06	75.9162
3.27341e+06	75.9446
3.2923e+06	75.9729
3.31131e+06	76.0012
3.33043e+06	76.0296
3.34965e+06	76.0579
3.36899e+06	76.0862
3.38844e+06	76.1145
3.408e+06	76.1428
3.42768e+06	76.171
3.44747e+06	76.1993
3.46737e+06	76.2275
3.48739e+06	76.2557
3.50752e+06	76.284
3.52777e+06	76.3122
3.54813e+06	76.3404
3.56862e+06	76.3685
3.58922e+06	76.3967
3.60994e+06	76.4248
3.63078e+06	76.453
3.65174e+06	76.4811
3.67282e+06	76.5092
3.69403e+06	76.5373
3.71535e+06	76.5654
3.7368e+06	76.5935
3.75837e+06	76.6215
3.78007e+06	76.6496
3.80189e+06	76.6776
3.82384e+06	76.7056
3.84592e+06	76.7336
3.86812e+06	76.7616
3.89045e+06	76.7896
3.91291e+06	76.8176
3.9355e+06	76.8455
3.95822e+06	76.8735
3.98107e+06	76.9014
4.00405e+06	76.9293
4.02717e+06	76.9572
4.05042e+06	76.9851
4.0738e+06	77.013
4.09732e+06	77.0409
4.12098e+06	77.0687
4.14477e+06	77.0966
4.16869e+06	77.1244
4.19276e+06	77.1522
4.21697e+06	77.18
4.24131e+06	77.2078
4.2658e+06	77.2356
4.29042e+06	77.2633
4.31519e+06	77.2911
4.3401e+06	77.3188
4.36516e+06	77.3465
4.39036e+06	77.3743
4.4157e+06	77.4019
4.4412e+06	77.4296
4.46684e+06	77.4573
4.49262e+06	77.485
4.51856e+06	77.5126
4.54465e+06	77.5402
4.57088e+06	77.5678
4.59727e+06	77.5954
4.62381e+06	77.623
4.6505e+06	77.6506
4.67735e+06	77.6782
4.70435e+06	77.7057
4.73151e+06	77.7333
4.75883e+06	77.7608
4.7863e+06	77.7883
4.81393e+06	77.8158
4.84172e+06	77.8433
4.86968e+06	77.8708
4.89779e+06	77.8982
4.92606e+06	77.9257
4.9545e+06	77.9531
4.9831e+06	77.9805
5.01187e+06	78.0079
5.04081e+06	78.0353
5.06991e+06	78.0627
5.09918e+06	78.09
5.12861e+06	78.1174
5.15822e+06	78.1447
5.188e+06	78.172
5.21795e+06	78.1994
5.24807e+06	78.2267
5.27837e+06	78.2539
5.30884e+06	78.2812
5.33949e+06	78.3085
5.37032e+06	78.3357
5.40132e+06	78.3629
5.4325e+06	78.3902
5.46387e+06	78.4174
5.49541e+06	78.4445
5.52713e+06	78.4717
5.55904e+06	78.4989
5.59114e+06	78.526
5.62341e+06	78.5532
5.65588e+06	78.5803
5.68853e+06	78.6074
5.72137e+06	78.6345
5.7544e+06	78.6616
5.78762e+06	78.6886
5.82103e+06	78.7157
5.85464e+06	78.7427
5.88844e+06	78.7698
5.92243e+06	78.7968
5.95662e+06	78.8238
5.99101e+06	78.8508
6.0256e+06	78.8777
6.06038e+06	78.9047
6.09537e+06	78.9316
6.13056e+06	78.9586
6.16595e+06	78.9855
6.20155e+06	79.0124
6.23735e+06	79.0393
6.27336e+06	79.0661
6.30957e+06	79.093
6.346e+06	79.1199
6.38263e+06	79.1467
6.41948e+06	79.1735
6.45654e+06	79.2003
6.49382e+06	79.2271
6.53131e+06	79.2539
6.56901e+06	79.2807
6.60693e+06	79.3074
6.64508e+06	79.3341
6.68344e+06	79.3609
6.72202e+06	79.3876
6.76083e+06	79.4143
6.79986e+06	79.441
6.83912e+06	79.4676
6.8786e+06	79.4943
6.91831e+06	79.5209
6.95825e+06	79.5476
6.99842e+06	79.5742
7.03882e+06	79.6008
7.07946e+06	79.6273
7.12033e+06	79.6539
7.16143e+06	79.6805
7.20278e+06	79.707
7.24436e+06	79.7335
7.28618e+06	79.7601
7.32825e+06	79.7866
7.37055e+06	79.8131
7.4131e+06	79.8395
7.4559e+06	79.866
7.49894e+06	79.8924
7.54223e+06	79.9189
7.58578e+06	79.9453
7.62957e+06	79.9717
7.67361e+06	79.9981
7.71792e+06	80.0244
7.76247e+06	80.0508
7.80728e+06	80.0771
7.85236e+06	80.1035
7.89769e+06	80.1298
7.94328e+06	80.1561
7.98914e+06	80.1824
8.03526e+06	80.2087
8.08165e+06	80.2349
8.12831e+06	80.2612
8.17523e+06	80.2874
8.22243e+06	80.3136
8.2699e+06	80.3398
8.31764e+06	80.366
8.36566e+06	80.3922
8.41395e+06	80.4183
8.46253e+06	80.4445
8.51138e+06	80.4706
8.56052e+06	80.4967
8.60994e+06	80.5228
8.65964e+06	80.5489
8.70964e+06	80.575
8.75992e+06	80.6011
8.81049e+06	80.6271
8.86135e+06	80.6531
8.91251e+06	80.6792
8.96396e+06	80.7052
9.01571e+06	80.7312
9.06776e+06	80.7571
9.12011e+06	80.7831
9.17276e+06	80.809
9.22571e+06	80.835
9.27897e+06	80.8609
9.33254e+06	80.8868
9.38642e+06	80.9127
9.44061e+06	80.9385
9.49511e+06	80.9644
9.54993e+06	80.9902
9.60506e+06	81.0161
9.66051e+06	81.0419
9.71628e+06	81.0677
9.77237e+06	81.0935
9.82879e+06	81.1192
9.88553e+06	81.145
9.9426e+06	81.1707
1e+07	81.1965
