E [MeV]	dEdx [keV/microm]
0.001	24.155
0.00100577	24.225
0.00101158	24.2953
0.00101742	24.3657
0.00102329	24.4364
0.0010292	24.5072
0.00103514	24.5783
0.00104112	24.6496
0.00104713	24.721
0.00105317	24.7927
0.00105925	24.8646
0.00106537	24.9367
0.00107152	25.009
0.00107771	25.0815
0.00108393	25.1542
0.00109018	25.2271
0.00109648	25.3003
0.00110281	25.3736
0.00110917	25.4472
0.00111558	25.521
0.00112202	25.595
0.0011285	25.6692
0.00113501	25.7436
0.00114156	25.8182
0.00114815	25.893
0.00115478	25.9681
0.00116145	26.0434
0.00116815	26.1189
0.0011749	26.1946
0.00118168	26.2705
0.0011885	26.3467
0.00119536	26.423
0.00120226	26.4996
0.00120921	26.5764
0.00121619	26.6534
0.00122321	26.7307
0.00123027	26.8082
0.00123737	26.8859
0.00124451	26.9638
0.0012517	27.0419
0.00125893	27.1203
0.00126619	27.1989
0.0012735	27.2777
0.00128086	27.3568
0.00128825	27.4361
0.00129569	27.5156
0.00130317	27.5953
0.00131069	27.6753
0.00131826	27.7555
0.00132587	27.8359
0.00133352	27.9165
0.00134122	27.9974
0.00134896	28.0786
0.00135675	28.1599
0.00136458	28.2415
0.00137246	28.3233
0.00138038	28.4054
0.00138835	28.4877
0.00139637	28.5702
0.00140443	28.653
0.00141254	28.736
0.00142069	28.8193
0.00142889	28.9028
0.00143714	28.9865
0.00144544	29.0705
0.00145378	29.1547
0.00146218	29.2392
0.00147062	29.3239
0.00147911	29.4088
0.00148765	29.494
0.00149624	29.5795
0.00150487	29.6652
0.00151356	29.7511
0.0015223	29.8373
0.00153109	29.9237
0.00153993	30.0104
0.00154882	30.0973
0.00155776	30.1845
0.00156675	30.2719
0.0015758	30.3596
0.00158489	30.4475
0.00159404	30.5357
0.00160325	30.6242
0.0016125	30.7128
0.00162181	30.8018
0.00163117	30.891
0.00164059	30.9805
0.00165006	31.0702
0.00165959	31.1602
0.00166917	31.2504
0.0016788	31.3409
0.0016885	31.4317
0.00169824	31.5227
0.00170805	31.614
0.00171791	31.7055
0.00172783	31.7974
0.0017378	31.8894
0.00174783	31.9818
0.00175792	32.0744
0.00176807	32.1673
0.00177828	32.2604
0.00178855	32.3538
0.00179887	32.4475
0.00180926	32.5414
0.0018197	32.6356
0.00183021	32.7302
0.00184077	32.8249
0.0018514	32.9199
0.00186209	33.0153
0.00187284	33.1109
0.00188365	33.2067
0.00189452	33.3029
0.00190546	33.3993
0.00191646	33.496
0.00192752	33.5929
0.00193865	33.6902
0.00194984	33.7877
0.0019611	33.8855
0.00197242	33.9837
0.00198381	34.082
0.00199526	34.1807
0.00200678	34.2796
0.00201837	34.3788
0.00203002	34.4784
0.00204174	34.5782
0.00205353	34.6782
0.00206538	34.7787
0.0020773	34.8793
0.0020893	34.9803
0.00210136	35.0816
0.00211349	35.1831
0.00212569	35.2849
0.00213796	35.387
0.0021503	35.4895
0.00216272	35.5922
0.0021752	35.6952
0.00218776	35.7985
0.00220039	35.9021
0.00221309	36.006
0.00222587	36.1102
0.00223872	36.2147
0.00225165	36.3196
0.00226464	36.4247
0.00227772	36.5301
0.00229087	36.6358
0.00230409	36.7418
0.00231739	36.8482
0.00233077	36.9548
0.00234423	37.0617
0.00235776	37.169
0.00237137	37.2766
0.00238506	37.3844
0.00239883	37.4926
0.00241268	37.6011
0.00242661	37.7099
0.00244062	37.819
0.00245471	37.9285
0.00246888	38.0382
0.00248313	38.1483
0.00249747	38.2587
0.00251189	38.3694
0.00252639	38.4804
0.00254097	38.5917
0.00255564	38.7034
0.0025704	38.8154
0.00258523	38.9277
0.00260016	39.0403
0.00261517	39.1533
0.00263027	39.2666
0.00264545	39.3802
0.00266073	39.4941
0.00267609	39.6083
0.00269153	39.723
0.00270707	39.8379
0.0027227	39.9531
0.00273842	40.0687
0.00275423	40.1846
0.00277013	40.3009
0.00278612	40.4175
0.00280221	40.5344
0.00281838	40.6517
0.00283465	40.7692
0.00285102	40.8872
0.00286748	41.0055
0.00288403	41.1241
0.00290068	41.2431
0.00291743	41.3623
0.00293427	41.482
0.00295121	41.602
0.00296825	41.7223
0.00298538	41.843
0.00300262	41.964
0.00301995	42.0854
0.00303739	42.2072
0.00305492	42.3292
0.00307256	42.4517
0.0030903	42.5745
0.00310814	42.6976
0.00312608	42.8211
0.00314413	42.945
0.00316228	43.0692
0.00318053	43.1937
0.0031989	43.3186
0.00321736	43.444
0.00323594	43.5696
0.00325462	43.6956
0.00327341	43.822
0.0032923	43.9487
0.00331131	44.0758
0.00333043	44.2033
0.00334965	44.3311
0.00336899	44.4593
0.00338844	44.5879
0.003408	44.7168
0.00342768	44.8461
0.00344747	44.9759
0.00346737	45.1059
0.00348739	45.2363
0.00350752	45.3671
0.00352777	45.4983
0.00354813	45.6299
0.00356862	45.7618
0.00358922	45.8942
0.00360994	46.0269
0.00363078	46.16
0.00365174	46.2935
0.00367282	46.4273
0.00369403	46.5616
0.00371535	46.6962
0.0037368	46.8312
0.00375837	46.9666
0.00378007	47.1024
0.00380189	47.2386
0.00382384	47.3752
0.00384592	47.5122
0.00386812	47.6496
0.00389045	47.7873
0.00391291	47.9255
0.0039355	48.0641
0.00395822	48.203
0.00398107	48.3424
0.00400405	48.4822
0.00402717	48.6223
0.00405042	48.7629
0.0040738	48.9039
0.00409732	49.0453
0.00412098	49.1871
0.00414477	49.3293
0.00416869	49.4719
0.00419276	49.6149
0.00421697	49.7584
0.00424131	49.9022
0.0042658	50.0465
0.00429042	50.1912
0.00431519	50.3362
0.0043401	50.4818
0.00436516	50.6277
0.00439036	50.774
0.0044157	50.9208
0.0044412	51.068
0.00446684	51.2156
0.00449262	51.3637
0.00451856	51.5122
0.00454465	51.6611
0.00457088	51.8104
0.00459727	51.9602
0.00462381	52.1104
0.0046505	52.261
0.00467735	52.412
0.00470435	52.5635
0.00473151	52.7154
0.00475883	52.8678
0.0047863	53.0206
0.00481393	53.1739
0.00484172	53.3276
0.00486968	53.4817
0.00489779	53.6363
0.00492606	53.7913
0.0049545	53.9468
0.0049831	54.1027
0.00501187	54.2591
0.00504081	54.4159
0.00506991	54.5732
0.00509918	54.7309
0.00512861	54.8891
0.00515822	55.0477
0.005188	55.2068
0.00521795	55.3663
0.00524807	55.5264
0.00527837	55.6869
0.00530884	55.8478
0.00533949	56.0092
0.00537032	56.171
0.00540132	56.3334
0.0054325	56.4962
0.00546387	56.6594
0.00549541	56.8232
0.00552713	56.9874
0.00555904	57.1521
0.00559114	57.3172
0.00562341	57.4829
0.00565588	57.649
0.00568853	57.8156
0.00572137	57.9827
0.0057544	58.1502
0.00578762	58.3183
0.00582103	58.4868
0.00585464	58.6558
0.00588844	58.8253
0.00592243	59.1429
0.00595662	59.3134
0.00599101	59.4843
0.0060256	59.6558
0.00606038	59.8278
0.00609537	60.0002
0.00613056	60.1732
0.00616595	60.3466
0.00620155	60.5205
0.00623735	60.695
0.00627336	60.8699
0.00630957	61.0454
0.006346	61.2213
0.00638263	61.3978
0.00641948	61.5748
0.00645654	61.7522
0.00649382	61.9303
0.00653131	62.1087
0.00656901	62.2878
0.00660693	62.4673
0.00664508	62.6474
0.00668344	62.8279
0.00672202	63.009
0.00676083	63.1906
0.00679986	63.3728
0.00683912	63.5554
0.0068786	63.7386
0.00691831	63.9223
0.00695825	64.1066
0.00699842	64.2914
0.00703882	64.4767
0.00707946	64.6625
0.00712033	64.8489
0.00716143	65.0358
0.00720278	65.2233
0.00724436	65.4113
0.00728618	65.5998
0.00732825	65.7889
0.00737055	65.9785
0.0074131	66.1687
0.0074559	66.3594
0.00749894	66.5507
0.00754223	66.7425
0.00758578	66.9349
0.00762957	67.1278
0.00767361	67.3213
0.00771792	67.5154
0.00776247	67.71
0.00780728	67.9052
0.00785236	68.1009
0.00789769	68.2972
0.00794328	68.494
0.00798914	68.6915
0.00803526	68.8895
0.00808165	69.088
0.00812831	69.2872
0.00817523	69.4869
0.00822243	69.6872
0.0082699	69.888
0.00831764	70.0895
0.00836566	70.2915
0.00841395	70.4941
0.00846253	70.6973
0.00851138	70.9011
0.00856052	71.1054
0.00860994	71.3104
0.00865964	71.5159
0.00870964	71.722
0.00875992	71.9288
0.00881049	72.1361
0.00886135	72.3441
0.00891251	72.5526
0.00896396	72.7617
0.00901571	72.9714
0.00906776	73.1817
0.00912011	73.3927
0.00917276	73.6042
0.00922571	73.8164
0.00927897	74.0291
0.00933254	74.2425
0.00938642	74.4565
0.00944061	74.6711
0.00949511	74.8863
0.00954993	75.1022
0.00960506	75.3187
0.00966051	75.5358
0.00971628	75.7535
0.00977237	75.9718
0.00982879	76.1908
0.00988553	76.4104
0.0099426	76.6307
0.01	76.8516
0.0100577	77.0731
0.0101158	77.2952
0.0101742	77.518
0.0102329	77.7415
0.010292	77.9655
0.0103514	78.1903
0.0104112	78.4156
0.0104713	78.6417
0.0105317	78.8684
0.0105925	79.0957
0.0106537	79.3237
0.0107152	79.5523
0.0107771	79.7816
0.0108393	80.0115
0.0109018	80.2422
0.0109648	80.4735
0.0110281	80.7054
0.0110917	80.9381
0.0111558	81.1713
0.0112202	81.4053
0.011285	81.6399
0.0113501	81.8753
0.0114156	82.1113
0.0114815	82.3479
0.0115478	82.5853
0.0116145	82.8233
0.0116815	83.0621
0.011749	83.3014
0.0118168	83.5416
0.011885	83.7824
0.0119536	84.0239
0.0120226	84.266
0.0120921	84.509
0.0121619	84.7525
0.0122321	84.9968
0.0123027	85.2418
0.0123737	85.4875
0.0124451	85.7339
0.012517	85.981
0.0125893	86.2289
0.0126619	86.4774
0.012735	86.7267
0.0128086	86.9767
0.0128825	87.2274
0.0129569	87.4788
0.0130317	87.7309
0.0131069	87.9838
0.0131826	88.2374
0.0132587	88.4918
0.0133352	88.7468
0.0134122	89.0026
0.0134896	89.2591
0.0135675	89.5165
0.0136458	89.7744
0.0137246	90.0332
0.0138038	90.2927
0.0138835	90.553
0.0139637	90.814
0.0140443	91.0757
0.0141254	91.3383
0.0142069	91.6015
0.0142889	91.8656
0.0143714	92.1303
0.0144544	92.3959
0.0145378	92.6622
0.0146218	92.9293
0.0147062	93.1971
0.0147911	93.4658
0.0148765	93.7352
0.0149624	94.0054
0.0150487	94.2763
0.0151356	94.5481
0.015223	94.8206
0.0153109	95.0939
0.0153993	95.368
0.0154882	95.6429
0.0155776	95.9186
0.0156675	96.1951
0.015758	96.4723
0.0158489	96.7504
0.0159404	97.0293
0.0160325	97.3089
0.016125	97.5894
0.0162181	97.8707
0.0163117	98.1528
0.0164059	98.4357
0.0165006	98.7194
0.0165959	99.004
0.0166917	99.2894
0.016788	99.5756
0.016885	99.8626
0.0169824	100.15
0.0170805	100.439
0.0171791	100.729
0.0172783	101.019
0.017378	101.31
0.0174783	101.602
0.0175792	101.895
0.0176807	102.189
0.0177828	102.483
0.0178855	102.779
0.0179887	103.075
0.0180926	103.372
0.018197	103.67
0.0183021	103.969
0.0184077	104.268
0.018514	104.569
0.0186209	104.87
0.0187284	105.173
0.0188365	105.476
0.0189452	105.78
0.0190546	106.085
0.0191646	106.391
0.0192752	106.697
0.0193865	107.005
0.0194984	107.313
0.019611	107.623
0.0197242	107.933
0.0198381	108.244
0.0199526	108.556
0.0200678	108.869
0.0201837	109.182
0.0203002	109.497
0.0204174	109.813
0.0205353	110.129
0.0206538	110.447
0.020773	110.765
0.020893	111.084
0.0210136	111.404
0.0211349	111.726
0.0212569	112.048
0.0213796	112.371
0.021503	112.695
0.0216272	113.019
0.021752	113.345
0.0218776	113.672
0.0220039	114
0.0221309	114.328
0.0222587	114.658
0.0223872	114.988
0.0225165	115.32
0.0226464	115.652
0.0227772	115.985
0.0229087	116.32
0.0230409	116.655
0.0231739	116.991
0.0233077	117.328
0.0234423	117.667
0.0235776	118.006
0.0237137	118.346
0.0238506	118.687
0.0239883	119.029
0.0241268	119.372
0.0242661	119.716
0.0244062	120.061
0.0245471	120.407
0.0246888	120.754
0.0248313	121.102
0.0249747	121.452
0.0251189	121.802
0.0252639	122.153
0.0254097	122.505
0.0255564	122.858
0.025704	123.212
0.0258523	123.567
0.0260016	123.923
0.0261517	124.281
0.0263027	124.639
0.0264545	124.998
0.0266073	125.358
0.0267609	125.72
0.0269153	126.082
0.0270707	126.446
0.027227	126.81
0.0273842	127.176
0.0275423	127.542
0.0277013	127.91
0.0278612	128.278
0.0280221	128.648
0.0281838	129.019
0.0283465	129.391
0.0285102	129.763
0.0286748	130.138
0.0288403	130.513
0.0290068	130.889
0.0291743	131.266
0.0293427	131.645
0.0295121	132.024
0.0296825	132.405
0.0298538	132.786
0.0300262	133.169
0.0301995	133.553
0.0303739	133.938
0.0305492	134.324
0.0307256	134.711
0.030903	135.099
0.0310814	135.488
0.0312608	135.879
0.0314413	136.271
0.0316228	136.664
0.0318053	137.057
0.031989	137.453
0.0321736	137.849
0.0323594	138.246
0.0325462	138.645
0.0327341	139.044
0.032923	139.445
0.0331131	139.847
0.0333043	140.25
0.0334965	140.654
0.0336899	141.06
0.0338844	141.466
0.03408	141.874
0.0342768	142.283
0.0344747	142.693
0.0346737	143.104
0.0348739	143.517
0.0350752	143.931
0.0352777	144.345
0.0354813	144.762
0.0356862	145.179
0.0358922	145.597
0.0360994	146.017
0.0363078	146.437
0.0365174	146.86
0.0367282	147.283
0.0369403	147.708
0.0371535	148.133
0.037368	148.56
0.0375837	148.989
0.0378007	149.418
0.0380189	149.849
0.0382384	150.28
0.0384592	150.714
0.0386812	151.148
0.0389045	151.584
0.0391291	152.021
0.039355	152.459
0.0395822	152.898
0.0398107	153.339
0.0400405	153.781
0.0402717	154.224
0.0405042	154.669
0.040738	155.115
0.0409732	155.562
0.0412098	156.01
0.0414477	156.46
0.0416869	156.911
0.0419276	157.363
0.0421697	157.817
0.0424131	158.271
0.042658	158.728
0.0429042	159.185
0.0431519	159.644
0.043401	160.104
0.0436516	160.566
0.0439036	161.028
0.044157	161.493
0.044412	161.958
0.0446684	162.425
0.0449262	162.893
0.0451856	163.362
0.0454465	163.833
0.0457088	164.306
0.0459727	164.779
0.0462381	165.254
0.046505	165.731
0.0467735	166.208
0.0470435	166.687
0.0473151	167.168
0.0475883	167.649
0.047863	168.133
0.0481393	168.617
0.0484172	169.103
0.0486968	169.591
0.0489779	170.08
0.0492606	170.57
0.049545	171.062
0.049831	171.555
0.0501187	172.049
0.0504081	172.545
0.0506991	173.042
0.0509918	173.541
0.0512861	174.041
0.0515822	174.543
0.05188	175.046
0.0521795	175.551
0.0524807	176.057
0.0527837	176.564
0.0530884	177.073
0.0533949	177.584
0.0537032	178.095
0.0540132	178.609
0.054325	179.123
0.0546387	179.64
0.0549541	180.158
0.0552713	180.677
0.0555904	181.198
0.0559114	181.72
0.0562341	182.244
0.0565588	182.769
0.0568853	183.296
0.0572137	183.824
0.057544	184.354
0.0578762	184.885
0.0582103	185.418
0.0585464	185.953
0.0588844	186.489
0.0592243	187.026
0.0595662	187.565
0.0599101	188.106
0.060256	188.648
0.0606038	189.192
0.0609537	189.737
0.0613056	190.284
0.0616595	190.833
0.0620155	191.383
0.0623735	191.934
0.0627336	192.488
0.0630957	193.042
0.06346	193.599
0.0638263	194.157
0.0641948	194.717
0.0645654	195.278
0.0649382	195.841
0.0653131	196.405
0.0656901	196.971
0.0660693	197.539
0.0664508	198.108
0.0668344	198.679
0.0672202	199.252
0.0676083	199.826
0.0679986	200.402
0.0683912	200.98
0.068786	201.559
0.0691831	202.14
0.0695825	202.723
0.0699842	203.307
0.0703882	203.893
0.0707946	204.481
0.0712033	205.07
0.0716143	205.662
0.0720278	206.254
0.0724436	206.849
0.0728618	207.445
0.0732825	208.043
0.0737055	208.643
0.074131	209.244
0.074559	209.847
0.0749894	210.452
0.0754223	211.058
0.0758578	211.667
0.0762957	212.277
0.0767361	212.889
0.0771792	213.502
0.0776247	214.118
0.0780728	214.735
0.0785236	215.354
0.0789769	215.975
0.0794328	216.597
0.0798914	217.222
0.0803526	217.848
0.0808165	218.475
0.0812831	219.105
0.0817523	219.737
0.0822243	220.37
0.082699	221.006
0.0831764	221.642
0.0836566	222.281
0.0841395	222.922
0.0846253	223.564
0.0851138	224.209
0.0856052	224.855
0.0860994	225.503
0.0865964	226.153
0.0870964	226.805
0.0875992	227.459
0.0881049	228.114
0.0886135	228.772
0.0891251	229.431
0.0896396	230.093
0.0901571	230.756
0.0906776	231.421
0.0912011	232.088
0.0917276	232.757
0.0922571	233.428
0.0927897	234.101
0.0933254	234.776
0.0938642	235.452
0.0944061	236.131
0.0949511	236.811
0.0954993	237.494
0.0960506	238.178
0.0966051	238.865
0.0971628	239.554
0.0977237	240.244
0.0982879	240.937
0.0988553	241.631
0.099426	242.328
0.1	243.026
0.100577	243.727
0.101158	244.429
0.101742	245.134
0.102329	245.84
0.10292	246.549
0.103514	247.259
0.104112	247.972
0.104713	248.687
0.105317	249.404
0.105925	250.122
0.106537	250.843
0.107152	251.566
0.107771	252.291
0.108393	253.019
0.109018	253.748
0.109648	254.479
0.110281	255.213
0.110917	255.949
0.111558	256.686
0.112202	257.426
0.11285	258.168
0.113501	258.912
0.114156	259.659
0.114815	260.407
0.115478	261.158
0.116145	261.91
0.116815	262.665
0.11749	263.423
0.118168	264.182
0.11885	264.943
0.119536	265.707
0.120226	266.473
0.120921	267.241
0.121619	268.011
0.122321	268.783
0.123027	269.558
0.123737	270.335
0.124451	271.114
0.12517	271.896
0.125893	272.679
0.126619	273.465
0.12735	274.254
0.128086	275.044
0.128825	275.837
0.129569	276.632
0.130317	277.429
0.131069	278.229
0.131826	279.031
0.132587	279.835
0.133352	280.642
0.134122	281.451
0.134896	282.262
0.135675	283.076
0.136458	283.892
0.137246	284.71
0.138038	285.531
0.138835	286.354
0.139637	287.179
0.140443	288.007
0.141254	288.837
0.142069	289.669
0.142889	290.504
0.143714	291.342
0.144544	292.182
0.145378	293.024
0.146218	293.868
0.147062	294.715
0.147911	295.565
0.148765	296.417
0.149624	297.271
0.150487	298.128
0.151356	298.987
0.15223	299.849
0.153109	300.713
0.153993	301.58
0.154882	302.45
0.155776	303.321
0.156675	304.196
0.15758	305.072
0.158489	305.952
0.159404	306.834
0.160325	307.718
0.16125	308.605
0.162181	309.494
0.163117	310.387
0.164059	311.281
0.165006	312.178
0.165959	313.078
0.166917	313.981
0.16788	314.886
0.16885	315.793
0.169824	316.703
0.170805	317.616
0.171791	318.532
0.172783	319.45
0.17378	320.371
0.174783	321.294
0.175792	322.22
0.176807	323.149
0.177828	324.08
0.178855	325.015
0.179887	325.952
0.180926	326.891
0.18197	327.833
0.183021	328.778
0.184077	329.726
0.18514	330.676
0.186209	331.629
0.187284	332.585
0.188365	333.543
0.189452	334.505
0.190546	335.469
0.191646	336.436
0.192752	337.406
0.193865	338.379
0.194984	339.354
0.19611	340.332
0.197242	341.313
0.198381	342.296
0.199526	343.283
0.200678	344.273
0.201837	345.265
0.203002	346.26
0.204174	347.258
0.205353	348.259
0.206538	349.263
0.20773	350.27
0.20893	351.279
0.210136	352.292
0.211349	353.307
0.212569	354.326
0.213796	355.347
0.21503	356.371
0.216272	357.399
0.21752	358.428
0.218776	359.462
0.220039	360.498
0.221309	361.537
0.222587	362.579
0.223872	363.624
0.225165	364.672
0.226464	365.723
0.227772	366.778
0.229087	367.835
0.230409	368.895
0.231739	369.958
0.233077	371.024
0.234423	372.094
0.235776	373.166
0.237137	374.242
0.238506	375.321
0.239883	376.403
0.241268	377.488
0.242661	378.576
0.244062	379.667
0.245471	380.761
0.246888	381.859
0.248313	382.959
0.249747	384.063
0.251189	385.17
0.252639	386.28
0.254097	387.394
0.255564	388.511
0.25704	389.63
0.258523	390.753
0.260016	391.88
0.261517	393.009
0.263027	394.142
0.264545	395.278
0.266073	396.418
0.267609	397.56
0.269153	398.706
0.270707	399.855
0.27227	401.008
0.273842	402.164
0.275423	403.323
0.277013	404.485
0.278612	405.651
0.280221	406.821
0.281838	407.993
0.283465	409.169
0.285102	410.349
0.286748	411.531
0.288403	412.717
0.290068	413.907
0.291743	415.1
0.293427	416.297
0.295121	417.497
0.296825	418.7
0.298538	419.907
0.300262	421.12
0.301995	422.354
0.303739	423.592
0.305492	424.835
0.307256	426.082
0.30903	427.334
0.310814	428.591
0.312608	429.852
0.314413	431.117
0.316228	432.387
0.318053	433.662
0.31989	434.942
0.321736	436.225
0.323594	437.514
0.325462	438.807
0.327341	440.105
0.32923	441.407
0.331131	442.714
0.333043	444.026
0.334965	445.342
0.336899	446.663
0.338844	447.988
0.3408	449.319
0.342768	450.653
0.344747	451.993
0.346737	453.337
0.348739	454.686
0.350752	456.054
0.352777	457.45
0.354813	458.852
0.356862	460.259
0.358922	461.673
0.360994	463.077
0.363078	464.469
0.365174	465.867
0.367282	467.272
0.369403	468.682
0.371535	470.097
0.37368	471.518
0.375837	472.945
0.378007	474.378
0.380189	475.817
0.382384	477.262
0.384592	478.712
0.386812	480.168
0.389045	481.629
0.391291	483.097
0.39355	484.57
0.395822	486.05
0.398107	487.534
0.400405	489.033
0.402717	490.58
0.405042	492.135
0.40738	493.697
0.409732	495.266
0.412098	496.841
0.414477	498.424
0.416869	500.014
0.419276	501.611
0.421697	503.193
0.424131	504.771
0.42658	506.357
0.429042	507.949
0.431519	509.548
0.43401	511.154
0.436516	512.766
0.439036	514.386
0.44157	516.012
0.44412	517.644
0.446684	519.283
0.449262	520.929
0.451856	522.581
0.454465	524.24
0.457088	525.905
0.459727	527.577
0.462381	529.254
0.46505	530.939
0.467735	532.629
0.470435	534.326
0.473151	536.029
0.475883	537.738
0.47863	539.452
0.481393	541.153
0.484172	542.84
0.486968	544.532
0.489779	546.231
0.492606	547.934
0.49545	549.644
0.49831	551.358
0.501187	553.079
0.504081	554.804
0.506991	556.536
0.509918	558.272
0.512861	560.014
0.515822	561.762
0.5188	563.514
0.521795	565.271
0.524807	567.035
0.527837	568.803
0.530884	570.576
0.533949	572.354
0.537032	574.137
0.540132	575.925
0.54325	577.718
0.546387	579.516
0.549541	581.318
0.552713	583.125
0.555904	584.936
0.559114	586.752
0.562341	588.567
0.565588	590.383
0.568853	592.204
0.572137	594.029
0.57544	595.858
0.578762	597.692
0.582103	599.53
0.585464	601.372
0.588844	603.218
0.592243	605.068
0.595662	606.922
0.599101	608.78
0.60256	610.643
0.606038	612.508
0.609537	614.378
0.613056	616.252
0.616595	618.129
0.620155	620.01
0.623735	621.895
0.627336	623.783
0.630957	625.675
0.6346	627.57
0.638263	629.468
0.641948	631.366
0.645654	633.263
0.649382	635.163
0.653131	637.066
0.656901	638.972
0.660693	640.881
0.664508	642.794
0.668344	644.709
0.672202	646.628
0.676083	648.549
0.679986	650.474
0.683912	652.402
0.68786	654.332
0.691831	656.265
0.695825	658.201
0.699842	660.14
0.703882	662.081
0.707946	664.026
0.712033	665.973
0.716143	667.922
0.720278	669.874
0.724436	671.829
0.728618	673.786
0.732825	675.746
0.737055	677.709
0.74131	679.674
0.74559	681.641
0.749894	683.611
0.754223	685.583
0.758578	687.558
0.762957	689.534
0.767361	691.514
0.771792	693.495
0.776247	695.479
0.780728	697.465
0.785236	699.453
0.789769	701.443
0.794328	703.436
0.798914	705.431
0.803526	707.427
0.808165	709.425
0.812831	711.425
0.817523	713.428
0.822243	715.432
0.82699	717.438
0.831764	719.445
0.836566	721.455
0.841395	723.466
0.846253	725.479
0.851138	727.494
0.856052	729.509
0.860994	731.527
0.865964	733.546
0.870964	735.566
0.875992	737.587
0.881049	739.609
0.886135	741.633
0.891251	743.657
0.896396	745.682
0.901571	747.708
0.906776	749.734
0.912011	751.761
0.917276	753.788
0.922571	755.816
0.927897	757.844
0.933254	759.872
0.938642	761.901
0.944061	763.929
0.949511	765.957
0.954993	767.985
0.960506	770.013
0.966051	772.04
0.971628	774.067
0.977237	776.093
0.982879	778.118
0.988553	780.143
0.99426	782.167
1	784.191
1.00577	786.213
1.01158	788.235
1.01742	790.256
1.02329	792.275
1.0292	794.294
1.03514	796.311
1.04112	798.328
1.04713	800.343
1.05317	802.357
1.05925	804.37
1.06537	806.381
1.07152	808.392
1.07771	810.401
1.08393	812.408
1.09018	814.414
1.09648	816.418
1.10281	818.422
1.10917	820.423
1.11558	822.423
1.12202	824.42
1.1285	826.417
1.13501	828.411
1.14156	830.404
1.14815	832.394
1.15478	834.382
1.16145	836.367
1.16815	838.35
1.1749	840.331
1.18168	842.308
1.1885	844.283
1.19536	846.254
1.20226	848.223
1.20921	850.189
1.21619	852.152
1.22321	854.111
1.23027	856.065
1.23737	858.017
1.24451	859.964
1.2517	861.907
1.25893	863.845
1.26619	865.779
1.2735	867.709
1.28086	869.633
1.28825	871.553
1.29569	873.467
1.30317	875.376
1.31069	877.281
1.31826	879.18
1.32587	881.074
1.33352	882.962
1.34122	884.844
1.34896	886.721
1.35675	888.592
1.36458	890.458
1.37246	892.317
1.38038	894.171
1.38835	896.018
1.39637	897.86
1.40443	899.695
1.41254	901.525
1.42069	903.349
1.42889	905.166
1.43714	906.976
1.44544	908.78
1.45378	910.577
1.46218	912.368
1.47062	914.151
1.47911	915.927
1.48765	917.696
1.49624	919.458
1.50487	921.212
1.51356	922.959
1.5223	924.698
1.53109	926.429
1.53993	928.154
1.54882	929.869
1.55776	931.577
1.56675	933.277
1.5758	934.969
1.58489	936.652
1.59404	938.328
1.60325	939.995
1.6125	941.654
1.62181	943.304
1.63117	944.947
1.64059	946.581
1.65006	948.203
1.65959	949.82
1.66917	951.426
1.6788	953.025
1.6885	954.614
1.69824	956.193
1.70805	957.764
1.71791	959.326
1.72783	960.878
1.7378	962.419
1.74783	963.954
1.75792	965.478
1.76807	966.993
1.77828	968.497
1.78855	969.995
1.79887	971.483
1.80926	972.949
1.8197	974.404
1.83021	975.849
1.84077	977.284
1.8514	978.712
1.86209	980.13
1.87284	981.534
1.88365	982.931
1.89452	984.318
1.90546	985.694
1.91646	987.06
1.92752	988.415
1.93865	989.758
1.94984	991.093
1.9611	992.418
1.97242	993.733
1.98381	995.034
1.99526	996.325
2.00678	997.606
2.01837	998.88
2.03002	1000.14
2.04174	1001.39
2.05353	1002.62
2.06538	1003.85
2.0773	1005.07
2.0893	1006.28
2.10136	1007.47
2.11349	1008.64
2.12569	1009.8
2.13796	1010.95
2.1503	1012.08
2.16272	1013.21
2.1752	1014.32
2.18776	1015.42
2.20039	1016.51
2.21309	1017.59
2.22587	1018.66
2.23872	1019.72
2.25165	1020.76
2.26464	1021.79
2.27772	1022.82
2.29087	1023.82
2.30409	1024.82
2.31739	1025.81
2.33077	1026.78
2.34423	1027.75
2.35776	1028.7
2.37137	1029.63
2.38506	1030.56
2.39883	1031.48
2.41268	1032.37
2.42661	1033.24
2.44062	1034.11
2.45471	1034.96
2.46888	1035.8
2.48313	1036.63
2.49747	1037.45
2.51189	1038.26
2.52639	1039.04
2.54097	1039.83
2.55564	1040.59
2.5704	1041.35
2.58523	1042.09
2.60016	1042.82
2.61517	1043.53
2.63027	1044.24
2.64545	1044.93
2.66073	1045.61
2.67609	1046.27
2.69153	1046.92
2.70707	1047.56
2.7227	1048.19
2.73842	1048.8
2.75423	1049.4
2.77013	1049.99
2.78612	1050.56
2.80221	1051.13
2.81838	1051.68
2.83465	1052.22
2.85102	1052.74
2.86748	1053.26
2.88403	1053.76
2.90068	1054.25
2.91743	1054.73
2.93427	1055.19
2.95121	1055.64
2.96825	1056.08
2.98538	1056.5
3.00262	1056.91
3.01995	1057.31
3.03739	1057.7
3.05492	1058.08
3.07256	1058.44
3.0903	1058.79
3.10814	1059.13
3.12608	1059.45
3.14413	1059.76
3.16228	1060.06
3.18053	1060.35
3.1989	1060.62
3.21736	1060.89
3.23594	1061.15
3.25462	1061.39
3.27341	1061.62
3.2923	1061.84
3.31131	1062.05
3.33043	1062.24
3.34965	1062.42
3.36899	1062.59
3.38844	1062.75
3.408	1062.89
3.42768	1063.03
3.44747	1063.15
3.46737	1063.26
3.48739	1063.36
3.50752	1063.44
3.52777	1063.52
3.54813	1063.58
3.56862	1063.63
3.58922	1063.68
3.60994	1063.71
3.63078	1063.72
3.65174	1063.73
3.67282	1063.73
3.69403	1063.71
3.71535	1063.68
3.7368	1063.65
3.75837	1063.6
3.78007	1063.54
3.80189	1063.46
3.82384	1063.38
3.84592	1063.29
3.86812	1063.18
3.89045	1063.07
3.91291	1062.94
3.9355	1062.8
3.95822	1062.65
3.98107	1062.49
4.00405	1062.33
4.02717	1062.15
4.05042	1061.96
4.0738	1061.76
4.09732	1061.55
4.12098	1061.32
4.14477	1061.1
4.16869	1060.86
4.19276	1060.6
4.21697	1060.34
4.24131	1060.07
4.2658	1059.79
4.29042	1059.5
4.31519	1059.2
4.3401	1058.89
4.36516	1058.57
4.39036	1058.24
4.4157	1057.9
4.4412	1057.55
4.46684	1057.18
4.49262	1056.81
4.51856	1056.43
4.54465	1056.04
4.57088	1055.64
4.59727	1055.23
4.62381	1054.81
4.6505	1054.38
4.67735	1053.94
4.70435	1053.5
4.73151	1053.03
4.75883	1052.57
4.7863	1052.09
4.81393	1051.61
4.84172	1051.12
4.86968	1050.61
4.89779	1050.1
4.92606	1049.58
4.9545	1049.05
4.9831	1048.51
5.01187	1047.96
5.04081	1047.4
5.06991	1046.83
5.09918	1046.26
5.12861	1045.67
5.15822	1045.08
5.188	1044.48
5.21795	1043.86
5.24807	1043.25
5.27837	1042.62
5.30884	1041.98
5.33949	1041.33
5.37032	1040.68
5.40132	1040.01
5.4325	1039.34
5.46387	1038.66
5.49541	1037.97
5.52713	1037.27
5.55904	1036.57
5.59114	1035.85
5.62341	1035.12
5.65588	1034.39
5.68853	1033.65
5.72137	1032.9
5.7544	1032.15
5.78762	1031.38
5.82103	1030.61
5.85464	1029.83
5.88844	1029.04
5.92243	1028.25
5.95662	1027.44
5.99101	1026.63
6.0256	1025.8
6.06038	1024.98
6.09537	1024.14
6.13056	1023.3
6.16595	1022.45
6.20155	1021.59
6.23735	1020.73
6.27336	1019.86
6.30957	1018.98
6.346	1018.09
6.38263	1017.2
6.41948	1016.3
6.45654	1015.39
6.49382	1014.48
6.53131	1013.55
6.56901	1012.62
6.60693	1011.69
6.64508	1010.75
6.68344	1009.79
6.72202	1008.84
6.76083	1007.88
6.79986	1006.9
6.83912	1005.93
6.8786	1004.95
6.91831	1003.96
6.95825	1002.96
6.99842	1001.96
7.03882	1000.95
7.07946	999.934
7.12033	998.911
7.16143	997.883
7.20278	996.846
7.24436	995.805
7.28618	994.757
7.32825	993.703
7.37055	992.642
7.4131	991.577
7.4559	990.502
7.49894	989.424
7.54223	988.336
7.58578	987.244
7.62957	986.146
7.67361	985.041
7.71792	983.93
7.76247	982.814
7.80728	981.689
7.85236	980.561
7.89769	979.426
7.94328	978.284
7.98914	977.136
8.03526	975.981
8.08165	974.823
8.12831	973.655
8.17523	972.484
8.22243	971.306
8.2699	970.122
8.31764	968.935
8.36566	967.738
8.41395	966.538
8.46253	965.331
8.51138	964.118
8.56052	962.899
8.60994	961.676
8.65964	960.444
8.70964	959.209
8.75992	957.968
8.81049	956.72
8.86135	955.466
8.91251	954.209
8.96396	952.942
9.01571	951.672
9.06776	950.396
9.12011	949.117
9.17276	947.828
9.22571	946.537
9.27897	945.239
9.33254	943.935
9.38642	942.625
9.44061	941.312
9.49511	939.993
9.54993	938.668
9.60506	937.336
9.66051	935.999
9.71628	934.659
9.77237	933.312
9.82879	931.963
9.88553	930.608
9.9426	929.244
10	927.88
10.0577	926.507
10.1158	925.132
10.1742	923.75
10.2329	922.363
10.292	920.974
10.3514	919.578
10.4112	918.18
10.4713	916.774
10.5317	915.365
10.5925	913.953
10.6537	912.533
10.7152	911.11
10.7771	909.685
10.8393	908.252
10.9018	906.816
10.9648	905.378
11.0281	903.935
11.0917	902.486
11.1558	901.036
11.2202	899.579
11.285	898.121
11.3501	896.657
11.4156	895.189
11.4815	893.718
11.5478	892.241
11.6145	890.763
11.6815	889.279
11.749	887.79
11.8168	886.299
11.885	884.805
11.9536	883.303
12.0226	881.803
12.0921	880.293
12.1619	878.781
12.2321	877.265
12.3027	875.746
12.3737	874.222
12.4451	872.696
12.517	871.165
12.5893	869.628
12.6619	868.09
12.735	866.547
12.8086	864.999
12.8825	863.449
12.9569	861.894
13.0317	860.334
13.1069	858.772
13.1826	857.208
13.2587	855.636
13.3352	854.063
13.4122	852.488
13.4896	850.908
13.5675	849.323
13.6458	847.737
13.7246	846.145
13.8038	844.553
13.8835	842.955
13.9637	841.356
14.0443	839.751
14.1254	838.145
14.2069	836.535
14.2889	834.923
14.3714	833.306
14.4544	831.688
14.5378	830.066
14.6218	828.441
14.7062	826.816
14.7911	825.186
14.8765	823.551
14.9624	821.919
15.0487	820.278
15.1356	818.64
15.223	816.997
15.3109	815.349
15.3993	813.7
15.4882	812.05
15.5776	810.396
15.6675	808.741
15.758	807.081
15.8489	805.42
15.9404	803.754
16.0325	802.087
16.125	800.42
16.2181	798.748
16.3117	797.072
16.4059	795.397
16.5006	793.719
16.5959	792.036
16.6917	790.353
16.788	788.666
16.885	786.978
16.9824	785.287
17.0805	783.594
17.1791	781.898
17.2783	780.201
17.378	778.501
17.4783	776.799
17.5792	775.095
17.6807	773.389
17.7828	771.68
17.8855	769.969
17.9887	768.256
18.0926	766.546
18.197	764.834
18.3021	763.12
18.4077	761.405
18.514	759.686
18.6209	757.967
18.7284	756.245
18.8365	754.521
18.9452	752.796
19.0546	751.068
19.1646	749.339
19.2752	747.608
19.3865	745.876
19.4984	744.141
19.611	742.405
19.7242	740.667
19.8381	738.928
19.9526	737.187
20.0678	735.445
20.1837	733.701
20.3002	731.955
20.4174	730.208
20.5353	728.459
20.6538	726.709
20.773	724.958
20.893	723.205
21.0136	721.451
21.1349	719.701
21.2569	717.95
21.3796	716.197
21.503	714.443
21.6272	712.688
21.752	710.932
21.8776	709.175
22.0039	707.416
22.1309	705.656
22.2587	703.896
22.3872	702.135
22.5165	700.373
22.6464	698.609
22.7772	696.846
22.9087	695.081
23.0409	693.315
23.1739	691.549
23.3077	689.781
23.4423	688.014
23.5776	686.245
23.7137	684.476
23.8506	682.706
23.9883	680.936
24.1268	679.169
24.2661	677.401
24.4062	675.633
24.5471	673.864
24.6888	672.095
24.8313	670.326
24.9747	668.557
25.1189	666.787
25.2639	665.017
25.4097	663.247
25.5564	661.477
25.704	659.707
25.8523	657.937
26.0016	656.166
26.1517	654.396
26.3027	652.626
26.4545	650.856
26.6073	649.086
26.7609	647.317
26.9153	645.547
27.0707	643.778
27.227	642.009
27.3842	640.241
27.5423	638.472
27.7013	636.704
27.8612	634.937
28.0221	633.17
28.1838	631.401
28.3465	629.633
28.5102	627.866
28.6748	626.099
28.8403	624.332
29.0068	622.567
29.1743	620.801
29.3427	619.036
29.5121	617.272
29.6825	615.509
29.8538	613.746
30.0262	611.984
30.1995	610.223
30.3739	608.462
30.5492	606.702
30.7256	604.943
30.903	603.184
31.0814	601.426
31.2608	599.67
31.4413	597.914
31.6228	596.159
31.8053	594.406
31.989	592.653
32.1736	590.899
32.3594	589.147
32.5462	587.395
32.7341	585.645
32.923	583.896
33.1131	582.147
33.3043	580.401
33.4965	578.655
33.6899	576.911
33.8844	575.167
34.08	573.426
34.2768	571.685
34.4747	569.946
34.6737	568.208
34.8739	566.472
35.0752	564.736
35.2777	563.002
35.4813	561.27
35.6862	559.539
35.8922	557.809
36.0994	556.08
36.3078	554.353
36.5174	552.627
36.7282	550.903
36.9403	549.18
37.1535	547.46
37.368	545.74
37.5837	544.023
37.8007	542.307
38.0189	540.593
38.2384	538.881
38.4592	537.17
38.6812	535.462
38.9045	533.756
39.1291	532.051
39.355	530.348
39.5822	528.648
39.8107	526.949
40.0405	525.252
40.2717	523.557
40.5042	521.864
40.738	520.174
40.9732	518.485
41.2098	516.798
41.4477	515.113
41.6869	513.431
41.9276	511.751
42.1697	510.072
42.4131	508.396
42.658	506.721
42.9042	505.048
43.1519	503.378
43.401	501.711
43.6516	500.045
43.9036	498.382
44.157	496.721
44.412	495.062
44.6684	493.406
44.9262	491.751
45.1856	490.1
45.4465	488.451
45.7088	486.804
45.9727	485.159
46.2381	483.518
46.505	481.877
46.7735	480.24
47.0435	478.605
47.3151	476.972
47.5883	475.342
47.863	473.713
48.1393	472.088
48.4172	470.466
48.6968	468.846
48.9779	467.229
49.2606	465.614
49.545	464.001
49.831	462.391
50.1187	460.783
50.4081	459.178
50.6991	457.575
50.9918	455.975
51.2861	454.377
51.5822	452.783
51.88	451.19
52.1795	449.601
52.4807	448.014
52.7837	446.429
53.0884	444.848
53.3949	443.27
53.7032	441.694
54.0132	440.121
54.325	438.55
54.6387	436.983
54.9541	435.418
55.2713	433.856
55.5904	432.297
55.9114	430.74
56.2341	429.189
56.5588	427.641
56.8853	426.095
57.2137	424.553
57.544	423.013
57.8762	421.476
58.2103	419.943
58.5464	418.412
58.8844	416.884
59.2243	415.359
59.5662	413.837
59.9101	412.318
60.256	410.801
60.6038	409.288
60.9537	407.777
61.3056	406.27
61.6595	404.765
62.0155	403.264
62.3735	401.765
62.7336	400.27
63.0957	398.777
63.46	397.289
63.8263	395.802
64.1948	394.321
64.5654	392.844
64.9382	391.37
65.3131	389.9
65.6901	388.432
66.0693	386.968
66.4508	385.507
66.8344	384.05
67.2202	382.595
67.6083	381.144
67.9986	379.696
68.3912	378.251
68.786	376.81
69.1831	375.372
69.5825	373.938
69.9842	372.507
70.3882	371.078
70.7946	369.653
71.2033	368.231
71.6143	366.813
72.0278	365.398
72.4436	363.986
72.8618	362.578
73.2825	361.174
73.7055	359.772
74.131	358.374
74.559	356.98
74.9894	355.59
75.4223	354.203
75.8578	352.82
76.2957	351.44
76.7361	350.064
77.1792	348.691
77.6247	347.323
78.0728	345.958
78.5236	344.596
78.9769	343.239
79.4328	341.884
79.8914	340.534
80.3526	339.187
80.8165	337.843
81.2831	336.502
81.7523	335.165
82.2243	333.833
82.699	332.503
83.1764	331.178
83.6566	329.856
84.1395	328.537
84.6253	327.223
85.1138	325.912
85.6052	324.604
86.0994	323.3
86.5964	322
87.0964	320.704
87.5992	319.411
88.1049	318.122
88.6135	316.838
89.1251	315.557
89.6396	314.279
90.1571	313.005
90.6776	311.735
91.2011	310.47
91.7276	309.207
92.2571	307.949
92.7897	306.694
93.3254	305.443
93.8642	304.196
94.4061	302.952
94.9511	301.713
95.4993	300.476
96.0506	299.244
96.6051	298.015
97.1628	296.789
97.7237	295.567
98.2879	294.349
98.8553	293.134
99.426	291.923
100	290.716
100.577	289.512
101.158	288.313
101.742	287.117
102.329	285.924
102.92	284.735
103.514	283.551
104.112	282.37
104.713	281.193
105.317	280.02
105.925	278.85
106.537	277.684
107.152	276.522
107.771	275.364
108.393	274.21
109.018	273.06
109.648	271.913
110.281	270.77
110.917	269.63
111.558	268.495
112.202	267.363
112.85	266.235
113.501	265.11
114.156	263.99
114.815	262.873
115.478	261.759
116.145	260.649
116.815	259.543
117.49	258.441
118.168	257.342
118.85	256.246
119.536	255.155
120.226	254.067
120.921	252.983
121.619	251.901
122.321	250.824
123.027	249.75
123.737	248.679
124.451	247.613
125.17	246.55
125.893	245.49
126.619	244.434
127.35	243.382
128.086	242.334
128.825	241.289
129.569	240.247
130.317	239.21
131.069	238.176
131.826	237.145
132.587	236.119
133.352	235.096
134.122	234.076
134.896	233.061
135.675	232.049
136.458	231.041
137.246	230.036
138.038	229.035
138.835	228.038
139.637	227.044
140.443	226.053
141.254	225.066
142.069	224.082
142.889	223.102
143.714	222.125
144.544	221.153
145.378	220.184
146.218	219.218
147.062	218.256
147.911	217.298
148.765	216.343
149.624	215.392
150.487	214.445
151.356	213.501
152.23	212.561
153.109	211.625
153.993	210.692
154.882	209.763
155.776	208.838
156.675	207.916
157.58	206.998
158.489	206.083
159.404	205.172
160.325	204.264
161.25	203.359
162.181	202.457
163.117	201.559
164.059	200.665
165.006	199.774
165.959	198.886
166.917	198.002
167.88	197.121
168.85	196.245
169.824	195.371
170.805	194.501
171.791	193.634
172.783	192.772
173.78	191.912
174.783	191.056
175.792	190.203
176.807	189.353
177.828	188.507
178.855	187.664
179.887	186.825
180.926	185.993
181.97	185.165
183.021	184.34
184.077	183.519
185.14	182.701
186.209	181.886
187.284	181.074
188.365	180.267
189.452	179.461
190.546	178.66
191.646	177.861
192.752	177.066
193.865	176.274
194.984	175.486
196.11	174.7
197.242	173.918
198.381	173.139
199.526	172.363
200.678	171.59
201.837	170.82
203.002	170.053
204.174	169.289
205.353	168.528
206.538	167.77
207.73	167.015
208.93	166.263
210.136	165.514
211.349	164.773
212.569	164.036
213.796	163.301
215.03	162.569
216.272	161.839
217.52	161.113
218.776	160.389
220.039	159.667
221.309	158.949
222.587	158.233
223.872	157.519
225.165	156.808
226.464	156.1
227.772	155.395
229.087	154.692
230.409	153.991
231.739	153.293
233.077	152.597
234.423	151.904
235.776	151.213
237.137	150.525
238.506	149.839
239.883	149.155
241.268	148.48
242.661	147.807
244.062	147.138
245.471	146.47
246.888	145.805
248.313	145.142
249.747	144.482
251.189	143.824
252.639	143.169
254.097	142.516
255.564	141.865
257.04	141.217
258.523	140.572
260.016	139.929
261.517	139.288
263.027	138.65
264.545	138.015
266.073	137.383
267.609	136.752
269.153	136.125
270.707	135.5
272.27	134.878
273.842	134.259
275.423	133.642
277.013	133.028
278.612	132.417
280.221	131.808
281.838	131.201
283.465	130.597
285.102	129.995
286.748	129.397
288.403	128.801
290.068	128.207
291.743	127.616
293.427	127.028
295.121	126.443
296.825	125.86
298.538	125.28
300.262	124.703
301.995	124.129
303.739	123.557
305.492	122.987
307.256	122.42
309.03	121.856
310.814	121.295
312.608	120.736
314.413	120.18
316.228	119.627
318.053	119.076
319.89	118.528
321.736	117.982
323.594	117.438
325.462	116.896
327.341	116.357
329.23	115.821
331.131	115.287
333.043	114.756
334.965	114.228
336.899	113.702
338.844	113.179
340.8	112.658
342.768	112.14
344.747	111.624
346.737	111.111
348.739	110.6
350.752	110.091
352.777	109.585
354.813	109.081
356.862	108.579
358.922	108.08
360.994	107.583
363.078	107.088
365.174	106.595
367.282	106.105
369.403	105.617
371.535	105.132
373.68	104.648
375.837	104.167
378.007	103.688
380.189	103.212
382.384	102.737
384.592	102.265
386.812	101.796
389.045	101.328
391.291	100.862
393.55	100.399
395.822	99.9373
398.107	99.4781
400.405	99.0207
402.717	98.5652
405.042	98.1119
407.38	97.6604
409.732	97.2111
412.098	96.7636
414.477	96.3183
416.869	95.8747
419.276	95.4334
421.697	94.9936
424.131	94.5559
426.58	94.1202
429.042	93.6864
431.519	93.2547
434.01	92.8249
436.516	92.3971
439.036	91.9715
441.57	91.5476
444.12	91.1259
446.684	90.7063
449.262	90.2885
451.856	89.8728
454.465	89.4588
457.088	89.047
459.727	88.6372
462.381	88.2291
465.05	87.8232
467.735	87.4189
470.435	87.0167
473.151	86.6161
475.883	86.2176
478.63	85.8208
481.393	85.4259
484.172	85.0334
486.968	84.6422
489.779	84.253
492.606	83.8654
495.45	83.4798
498.31	83.0961
501.187	82.7141
504.081	82.3337
506.991	81.9553
509.918	81.5788
512.861	81.204
515.822	80.8311
518.8	80.4601
521.795	80.0908
524.807	79.7234
527.837	79.3575
530.884	78.9936
533.949	78.6315
537.032	78.271
540.132	77.9124
543.25	77.5553
546.387	77.2001
549.541	76.8466
552.713	76.4947
555.904	76.1445
559.114	75.7961
562.341	75.4499
565.588	75.1057
568.853	74.7629
572.137	74.4219
575.44	74.0823
578.762	73.7445
582.103	73.4081
585.464	73.0732
588.844	72.7401
592.243	72.4084
595.662	72.0785
599.101	71.7501
602.56	71.423
606.038	71.0975
609.537	70.7734
613.056	70.4509
616.595	70.1298
620.155	69.8103
623.735	69.4921
627.336	69.1754
630.957	68.8601
634.6	68.5462
638.263	68.2336
641.948	67.9231
645.654	67.6146
649.382	67.3074
653.131	67.0015
656.901	66.697
660.693	66.3938
664.508	66.092
668.344	65.7917
672.202	65.4926
676.083	65.1949
679.986	64.8986
683.912	64.6037
687.86	64.3101
691.831	64.0179
695.825	63.7271
699.842	63.4376
703.882	63.1493
707.946	62.8623
712.033	62.5767
716.143	62.2924
720.278	62.0095
724.436	61.7279
728.618	61.4477
732.825	61.1687
737.055	60.8912
741.31	60.615
745.59	60.3402
749.894	60.0667
754.223	59.7946
758.578	59.5238
762.957	59.2544
767.361	58.9864
771.792	58.7197
776.247	58.4543
780.728	58.1903
785.236	57.9277
789.769	57.6663
794.328	57.4062
798.914	57.1475
803.526	56.8899
808.165	56.6334
812.831	56.3783
817.523	56.1244
822.243	55.8717
826.99	55.6204
831.764	55.3703
836.566	55.1214
841.395	54.8738
846.253	54.6274
851.138	54.3821
856.052	54.1381
860.994	53.8953
865.964	53.6538
870.964	53.4134
875.992	53.1743
881.049	52.9364
886.135	52.6996
891.251	52.4641
896.396	52.2298
901.571	51.9967
906.776	51.7647
912.011	51.534
917.276	51.3043
922.571	51.0759
927.897	50.8486
933.254	50.6224
938.642	50.3974
944.061	50.1734
949.511	49.9505
954.993	49.7287
960.506	49.508
966.051	49.2882
971.628	49.0695
977.237	48.8519
982.879	48.6352
988.553	48.4196
994.26	48.205
1000	47.9915
1005.77	47.779
1011.58	47.5675
1017.42	47.3571
1023.29	47.1477
1029.2	46.9393
1035.14	46.732
1041.12	46.5257
1047.13	46.3204
1053.17	46.1162
1059.25	45.913
1065.37	45.7108
1071.52	45.5096
1077.71	45.3094
1083.93	45.1102
1090.18	44.912
1096.48	44.7148
1102.81	44.5186
1109.17	44.3233
1115.58	44.1289
1122.02	43.9355
1128.5	43.743
1135.01	43.5515
1141.56	43.3609
1148.15	43.1712
1154.78	42.9825
1161.45	42.7933
1168.15	42.6036
1174.9	42.4148
1181.68	42.227
1188.5	42.0401
1195.36	41.8542
1202.26	41.6692
1209.21	41.485
1216.19	41.3017
1223.21	41.1194
1230.27	40.938
1237.37	40.7576
1244.51	40.578
1251.7	40.3993
1258.93	40.2216
1266.19	40.0447
1273.5	39.8688
1280.86	39.6938
1288.25	39.5197
1295.69	39.3464
1303.17	39.174
1310.69	39.0025
1318.26	38.8319
1325.87	38.6622
1333.52	38.4934
1341.22	38.3254
1348.96	38.1583
1356.75	37.9895
1364.58	37.8203
1372.46	37.652
1380.38	37.4846
1388.35	37.318
1396.37	37.1523
1404.43	36.9874
1412.54	36.8233
1420.69	36.66
1428.89	36.4975
1437.14	36.3359
1445.44	36.1751
1453.78	36.0151
1462.18	35.856
1470.62	35.6977
1479.11	35.5402
1487.65	35.3835
1496.24	35.2277
1504.87	35.0727
1513.56	34.9185
1522.3	34.7651
1531.09	34.6125
1539.93	34.4608
1548.82	34.307
1557.76	34.1519
1566.75	33.9976
1575.8	33.8442
1584.89	33.6916
1594.04	33.5399
1603.25	33.3889
1612.5	33.2385
1621.81	33.0891
1631.17	32.9404
1640.59	32.7926
1650.06	32.6456
1659.59	32.4993
1669.17	32.3538
1678.8	32.2093
1688.5	32.0654
1698.24	31.9224
1708.05	31.7802
1717.91	31.6388
1727.83	31.4982
1737.8	31.3583
1747.83	31.2193
1757.92	31.081
1768.07	30.9435
1778.28	30.8068
1788.55	30.6707
1798.87	30.5355
1809.26	30.4017
1819.7	30.2687
1830.21	30.1366
1840.77	30.0051
1851.4	29.8744
1862.09	29.7444
1872.84	29.6152
1883.65	29.4866
1894.52	29.3588
1905.46	29.2318
1916.46	29.1054
1927.52	28.9798
1938.65	28.8548
1949.84	28.7306
1961.1	28.6071
1972.42	28.4843
1983.81	28.3621
1995.26	28.2407
2006.78	28.1199
2018.37	27.9997
2030.02	27.8803
2041.74	27.7614
2053.53	27.6432
2065.38	27.5257
2077.3	27.4087
2089.3	27.2923
2101.36	27.1767
2113.49	27.0626
2125.69	26.9491
2137.96	26.8362
2150.3	26.7239
2162.72	26.6121
2175.2	26.5009
2187.76	26.3902
2200.39	26.2801
2213.09	26.1706
2225.87	26.0616
2238.72	25.9531
2251.65	25.8452
2264.64	25.7378
2277.72	25.6309
2290.87	25.5245
2304.09	25.4187
2317.39	25.3133
2330.77	25.2084
2344.23	25.1041
2357.76	25.0001
2371.37	24.8966
2385.06	24.7936
2398.83	24.691
2412.68	24.5901
2426.61	24.4898
2440.62	24.3898
2454.71	24.2904
2468.88	24.1913
2483.13	24.0927
2497.47	23.9946
2511.89	23.8969
2526.39	23.7997
2540.97	23.7029
2555.64	23.6066
2570.4	23.5108
2585.23	23.4154
2600.16	23.3205
2615.17	23.2261
2630.27	23.1322
2645.45	23.0387
2660.73	22.9457
2676.09	22.8532
2691.53	22.7612
2707.07	22.6697
2722.7	22.5786
2738.42	22.488
2754.23	22.398
2770.13	22.3084
2786.12	22.2193
2802.21	22.1307
2818.38	22.0425
2834.65	21.9547
2851.02	21.8675
2867.48	21.7806
2884.03	21.6943
2900.68	21.6086
2917.43	21.5232
2934.27	21.4384
2951.21	21.3541
2968.25	21.2702
2985.38	21.1868
3002.62	21.1039
3019.95	21.0215
3037.39	20.9395
3054.92	20.8581
3072.56	20.7771
3090.3	20.6966
3108.14	20.6165
3126.08	20.537
3144.13	20.4579
3162.28	20.3793
3180.53	20.3012
3198.9	20.2236
3217.36	20.1462
3235.94	20.0693
3254.62	19.9929
3273.41	19.9169
3292.3	19.8414
3311.31	19.7663
3330.43	19.6918
3349.65	19.6177
3368.99	19.544
3388.44	19.4708
3408	19.3981
3427.68	19.3258
3447.47	19.2539
3467.37	19.1824
3487.39	19.1114
3507.52	19.0408
3527.77	18.9706
3548.13	18.9008
3568.62	18.8314
3589.22	18.7625
3609.94	18.6939
3630.78	18.6258
3651.74	18.558
3672.82	18.4906
3694.03	18.4236
3715.35	18.3571
3736.8	18.2909
3758.37	18.2251
3780.07	18.1597
3801.89	18.0947
3823.84	18.0301
3845.92	17.9658
3868.12	17.9019
3890.45	17.8384
3912.91	17.7753
3935.5	17.7125
3958.22	17.65
3981.07	17.5879
4004.05	17.5262
4027.17	17.4648
4050.42	17.4037
4073.8	17.3429
4097.32	17.2825
4120.98	17.2224
4144.77	17.1626
4168.69	17.1032
4192.76	17.0441
4216.97	16.9853
4241.31	16.9268
4265.8	16.8686
4290.42	16.8108
4315.19	16.7533
4340.1	16.6962
4365.16	16.6393
4390.36	16.5828
4415.7	16.5266
4441.2	16.4708
4466.84	16.4153
4492.62	16.3601
4518.56	16.3052
4544.65	16.2506
4570.88	16.1964
4597.27	16.1425
4623.81	16.0889
4650.5	16.0357
4677.35	15.9827
4704.35	15.93
4731.51	15.8777
4758.83	15.8256
4786.3	15.7739
4813.93	15.7225
4841.72	15.6713
4869.68	15.6205
4897.79	15.57
4926.06	15.5198
4954.5	15.4698
4983.1	15.4202
5011.87	15.3708
5040.81	15.3218
5069.91	15.273
5099.18	15.2246
5128.61	15.1764
5158.22	15.1285
5188	15.0809
5217.95	15.0336
5248.07	14.9867
5278.37	14.9399
5308.84	14.8935
5339.49	14.8474
5370.32	14.8015
5401.32	14.756
5432.5	14.7107
5463.87	14.6657
5495.41	14.6209
5527.13	14.5765
5559.04	14.5323
5591.14	14.4883
5623.41	14.4447
5655.88	14.4014
5688.53	14.3584
5721.37	14.3157
5754.4	14.2732
5787.62	14.2309
5821.03	14.1889
5854.64	14.1472
5888.44	14.1057
5922.43	14.0645
5956.62	14.0235
5991.01	13.9828
6025.6	13.9422
6060.38	13.902
6095.37	13.862
6130.56	13.8222
6165.95	13.7826
6201.55	13.7433
6237.35	13.7042
6273.36	13.6654
6309.57	13.6267
6346	13.5883
6382.63	13.5501
6419.48	13.5122
6456.54	13.4746
6493.82	13.4373
6531.31	13.4001
6569.01	13.3631
6606.93	13.3264
6645.08	13.2898
6683.44	13.2536
6722.02	13.2175
6760.83	13.1816
6799.86	13.1459
6839.12	13.1105
6878.6	13.0753
6918.31	13.0402
6958.25	13.0054
6998.42	12.9708
7038.82	12.9364
7079.46	12.9022
7120.33	12.8682
7161.43	12.8344
7202.78	12.8008
7244.36	12.7674
7286.18	12.7342
7328.25	12.7013
7370.55	12.6685
7413.1	12.636
7455.9	12.6037
7498.94	12.5716
7542.23	12.5396
7585.78	12.5079
7629.57	12.4764
7673.61	12.4451
7717.92	12.4141
7762.47	12.3832
7807.28	12.3525
7852.36	12.322
7897.69	12.2918
7943.28	12.2617
7989.14	12.2319
8035.26	12.2021
8081.65	12.1726
8128.31	12.1433
8175.23	12.1142
8222.43	12.0853
8269.9	12.0565
8317.64	12.028
8365.66	11.9997
8413.95	11.9715
8462.53	11.9435
8511.38	11.9157
8560.52	11.8881
8609.94	11.8607
8659.64	11.8334
8709.64	11.8064
8759.92	11.7795
8810.49	11.7528
8861.35	11.7263
8912.51	11.7
8963.96	11.6739
9015.71	11.6479
9067.76	11.6222
9120.11	11.5966
9172.76	11.5711
9225.71	11.5459
9278.97	11.5208
9332.54	11.4959
9386.42	11.4712
9440.61	11.4467
9495.11	11.4223
9549.93	11.398
9605.06	11.3739
9660.51	11.35
9716.28	11.3263
9772.37	11.3027
9828.79	11.2793
9885.53	11.256
9942.6	11.2329
10000	11.2098
10057.7	11.187
10115.8	11.1644
10174.2	11.1419
10232.9	11.1195
10292	11.0973
10351.4	11.0753
10411.2	11.0534
10471.3	11.0317
10531.7	11.0101
10592.5	10.9887
10653.7	10.9674
10715.2	10.9463
10777.1	10.9253
10839.3	10.9045
10901.8	10.8838
10964.8	10.8633
11028.1	10.8429
11091.7	10.8226
11155.8	10.8025
11220.2	10.7826
11285	10.7627
11350.1	10.743
11415.6	10.7234
11481.5	10.704
11547.8	10.6847
11614.5	10.6655
11681.5	10.6465
11749	10.6275
11816.8	10.6088
11885	10.5901
11953.6	10.5715
12022.6	10.5531
12092.1	10.5347
12161.9	10.5164
12232.1	10.4982
12302.7	10.4802
12373.7	10.4623
12445.1	10.4446
12517	10.4269
12589.3	10.4094
12661.9	10.392
12735	10.3748
12808.6	10.3577
12882.5	10.3407
12956.9	10.3238
13031.7	10.307
13106.9	10.2904
13182.6	10.2738
13258.7	10.2574
13335.2	10.2411
13412.2	10.2249
13489.6	10.2088
13567.5	10.1929
13645.8	10.177
13724.6	10.1612
13803.8	10.1456
13883.5	10.13
13963.7	10.1146
14044.3	10.0991
14125.4	10.0836
14206.9	10.0683
14288.9	10.053
14371.4	10.0379
14454.4	10.0229
14537.8	10.008
14621.8	9.99326
14706.2	9.97859
14791.1	9.96404
14876.5	9.94959
14962.4	9.93523
15048.7	9.92099
15135.6	9.90688
15223	9.89282
15310.9	9.87889
15399.3	9.86508
15488.2	9.85133
15577.6	9.83769
15667.5	9.82415
15758	9.8107
15848.9	9.79733
15940.4	9.78406
16032.5	9.77074
16125	9.75727
16218.1	9.74392
16311.7	9.73069
16405.9	9.71752
16500.6	9.70447
16595.9	9.69153
16691.7	9.67868
16788	9.66595
16885	9.6533
16982.4	9.64074
17080.5	9.62829
17179.1	9.61593
17278.3	9.60366
17378	9.5915
17478.3	9.57946
17579.2	9.56746
17680.7	9.55559
17782.8	9.54382
17885.5	9.53211
17988.7	9.52051
18092.6	9.50903
18197	9.49759
18302.1	9.48627
18407.7	9.47503
18514	9.4639
18620.9	9.45286
18728.4	9.44189
18836.5	9.431
18945.2	9.42023
19054.6	9.40953
19164.6	9.39892
19275.2	9.38841
19386.5	9.37795
19498.4	9.3676
19611	9.35736
19724.2	9.34716
19838.1	9.33704
19952.6	9.32704
20067.8	9.31711
20183.7	9.30725
20300.2	9.2975
20417.4	9.2878
20535.3	9.2782
20653.8	9.26869
20773	9.25924
20893	9.24987
21013.6	9.24058
21134.9	9.23139
21256.9	9.22224
21379.6	9.2132
21503	9.20423
21627.2	9.19531
21752	9.18649
21877.6	9.17777
22003.9	9.1691
22130.9	9.16049
22258.7	9.15196
22387.2	9.14353
22516.5	9.13514
22646.4	9.12686
22777.2	9.11861
22908.7	9.11047
23040.9	9.1024
23173.9	9.09437
23307.7	9.08643
23442.3	9.07857
23577.6	9.07078
23713.7	9.06303
23850.6	9.05537
23988.3	9.04779
24126.8	9.04027
24266.1	9.03279
24406.2	9.02541
24547.1	9.0181
24688.8	9.01082
24831.3	9.00365
24974.7	8.9965
25118.9	8.98946
25263.9	8.98245
25409.7	8.97555
25556.4	8.96867
25704	8.96186
25852.3	8.95515
26001.6	8.94847
26151.7	8.94186
26302.7	8.93528
26454.5	8.9288
26607.3	8.92238
26760.9	8.916
26915.3	8.90971
27070.7	8.90345
27227	8.89726
27384.2	8.89113
27542.3	8.88507
27701.3	8.87907
27861.2	8.87313
28022.1	8.86722
28183.8	8.86137
28346.5	8.85559
28510.2	8.84987
28674.8	8.84421
28840.3	8.83861
29006.8	8.83305
29174.3	8.82754
29342.7	8.82209
29512.1	8.81671
29682.5	8.81135
29853.8	8.80609
30026.2	8.80085
30199.5	8.79568
30373.9	8.79053
30549.2	8.78548
30725.6	8.78045
30903	8.77549
31081.4	8.77058
31260.8	8.76569
31441.3	8.76087
31622.8	8.75611
31805.3	8.7514
31989	8.74672
32173.6	8.7421
32359.4	8.73754
32546.2	8.733
32734.1	8.72855
32923	8.72413
33113.1	8.71973
33304.3	8.71539
33496.5	8.7111
33689.9	8.70687
33884.4	8.70267
34080	8.69852
34276.8	8.69443
34474.7	8.69036
34673.7	8.68635
34873.9	8.68239
35075.2	8.67846
35277.7	8.67458
35481.3	8.67076
35686.2	8.66696
35892.2	8.66321
36099.4	8.65949
36307.8	8.65582
36517.4	8.65221
36728.2	8.64861
36940.3	8.64507
37153.5	8.64158
37368	8.63812
37583.7	8.63471
37800.7	8.63132
38018.9	8.62798
38238.4	8.6247
38459.2	8.62143
38681.2	8.61819
38904.5	8.615
39129.1	8.61186
39355	8.60877
39582.2	8.6057
39810.7	8.60265
40040.5	8.59966
40271.7	8.59671
40504.2	8.59379
40738	8.59088
40973.2	8.58806
41209.8	8.58522
41447.7	8.58243
41686.9	8.5797
41927.6	8.57701
42169.7	8.57431
42413.1	8.57169
42658	8.56906
42904.2	8.56651
43151.9	8.56398
43401	8.56146
43651.6	8.55899
43903.6	8.55654
44157	8.55414
44412	8.55176
44668.4	8.54942
44926.2	8.5471
45185.6	8.54483
45446.5	8.54258
45708.8	8.54034
45972.7	8.53815
46238.1	8.53601
46505	8.53388
46773.5	8.53177
47043.5	8.52971
47315.1	8.52769
47588.3	8.52566
47863	8.5237
48139.3	8.52173
48417.2	8.51981
48696.8	8.51793
48977.9	8.51607
49260.6	8.51421
49545	8.51241
49831	8.51062
50118.7	8.50885
50408.1	8.50712
50699.1	8.5054
50991.8	8.50373
51286.1	8.50208
51582.2	8.50047
51880	8.49887
52179.5	8.49728
52480.7	8.49575
52783.7	8.49422
53088.4	8.4927
53394.9	8.49123
53703.2	8.48978
54013.2	8.48836
54325	8.48696
54638.7	8.48558
54954.1	8.4842
55271.3	8.48287
55590.4	8.48158
55911.4	8.48027
56234.1	8.479
56558.8	8.47778
56885.3	8.47654
57213.7	8.47534
57544	8.47418
57876.2	8.473
58210.3	8.47187
58546.4	8.47078
58884.4	8.46967
59224.3	8.4686
59566.2	8.46757
59910.1	8.46652
60256	8.46551
60603.8	8.46452
60953.7	8.46356
61305.6	8.46262
61659.5	8.46168
62015.5	8.46076
62373.5	8.45987
62733.6	8.459
63095.7	8.45813
63460	8.45731
63826.3	8.45647
64194.8	8.45569
64565.4	8.4549
64938.2	8.45414
65313.1	8.4534
65690.1	8.45266
66069.3	8.45193
66450.8	8.45125
66834.4	8.45057
67220.2	8.44989
67608.3	8.44926
67998.6	8.44864
68391.2	8.44803
68786	8.44742
69183.1	8.44683
69582.5	8.44627
69984.2	8.44571
70388.2	8.44517
70794.6	8.44467
71203.3	8.44418
71614.3	8.44365
72027.8	8.4432
72443.6	8.44273
72861.8	8.4423
73282.5	8.44187
73705.5	8.44145
74131	8.44103
74559	8.44063
74989.4	8.44026
75422.3	8.4399
75857.8	8.43955
76295.7	8.43923
76736.1	8.43889
77179.2	8.43858
77624.7	8.43829
78072.8	8.438
78523.6	8.43771
78976.9	8.43747
79432.8	8.43723
79891.4	8.43696
80352.6	8.43676
80816.5	8.43654
81283.1	8.43632
81752.3	8.43614
82224.3	8.43597
82699	8.4358
83176.4	8.43564
83656.6	8.43551
84139.5	8.43536
84625.3	8.43524
85113.8	8.43513
85605.2	8.43503
86099.4	8.43493
86596.4	8.43483
87096.4	8.43478
87599.2	8.43472
88104.9	8.43464
88613.5	8.4346
89125.1	8.43459
89639.6	8.43456
90157.1	8.43452
90677.6	8.43453
91201.1	8.43454
91727.6	8.43455
92257.1	8.43457
92789.7	8.4346
93325.4	8.43462
93864.2	8.43468
94406.1	8.43472
94951.1	8.43479
95499.3	8.43486
96050.6	8.43495
96605.1	8.43503
97162.8	8.43511
97723.7	8.43523
98287.9	8.43533
98855.3	8.43546
99426	8.43559
100000	8.43572
100577	8.43586
101158	8.436
101742	8.43615
102329	8.4363
102920	8.43648
103514	8.43663
104112	8.43683
104713	8.43702
105317	8.43721
105925	8.43741
106537	8.43761
107152	8.43782
107771	8.43802
108393	8.43827
109018	8.43848
109648	8.43872
110281	8.43894
110917	8.43919
111558	8.43945
112202	8.4397
112850	8.43996
113501	8.44023
114156	8.44049
114815	8.44079
115478	8.44105
116145	8.44136
116815	8.44163
117490	8.44193
118168	8.44224
118850	8.44252
119536	8.44283
120226	8.44315
120921	8.44346
121619	8.44378
122321	8.44413
123027	8.44445
123737	8.44477
124451	8.44513
125170	8.44546
125893	8.44578
126619	8.44614
127350	8.44651
128086	8.44684
128825	8.4472
129569	8.44757
130317	8.44794
131069	8.44831
131826	8.44868
132587	8.44905
133352	8.44942
134122	8.44979
134896	8.45017
135675	8.45058
136458	8.45096
137246	8.45133
138038	8.45174
138835	8.45212
139637	8.45254
140443	8.45292
141254	8.45333
142069	8.45375
142889	8.45413
143714	8.45455
144544	8.45497
145378	8.45539
146218	8.45581
147062	8.45619
147911	8.45661
148765	8.45703
149624	8.45746
150487	8.45788
151356	8.45833
152230	8.45876
153109	8.45918
153993	8.45961
154882	8.46003
155776	8.46046
156675	8.46091
157580	8.46134
158489	8.46176
159404	8.46222
160325	8.46265
161250	8.46311
162181	8.46353
163117	8.46396
164059	8.46442
165006	8.46484
165959	8.4653
166917	8.46573
167880	8.46619
168850	8.46665
169824	8.46708
170805	8.46754
171791	8.46799
172783	8.46842
173780	8.46888
174783	8.46934
175792	8.46977
176807	8.47022
177828	8.47068
178855	8.47111
179887	8.47157
180926	8.47203
181970	8.47248
183021	8.47294
184077	8.47337
185140	8.47382
186209	8.47428
187284	8.47474
188365	8.47519
189452	8.47565
190546	8.47607
191646	8.47652
192752	8.47698
193865	8.47743
194984	8.47789
196110	8.47834
197242	8.47879
198381	8.47924
199526	8.47966
200678	8.48011
201837	8.48056
203002	8.48101
204174	8.48146
205353	8.48191
206538	8.48236
207730	8.4828
208930	8.48325
210136	8.48366
211349	8.48411
212569	8.48456
213796	8.485
215030	8.48544
216272	8.48588
217520	8.48633
218776	8.48677
220039	8.48718
221309	8.48762
222587	8.48806
223872	8.48849
225165	8.48893
226464	8.48937
227772	8.48977
229087	8.49021
230409	8.49064
231739	8.49107
233077	8.49151
234423	8.4919
235776	8.49233
237137	8.49276
238506	8.49319
239883	8.49359
241268	8.49402
242661	8.49444
244062	8.49484
245471	8.49526
246888	8.49568
248313	8.49607
249747	8.49649
251189	8.49691
252639	8.4973
254097	8.49772
255564	8.4981
257040	8.49852
258523	8.49894
260016	8.49932
261517	8.49973
263027	8.50011
264545	8.50052
266073	8.5009
267609	8.50131
269153	8.50168
270707	8.50206
272270	8.50247
273842	8.50284
275423	8.50324
277013	8.50361
278612	8.50398
280221	8.50435
281838	8.50475
283465	8.50512
285102	8.50548
286748	8.50588
288403	8.50624
290068	8.5066
291743	8.50696
293427	8.50732
295121	8.50768
296825	8.50804
298538	8.50843
300262	8.50878
301995	8.50913
303739	8.50949
305492	8.50984
307256	8.51019
309030	8.51053
310814	8.51088
312608	8.5112
314413	8.51154
316228	8.51189
318053	8.51223
319890	8.51257
321736	8.51291
323594	8.51322
325462	8.51356
327341	8.5139
329230	8.51423
331131	8.51453
333043	8.51487
334965	8.5152
336899	8.5155
338844	8.51583
340800	8.51613
342768	8.51645
344747	8.51675
346737	8.51707
348739	8.51737
350752	8.51769
352777	8.51798
354813	8.5183
356862	8.51858
358922	8.51887
360994	8.51919
363078	8.51947
365174	8.51975
367282	8.52003
369403	8.52031
371535	8.52062
373680	8.5209
375837	8.52118
378007	8.52145
380189	8.52172
382384	8.522
384592	8.52227
386812	8.52254
389045	8.5228
391291	8.52307
393550	8.52334
395822	8.5236
398107	8.52387
400405	8.52413
402717	8.52436
405042	8.52462
407380	8.52488
409732	8.52514
412098	8.52537
414477	8.52562
416869	8.52587
419276	8.52609
421697	8.52635
424131	8.5266
426580	8.52681
429042	8.52707
431519	8.52728
434010	8.52753
436516	8.52774
439036	8.52795
441570	8.52819
444120	8.5284
446684	8.52861
449262	8.52885
451856	8.52906
454465	8.52926
457088	8.5295
459727	8.5297
462381	8.5299
465050	8.5301
467735	8.5303
470435	8.5305
473151	8.53069
475883	8.53089
478630	8.53109
481393	8.53128
484172	8.53147
486968	8.53166
489779	8.53185
492606	8.53204
495450	8.53223
498310	8.53241
501187	8.53257
504081	8.53275
506991	8.53294
509918	8.53312
512861	8.53327
515822	8.53345
518800	8.53363
521795	8.53378
524807	8.53395
527837	8.53413
530884	8.53427
533949	8.53444
537032	8.53459
540132	8.53476
543250	8.5349
546387	8.53503
549541	8.5352
552713	8.53534
555904	8.53547
559114	8.53564
562341	8.53577
565588	8.5359
568853	8.53607
572137	8.53619
575440	8.53632
578762	8.53645
582103	8.53658
585464	8.5367
588844	8.53683
592243	8.53695
595662	8.53711
599101	8.53723
602560	8.53735
606038	8.53744
609537	8.53756
613056	8.53767
616595	8.53779
620155	8.53791
623735	8.53802
627336	8.53814
630957	8.53825
634600	8.53833
638263	8.53844
641948	8.53856
645654	8.53863
649382	8.53874
653131	8.53885
656901	8.53893
660693	8.53903
664508	8.53914
668344	8.53921
672202	8.53932
676083	8.53939
679986	8.53949
683912	8.53956
687860	8.53966
691831	8.53973
695825	8.53983
699842	8.5399
703882	8.53996
707946	8.54006
712033	8.54012
716143	8.54019
720278	8.54028
724436	8.54034
728618	8.5404
732825	8.54046
737055	8.54055
741310	8.54061
745590	8.54067
749894	8.54073
754223	8.54078
758578	8.54084
762957	8.5409
767361	8.54095
771792	8.541
776247	8.54106
780728	8.54111
785236	8.54116
789769	8.54122
794328	8.54127
798914	8.54132
803526	8.54137
808165	8.54142
812831	8.54146
817523	8.54151
822243	8.54156
826990	8.54157
831764	8.54162
836566	8.54166
841395	8.54171
846253	8.54175
851138	8.54176
856052	8.54181
860994	8.54185
865964	8.54186
870964	8.5419
875992	8.54194
881049	8.54195
886135	8.54199
891251	8.542
896396	8.54204
901571	8.54208
906776	8.54208
912011	8.54212
917276	8.54213
922571	8.54216
927897	8.54217
933254	8.54221
938642	8.54221
944061	8.54224
949511	8.54224
954993	8.54225
960506	8.54228
966051	8.54228
971628	8.54232
977237	8.54232
982879	8.54232
988553	8.54235
994260	8.54235
1e+06	8.54235
1.00577e+06	8.54238
1.01158e+06	8.54238
1.01742e+06	8.54238
1.02329e+06	8.54237
1.0292e+06	8.5424
1.03514e+06	8.5424
1.04112e+06	8.5424
1.04713e+06	8.54239
1.05317e+06	8.54239
1.05925e+06	8.54242
1.06537e+06	8.54242
1.07152e+06	8.54241
1.07771e+06	8.54241
1.08393e+06	8.5424
1.09018e+06	8.5424
1.09648e+06	8.54239
1.10281e+06	8.54242
1.10917e+06	8.54242
1.11558e+06	8.54241
1.12202e+06	8.54241
1.1285e+06	8.5424
1.13501e+06	8.54239
1.14156e+06	8.54238
1.14815e+06	8.54238
1.15478e+06	8.54237
1.16145e+06	8.54236
1.16815e+06	8.54236
1.1749e+06	8.54235
1.18168e+06	8.54234
1.1885e+06	8.54234
1.19536e+06	8.54233
1.20226e+06	8.54232
1.20921e+06	8.54232
1.21619e+06	8.54231
1.22321e+06	8.5423
1.23027e+06	8.54229
1.23737e+06	8.54229
1.24451e+06	8.54228
1.2517e+06	8.54227
1.25893e+06	8.54227
1.26619e+06	8.54226
1.2735e+06	8.54222
1.28086e+06	8.54221
1.28825e+06	8.5422
1.29569e+06	8.54219
1.30317e+06	8.54218
1.31069e+06	8.54218
1.31826e+06	8.54217
1.32587e+06	8.54216
1.33352e+06	8.54216
1.34122e+06	8.54211
1.34896e+06	8.54211
1.35675e+06	8.5421
1.36458e+06	8.54209
1.37246e+06	8.54209
1.38038e+06	8.54208
1.38835e+06	8.54207
1.39637e+06	8.54203
1.40443e+06	8.54202
1.41254e+06	8.54202
1.42069e+06	8.54201
1.42889e+06	8.542
1.43714e+06	8.54196
1.44544e+06	8.54196
1.45378e+06	8.54195
1.46218e+06	8.54194
1.47062e+06	8.54194
1.47911e+06	8.54193
1.48765e+06	8.54189
1.49624e+06	8.54188
1.50487e+06	8.54188
1.51356e+06	8.54187
1.5223e+06	8.54186
1.53109e+06	8.54182
1.53993e+06	8.54182
1.54882e+06	8.54181
1.55776e+06	8.54181
1.56675e+06	8.5418
1.5758e+06	8.54179
1.58489e+06	8.54175
1.59404e+06	8.54175
1.60325e+06	8.54174
1.6125e+06	8.54174
1.62181e+06	8.54173
1.63117e+06	8.54169
1.64059e+06	8.54169
1.65006e+06	8.54168
1.65959e+06	8.54168
1.66917e+06	8.54167
1.6788e+06	8.54167
1.6885e+06	8.54163
1.69824e+06	8.54162
1.70805e+06	8.54162
1.71791e+06	8.54161
1.72783e+06	8.54161
1.7378e+06	8.5416
1.74783e+06	8.5416
1.75792e+06	8.54156
1.76807e+06	8.54155
1.77828e+06	8.54155
1.78855e+06	8.54154
1.79887e+06	8.54154
1.80926e+06	8.54153
1.8197e+06	8.54149
1.83021e+06	8.54149
1.84077e+06	8.54149
1.8514e+06	8.54148
1.86209e+06	8.54148
1.87284e+06	8.54147
1.88365e+06	8.54147
1.89452e+06	8.54143
1.90546e+06	8.54142
1.91646e+06	8.54142
1.92752e+06	8.54142
1.93865e+06	8.54141
1.94984e+06	8.54141
1.9611e+06	8.5414
1.97242e+06	8.5414
1.98381e+06	8.54136
1.99526e+06	8.54136
2.00678e+06	8.54135
2.01837e+06	8.54135
2.03002e+06	8.54135
2.04174e+06	8.54134
2.05353e+06	8.54134
2.06538e+06	8.54133
2.0773e+06	8.5413
2.0893e+06	8.54129
2.10136e+06	8.54129
2.11349e+06	8.54128
2.12569e+06	8.54128
2.13796e+06	8.54128
2.1503e+06	8.54127
2.16272e+06	8.54127
2.1752e+06	8.54127
2.18776e+06	8.54123
2.20039e+06	8.54123
2.21309e+06	8.54122
2.22587e+06	8.54122
2.23872e+06	8.54122
2.25165e+06	8.54121
2.26464e+06	8.54121
2.27772e+06	8.54121
2.29087e+06	8.5412
2.30409e+06	8.54116
2.31739e+06	8.54116
2.33077e+06	8.54116
2.34423e+06	8.54116
2.35776e+06	8.54115
2.37137e+06	8.54115
2.38506e+06	8.54115
2.39883e+06	8.54114
2.41268e+06	8.54114
2.42661e+06	8.54114
2.44062e+06	8.5411
2.45471e+06	8.5411
2.46888e+06	8.54109
2.48313e+06	8.54109
2.49747e+06	8.54109
2.51189e+06	8.54109
2.52639e+06	8.54108
2.54097e+06	8.54108
2.55564e+06	8.54108
2.5704e+06	8.54107
2.58523e+06	8.54107
2.60016e+06	8.54103
2.61517e+06	8.54103
2.63027e+06	8.54103
2.64545e+06	8.54103
2.66073e+06	8.54102
2.67609e+06	8.54102
2.69153e+06	8.54102
2.70707e+06	8.54102
2.7227e+06	8.54101
2.73842e+06	8.54101
2.75423e+06	8.54101
2.77013e+06	8.54101
2.78612e+06	8.541
2.80221e+06	8.54097
2.81838e+06	8.54096
2.83465e+06	8.54096
2.85102e+06	8.54096
2.86748e+06	8.54096
2.88403e+06	8.54096
2.90068e+06	8.54095
2.91743e+06	8.54095
2.93427e+06	8.54095
2.95121e+06	8.54095
2.96825e+06	8.54094
2.98538e+06	8.54094
3.00262e+06	8.54094
3.01995e+06	8.54094
3.03739e+06	8.5409
3.05492e+06	8.5409
3.07256e+06	8.5409
3.0903e+06	8.54089
3.10814e+06	8.54089
3.12608e+06	8.54089
3.14413e+06	8.54089
3.16228e+06	8.54089
3.18053e+06	8.54088
3.1989e+06	8.54088
3.21736e+06	8.54088
3.23594e+06	8.54088
3.25462e+06	8.54088
3.27341e+06	8.54087
3.2923e+06	8.54087
3.31131e+06	8.54087
3.33043e+06	8.54083
3.34965e+06	8.54083
3.36899e+06	8.54083
3.38844e+06	8.54083
3.408e+06	8.54083
3.42768e+06	8.54083
3.44747e+06	8.54082
3.46737e+06	8.54082
3.48739e+06	8.54082
3.50752e+06	8.54082
3.52777e+06	8.54082
3.54813e+06	8.54081
3.56862e+06	8.54081
3.58922e+06	8.54081
3.60994e+06	8.54081
3.63078e+06	8.54081
3.65174e+06	8.54081
3.67282e+06	8.5408
3.69403e+06	8.54077
3.71535e+06	8.54077
3.7368e+06	8.54077
3.75837e+06	8.54076
3.78007e+06	8.54076
3.80189e+06	8.54076
3.82384e+06	8.54076
3.84592e+06	8.54076
3.86812e+06	8.54076
3.89045e+06	8.54075
3.91291e+06	8.54075
3.9355e+06	8.54075
3.95822e+06	8.54075
3.98107e+06	8.54075
4.00405e+06	8.54075
4.02717e+06	8.54074
4.05042e+06	8.54074
4.0738e+06	8.54074
4.09732e+06	8.54074
4.12098e+06	8.54074
4.14477e+06	8.54074
4.16869e+06	8.5407
4.19276e+06	8.5407
4.21697e+06	8.5407
4.24131e+06	8.5407
4.2658e+06	8.5407
4.29042e+06	8.5407
4.31519e+06	8.54069
4.3401e+06	8.54069
4.36516e+06	8.54069
4.39036e+06	8.54069
4.4157e+06	8.54069
4.4412e+06	8.54069
4.46684e+06	8.54069
4.49262e+06	8.54069
4.51856e+06	8.54068
4.54465e+06	8.54068
4.57088e+06	8.54068
4.59727e+06	8.54068
4.62381e+06	8.54068
4.6505e+06	8.54068
4.67735e+06	8.54068
4.70435e+06	8.54067
4.73151e+06	8.54067
4.75883e+06	8.54067
4.7863e+06	8.54067
4.81393e+06	8.54067
4.84172e+06	8.54064
4.86968e+06	8.54063
4.89779e+06	8.54063
4.92606e+06	8.54063
4.9545e+06	8.54063
4.9831e+06	8.54063
5.01187e+06	8.54063
5.04081e+06	8.54063
5.06991e+06	8.54063
5.09918e+06	8.54063
5.12861e+06	8.54062
5.15822e+06	8.54062
5.188e+06	8.54062
5.21795e+06	8.54062
5.24807e+06	8.54062
5.27837e+06	8.54062
5.30884e+06	8.54062
5.33949e+06	8.54062
5.37032e+06	8.54061
5.40132e+06	8.54061
5.4325e+06	8.54061
5.46387e+06	8.54061
5.49541e+06	8.54061
5.52713e+06	8.54061
5.55904e+06	8.54061
5.59114e+06	8.54061
5.62341e+06	8.54061
5.65588e+06	8.5406
5.68853e+06	8.5406
5.72137e+06	8.5406
5.7544e+06	8.5406
5.78762e+06	8.5406
5.82103e+06	8.54057
5.85464e+06	8.54057
5.88844e+06	8.54057
5.92243e+06	8.54057
5.95662e+06	8.54057
5.99101e+06	8.54056
6.0256e+06	8.54056
6.06038e+06	8.54056
6.09537e+06	8.54056
6.13056e+06	8.54056
6.16595e+06	8.54056
6.20155e+06	8.54056
6.23735e+06	8.54056
6.27336e+06	8.54056
6.30957e+06	8.54056
6.346e+06	8.54055
6.38263e+06	8.54055
6.41948e+06	8.54055
6.45654e+06	8.54055
6.49382e+06	8.54055
6.53131e+06	8.54055
6.56901e+06	8.54055
6.60693e+06	8.54055
6.64508e+06	8.54055
6.68344e+06	8.54055
6.72202e+06	8.54055
6.76083e+06	8.54054
6.79986e+06	8.54054
6.83912e+06	8.54054
6.8786e+06	8.54054
6.91831e+06	8.54054
6.95825e+06	8.54054
6.99842e+06	8.54054
7.03882e+06	8.54054
7.07946e+06	8.54054
7.12033e+06	8.54054
7.16143e+06	8.54054
7.20278e+06	8.54054
7.24436e+06	8.54054
7.28618e+06	8.54053
7.32825e+06	8.54053
7.37055e+06	8.54053
7.4131e+06	8.5405
7.4559e+06	8.5405
7.49894e+06	8.5405
7.54223e+06	8.5405
7.58578e+06	8.5405
7.62957e+06	8.5405
7.67361e+06	8.5405
7.71792e+06	8.5405
7.76247e+06	8.5405
7.80728e+06	8.5405
7.85236e+06	8.54049
7.89769e+06	8.54049
7.94328e+06	8.54049
7.98914e+06	8.54049
8.03526e+06	8.54049
8.08165e+06	8.54049
8.12831e+06	8.54049
8.17523e+06	8.54049
8.22243e+06	8.54049
8.2699e+06	8.54049
8.31764e+06	8.54049
8.36566e+06	8.54049
8.41395e+06	8.54049
8.46253e+06	8.54049
8.51138e+06	8.54048
8.56052e+06	8.54048
8.60994e+06	8.54048
8.65964e+06	8.54048
8.70964e+06	8.54048
8.75992e+06	8.54048
8.81049e+06	8.54048
8.86135e+06	8.54048
8.91251e+06	8.54048
8.96396e+06	8.54048
9.01571e+06	8.54048
9.06776e+06	8.54048
9.12011e+06	8.54048
9.17276e+06	8.54048
9.22571e+06	8.54048
9.27897e+06	8.54048
9.33254e+06	8.54048
9.38642e+06	8.54047
9.44061e+06	8.54047
9.49511e+06	8.54047
9.54993e+06	8.54047
9.60506e+06	8.54047
9.66051e+06	8.54047
9.71628e+06	8.54047
9.77237e+06	8.54047
9.82879e+06	8.54047
9.88553e+06	8.54047
9.9426e+06	8.54047
1e+07	8.54047
