E [MeV]	dEdx [keV/microm]
0.001	32.2856
0.00100577	32.3794
0.00101158	32.4735
0.00101742	32.5678
0.00102329	32.6625
0.0010292	32.7574
0.00103514	32.8526
0.00104112	32.948
0.00104713	33.0438
0.00105317	33.1398
0.00105925	33.2361
0.00106537	33.3326
0.00107152	33.4295
0.00107771	33.5266
0.00108393	33.624
0.00109018	33.7216
0.00109648	33.8196
0.00110281	33.9179
0.00110917	34.0164
0.00111558	34.1152
0.00112202	34.2143
0.0011285	34.3137
0.00113501	34.4133
0.00114156	34.5133
0.00114815	34.6135
0.00115478	34.7141
0.00116145	34.8149
0.00116815	34.916
0.0011749	35.0174
0.00118168	35.1191
0.0011885	35.2211
0.00119536	35.3234
0.00120226	35.426
0.00120921	35.5288
0.00121619	35.632
0.00122321	35.7355
0.00123027	35.8392
0.00123737	35.9433
0.00124451	36.0477
0.0012517	36.1523
0.00125893	36.2573
0.00126619	36.3626
0.0012735	36.4682
0.00128086	36.5741
0.00128825	36.6802
0.00129569	36.7867
0.00130317	36.8935
0.00131069	37.0006
0.00131826	37.108
0.00132587	37.2158
0.00133352	37.3238
0.00134122	37.4321
0.00134896	37.5408
0.00135675	37.6498
0.00136458	37.759
0.00137246	37.8687
0.00138038	37.9786
0.00138835	38.0888
0.00139637	38.1993
0.00140443	38.3102
0.00141254	38.4214
0.00142069	38.5329
0.00142889	38.6448
0.00143714	38.7569
0.00144544	38.8694
0.00145378	38.9822
0.00146218	39.0953
0.00147062	39.2088
0.00147911	39.3225
0.00148765	39.4366
0.00149624	39.5511
0.00150487	39.6658
0.00151356	39.7809
0.0015223	39.8963
0.00153109	40.0121
0.00153993	40.1282
0.00154882	40.2446
0.00155776	40.3614
0.00156675	40.4785
0.0015758	40.5959
0.00158489	40.7137
0.00159404	40.8318
0.00160325	40.9503
0.0016125	41.0691
0.00162181	41.1882
0.00163117	41.3077
0.00164059	41.4275
0.00165006	41.5477
0.00165959	41.6682
0.00166917	41.7891
0.0016788	41.9103
0.0016885	42.0318
0.00169824	42.1538
0.00170805	42.276
0.00171791	42.3987
0.00172783	42.5217
0.0017378	42.645
0.00174783	42.7686
0.00175792	42.8927
0.00176807	43.0171
0.00177828	43.1419
0.00178855	43.267
0.00179887	43.3924
0.00180926	43.5183
0.0018197	43.6445
0.00183021	43.771
0.00184077	43.8979
0.0018514	44.0252
0.00186209	44.1529
0.00187284	44.2809
0.00188365	44.4093
0.00189452	44.5381
0.00190546	44.6672
0.00191646	44.7968
0.00192752	44.9266
0.00193865	45.0569
0.00194984	45.1875
0.0019611	45.3185
0.00197242	45.4499
0.00198381	45.5817
0.00199526	45.7139
0.00200678	45.8464
0.00201837	45.9793
0.00203002	46.1126
0.00204174	46.2463
0.00205353	46.3803
0.00206538	46.5148
0.0020773	46.6496
0.0020893	46.7848
0.00210136	46.9204
0.00211349	47.0565
0.00212569	47.1928
0.00213796	47.3296
0.0021503	47.4668
0.00216272	47.6044
0.0021752	47.7424
0.00218776	47.8808
0.00220039	48.0195
0.00221309	48.1587
0.00222587	48.2983
0.00223872	48.4383
0.00225165	48.5787
0.00226464	48.7194
0.00227772	48.8606
0.00229087	49.0022
0.00230409	49.1442
0.00231739	49.2866
0.00233077	49.4294
0.00234423	49.5727
0.00235776	49.7164
0.00237137	49.8604
0.00238506	50.0049
0.00239883	50.1498
0.00241268	50.2951
0.00242661	50.4409
0.00244062	50.587
0.00245471	50.7336
0.00246888	50.8806
0.00248313	51.028
0.00249747	51.1758
0.00251189	51.3241
0.00252639	51.4728
0.00254097	51.6219
0.00255564	51.7715
0.0025704	51.9215
0.00258523	52.0719
0.00260016	52.2228
0.00261517	52.374
0.00263027	52.5258
0.00264545	52.6779
0.00266073	52.8305
0.00267609	52.9836
0.00269153	53.1371
0.00270707	53.291
0.0027227	53.4454
0.00273842	53.6002
0.00275423	53.7554
0.00277013	53.9111
0.00278612	54.0673
0.00280221	54.2239
0.00281838	54.3809
0.00283465	54.5384
0.00285102	54.6964
0.00286748	54.8549
0.00288403	55.0137
0.00290068	55.173
0.00291743	55.3328
0.00293427	55.4931
0.00295121	55.6538
0.00296825	55.815
0.00298538	55.9766
0.00300262	56.1387
0.00301995	56.3013
0.00303739	56.4644
0.00305492	56.6279
0.00307256	56.7919
0.0030903	56.9563
0.00310814	57.1212
0.00312608	57.2867
0.00314413	57.4525
0.00316228	57.6189
0.00318053	57.7857
0.0031989	57.9531
0.00321736	58.1209
0.00323594	58.2892
0.00325462	58.4579
0.00327341	58.6272
0.0032923	58.7969
0.00331131	58.9672
0.00333043	59.1379
0.00334965	59.3092
0.00336899	59.4809
0.00338844	59.6531
0.003408	59.8258
0.00342768	59.999
0.00344747	60.1727
0.00346737	60.3469
0.00348739	60.5216
0.00350752	60.6968
0.00352777	60.8725
0.00354813	61.0488
0.00356862	61.2254
0.00358922	61.4027
0.00360994	61.5804
0.00363078	61.7587
0.00365174	61.9375
0.00367282	62.1168
0.00369403	62.2966
0.00371535	62.477
0.0037368	62.6578
0.00375837	62.8391
0.00378007	63.021
0.00380189	63.2034
0.00382384	63.3864
0.00384592	63.5698
0.00386812	63.7538
0.00389045	63.9384
0.00391291	64.1234
0.0039355	64.309
0.00395822	64.4952
0.00398107	64.6818
0.00400405	64.869
0.00402717	65.0567
0.00405042	65.2451
0.0040738	65.4338
0.00409732	65.6232
0.00412098	65.8131
0.00414477	66.0036
0.00416869	66.1946
0.00419276	66.3862
0.00421697	66.5783
0.00424131	66.771
0.0042658	66.9642
0.00429042	67.158
0.00431519	67.3523
0.0043401	67.5472
0.00436516	67.7426
0.00439036	67.9387
0.0044157	68.1353
0.0044412	68.3324
0.00446684	68.5302
0.00449262	68.7284
0.00451856	68.9273
0.00454465	69.1267
0.00457088	69.3268
0.00459727	69.5273
0.00462381	69.7285
0.0046505	69.9302
0.00467735	70.1326
0.00470435	70.3355
0.00473151	70.539
0.00475883	70.7431
0.0047863	70.9477
0.00481393	71.153
0.00484172	71.3588
0.00486968	71.5653
0.00489779	71.7723
0.00492606	71.98
0.0049545	72.1882
0.0049831	72.3971
0.00501187	72.6065
0.00504081	72.8165
0.00506991	73.0272
0.00509918	73.2384
0.00512861	73.4503
0.00515822	73.6628
0.005188	73.8759
0.00521795	74.0896
0.00524807	74.3039
0.00527837	74.5188
0.00530884	74.7344
0.00533949	74.9506
0.00537032	75.1674
0.00540132	75.3848
0.0054325	75.6029
0.00546387	75.8215
0.00549541	76.0408
0.00552713	76.2608
0.00555904	76.4813
0.00559114	76.7026
0.00562341	76.9244
0.00565588	77.1469
0.00568853	77.37
0.00572137	77.5938
0.0057544	77.8182
0.00578762	78.0433
0.00582103	78.269
0.00585464	78.4954
0.00588844	78.7224
0.00592243	78.9501
0.00595662	79.1784
0.00599101	79.4074
0.0060256	79.637
0.00606038	79.8673
0.00609537	80.0983
0.00613056	80.3299
0.00616595	80.5622
0.00620155	80.7952
0.00623735	81.0288
0.00627336	81.2632
0.00630957	81.4982
0.006346	81.7338
0.00638263	81.9702
0.00641948	82.2072
0.00645654	82.445
0.00649382	82.6833
0.00653131	82.9224
0.00656901	83.1622
0.00660693	83.4027
0.00664508	83.6438
0.00668344	83.8857
0.00672202	84.1283
0.00676083	84.3715
0.00679986	84.6154
0.00683912	84.8601
0.0068786	85.1055
0.00691831	85.3515
0.00695825	85.5983
0.00699842	85.8458
0.00703882	86.094
0.00707946	86.3429
0.00712033	86.5926
0.00716143	86.8429
0.00720278	87.094
0.00724436	87.3458
0.00728618	87.5983
0.00732825	87.8516
0.00737055	88.1056
0.0074131	88.3603
0.0074559	88.6157
0.00749894	88.8719
0.00754223	89.1288
0.00758578	89.3865
0.00762957	89.6449
0.00767361	89.9041
0.00771792	90.164
0.00776247	90.4246
0.00780728	90.686
0.00785236	90.9482
0.00789769	91.2111
0.00794328	91.4748
0.00798914	91.7392
0.00803526	92.0044
0.00808165	92.2703
0.00812831	92.537
0.00817523	92.8046
0.00822243	93.0728
0.0082699	93.3418
0.00831764	93.6117
0.00836566	93.8822
0.00841395	94.1536
0.00846253	94.4258
0.00851138	94.6987
0.00856052	94.9724
0.00860994	95.2469
0.00865964	95.5222
0.00870964	95.7983
0.00875992	96.0752
0.00881049	96.3529
0.00886135	96.6314
0.00891251	96.9107
0.00896396	97.1908
0.00901571	97.4717
0.00906776	97.7534
0.00912011	98.0359
0.00917276	98.3193
0.00922571	98.6034
0.00927897	98.8884
0.00933254	99.1742
0.00938642	99.4609
0.00944061	99.7482
0.00949511	100.037
0.00954993	100.326
0.00960506	100.616
0.00966051	100.906
0.00971628	101.198
0.00977237	101.491
0.00982879	101.784
0.00988553	102.078
0.0099426	102.373
0.01	102.669
0.0100577	102.965
0.0101158	103.263
0.0101742	103.561
0.0102329	103.861
0.010292	104.161
0.0103514	104.462
0.0104112	104.764
0.0104713	105.153
0.0105317	105.457
0.0105925	105.85
0.0106537	106.155
0.0107152	106.461
0.0107771	106.858
0.0108393	107.166
0.0109018	107.475
0.0109648	107.785
0.0110281	108.095
0.0110917	108.407
0.0111558	108.72
0.0112202	109.033
0.011285	109.347
0.0113501	109.662
0.0114156	109.979
0.0114815	110.295
0.0115478	110.613
0.0116145	110.932
0.0116815	111.252
0.011749	111.572
0.0118168	111.894
0.011885	112.217
0.0119536	112.54
0.0120226	112.864
0.0120921	113.19
0.0121619	113.516
0.0122321	113.843
0.0123027	114.171
0.0123737	114.501
0.0124451	114.83
0.012517	115.161
0.0125893	115.494
0.0126619	115.826
0.012735	116.16
0.0128086	116.495
0.0128825	116.831
0.0129569	117.167
0.0130317	117.505
0.0131069	117.844
0.0131826	118.183
0.0132587	118.524
0.0133352	118.866
0.0134122	119.208
0.0134896	119.552
0.0135675	119.897
0.0136458	120.242
0.0137246	120.589
0.0138038	120.936
0.0138835	121.285
0.0139637	121.634
0.0140443	121.985
0.0141254	122.337
0.0142069	122.689
0.0142889	123.043
0.0143714	123.398
0.0144544	123.753
0.0145378	124.11
0.0146218	124.468
0.0147062	124.826
0.0147911	125.186
0.0148765	125.547
0.0149624	125.909
0.0150487	126.272
0.0151356	126.636
0.015223	127.001
0.0153109	127.367
0.0153993	127.734
0.0154882	128.102
0.0155776	128.472
0.0156675	128.842
0.015758	129.213
0.0158489	129.586
0.0159404	129.959
0.0160325	130.334
0.016125	130.71
0.0162181	131.086
0.0163117	131.464
0.0164059	131.843
0.0165006	132.223
0.0165959	132.604
0.0166917	132.987
0.016788	133.37
0.016885	133.754
0.0169824	134.14
0.0170805	134.526
0.0171791	134.914
0.0172783	135.303
0.017378	135.693
0.0174783	136.084
0.0175792	136.476
0.0176807	136.87
0.0177828	137.264
0.0178855	137.66
0.0179887	138.056
0.0180926	138.455
0.018197	138.853
0.0183021	139.254
0.0184077	139.655
0.018514	140.058
0.0186209	140.461
0.0187284	140.866
0.0188365	141.272
0.0189452	141.679
0.0190546	142.088
0.0191646	142.497
0.0192752	142.908
0.0193865	143.32
0.0194984	143.733
0.019611	144.148
0.0197242	144.563
0.0198381	144.98
0.0199526	145.398
0.0200678	145.817
0.0201837	146.237
0.0203002	146.659
0.0204174	147.081
0.0205353	147.505
0.0206538	147.93
0.020773	148.357
0.020893	148.784
0.0210136	149.213
0.0211349	149.643
0.0212569	150.075
0.0213796	150.507
0.021503	150.941
0.0216272	151.376
0.021752	151.812
0.0218776	152.25
0.0220039	152.689
0.0221309	153.129
0.0222587	153.57
0.0223872	154.013
0.0225165	154.457
0.0226464	154.902
0.0227772	155.348
0.0229087	155.796
0.0230409	156.245
0.0231739	156.696
0.0233077	157.147
0.0234423	157.6
0.0235776	158.055
0.0237137	158.51
0.0238506	158.967
0.0239883	159.425
0.0241268	159.885
0.0242661	160.346
0.0244062	160.808
0.0245471	161.271
0.0246888	161.736
0.0248313	162.202
0.0249747	162.67
0.0251189	163.139
0.0252639	163.609
0.0254097	164.081
0.0255564	164.554
0.025704	165.028
0.0258523	165.503
0.0260016	165.981
0.0261517	166.459
0.0263027	166.939
0.0264545	167.42
0.0266073	167.902
0.0267609	168.387
0.0269153	168.872
0.0270707	169.359
0.027227	169.847
0.0273842	170.336
0.0275423	170.827
0.0277013	171.32
0.0278612	171.814
0.0280221	172.309
0.0281838	172.805
0.0283465	173.303
0.0285102	173.803
0.0286748	174.304
0.0288403	174.806
0.0290068	175.31
0.0291743	175.815
0.0293427	176.322
0.0295121	176.83
0.0296825	177.34
0.0298538	177.851
0.0300262	178.364
0.0301995	178.878
0.0303739	179.394
0.0305492	179.911
0.0307256	180.429
0.030903	180.949
0.0310814	181.471
0.0312608	181.994
0.0314413	182.519
0.0316228	183.045
0.0318053	183.572
0.031989	184.102
0.0321736	184.632
0.0323594	185.164
0.0325462	185.698
0.0327341	186.233
0.032923	186.77
0.0331131	187.309
0.0333043	187.848
0.0334965	188.39
0.0336899	188.932
0.0338844	189.477
0.03408	190.023
0.0342768	190.571
0.0344747	191.12
0.0346737	191.671
0.0348739	192.224
0.0350752	192.778
0.0352777	193.333
0.0354813	193.891
0.0356862	194.449
0.0358922	195.01
0.0360994	195.572
0.0363078	196.136
0.0365174	196.701
0.0367282	197.268
0.0369403	197.837
0.0371535	198.407
0.037368	198.979
0.0375837	199.552
0.0378007	200.128
0.0380189	200.705
0.0382384	201.283
0.0384592	201.863
0.0386812	202.445
0.0389045	203.029
0.0391291	203.614
0.039355	204.201
0.0395822	204.789
0.0398107	205.379
0.0400405	205.972
0.0402717	206.565
0.0405042	207.16
0.040738	207.758
0.0409732	208.357
0.0412098	208.957
0.0414477	209.559
0.0416869	210.164
0.0419276	210.769
0.0421697	211.376
0.0424131	211.986
0.042658	212.597
0.0429042	213.21
0.0431519	213.824
0.043401	214.44
0.0436516	215.059
0.0439036	215.679
0.044157	216.3
0.044412	216.924
0.0446684	217.549
0.0449262	218.176
0.0451856	218.805
0.0454465	219.436
0.0457088	220.068
0.0459727	220.702
0.0462381	221.339
0.046505	221.976
0.0467735	222.617
0.0470435	223.258
0.0473151	223.902
0.0475883	224.547
0.047863	225.194
0.0481393	225.844
0.0484172	226.494
0.0486968	227.147
0.0489779	227.802
0.0492606	228.458
0.049545	229.117
0.049831	229.777
0.0501187	230.439
0.0504081	231.104
0.0506991	231.77
0.0509918	232.438
0.0512861	233.108
0.0515822	233.78
0.05188	234.454
0.0521795	235.129
0.0524807	235.807
0.0527837	236.487
0.0530884	237.169
0.0533949	237.852
0.0537032	238.538
0.0540132	239.225
0.054325	239.915
0.0546387	240.606
0.0549541	241.3
0.0552713	241.995
0.0555904	242.693
0.0559114	243.392
0.0562341	244.094
0.0565588	244.798
0.0568853	245.503
0.0572137	246.211
0.057544	246.921
0.0578762	247.632
0.0582103	248.346
0.0585464	249.062
0.0588844	249.78
0.0592243	250.5
0.0595662	251.222
0.0599101	251.946
0.060256	252.672
0.0606038	253.4
0.0609537	254.13
0.0613056	254.863
0.0616595	255.598
0.0620155	256.334
0.0623735	257.073
0.0627336	257.814
0.0630957	258.558
0.06346	259.303
0.0638263	260.05
0.0641948	260.8
0.0645654	261.551
0.0649382	262.305
0.0653131	263.061
0.0656901	263.82
0.0660693	264.58
0.0664508	265.343
0.0668344	266.107
0.0672202	266.875
0.0676083	267.644
0.0679986	268.415
0.0683912	269.189
0.068786	269.965
0.0691831	270.743
0.0695825	271.523
0.0699842	272.306
0.0703882	273.091
0.0707946	273.878
0.0712033	274.667
0.0716143	275.459
0.0720278	276.253
0.0724436	277.049
0.0728618	277.848
0.0732825	278.649
0.0737055	279.452
0.074131	280.257
0.074559	281.065
0.0749894	281.875
0.0754223	282.688
0.0758578	283.503
0.0762957	284.32
0.0767361	285.139
0.0771792	285.961
0.0776247	286.786
0.0780728	287.612
0.0785236	288.441
0.0789769	289.272
0.0794328	290.106
0.0798914	290.942
0.0803526	291.781
0.0808165	292.622
0.0812831	293.466
0.0817523	294.312
0.0822243	295.16
0.082699	296.01
0.0831764	296.864
0.0836566	297.719
0.0841395	298.577
0.0846253	299.438
0.0851138	300.301
0.0856052	301.167
0.0860994	302.035
0.0865964	302.906
0.0870964	303.778
0.0875992	304.654
0.0881049	305.532
0.0886135	306.413
0.0891251	307.296
0.0896396	308.182
0.0901571	309.07
0.0906776	309.961
0.0912011	310.854
0.0917276	311.75
0.0922571	312.649
0.0927897	313.55
0.0933254	314.454
0.0938642	315.36
0.0944061	316.269
0.0949511	317.181
0.0954993	318.095
0.0960506	319.012
0.0966051	319.932
0.0971628	320.854
0.0977237	321.779
0.0982879	322.706
0.0988553	323.636
0.099426	324.569
0.1	325.505
0.100577	326.443
0.101158	327.384
0.101742	328.327
0.102329	329.274
0.10292	330.223
0.103514	331.175
0.104112	332.129
0.104713	333.087
0.105317	334.047
0.105925	335.009
0.106537	335.975
0.107152	336.943
0.107771	337.914
0.108393	338.889
0.109018	339.866
0.109648	340.845
0.110281	341.828
0.110917	342.813
0.111558	343.801
0.112202	344.792
0.11285	345.786
0.113501	346.782
0.114156	347.782
0.114815	348.784
0.115478	349.79
0.116145	350.798
0.116815	351.809
0.11749	352.823
0.118168	353.84
0.11885	354.86
0.119536	355.883
0.120226	356.909
0.120921	357.937
0.121619	358.969
0.122321	360.004
0.123027	361.041
0.123737	362.082
0.124451	363.126
0.12517	364.172
0.125893	365.222
0.126619	366.275
0.12735	367.331
0.128086	368.39
0.128825	369.451
0.129569	370.516
0.130317	371.584
0.131069	372.655
0.131826	373.729
0.132587	374.806
0.133352	375.887
0.134122	376.97
0.134896	378.057
0.135675	379.146
0.136458	380.24
0.137246	381.335
0.138038	382.434
0.138835	383.537
0.139637	384.642
0.140443	385.751
0.141254	386.863
0.142069	387.978
0.142889	389.096
0.143714	390.218
0.144544	391.343
0.145378	392.471
0.146218	393.602
0.147062	394.736
0.147911	395.874
0.148765	397.015
0.149624	398.16
0.150487	399.307
0.151356	400.458
0.15223	401.612
0.153109	402.77
0.153993	403.931
0.154882	405.095
0.155776	406.263
0.156675	407.434
0.15758	408.608
0.158489	409.786
0.159404	410.967
0.160325	412.152
0.16125	413.34
0.162181	414.531
0.163117	415.726
0.164059	416.924
0.165006	418.126
0.165959	419.331
0.166917	420.54
0.16788	421.752
0.16885	422.968
0.169824	424.187
0.170805	425.409
0.171791	426.636
0.172783	427.865
0.17378	429.099
0.174783	430.335
0.175792	431.576
0.176807	432.82
0.177828	434.067
0.178855	435.318
0.179887	436.573
0.180926	437.832
0.18197	439.094
0.183021	440.359
0.184077	441.628
0.18514	442.901
0.186209	444.178
0.187284	445.458
0.188365	446.742
0.189452	448.03
0.190546	449.321
0.191646	450.617
0.192752	451.916
0.193865	453.218
0.194984	454.524
0.19611	455.834
0.197242	457.148
0.198381	458.466
0.199526	459.787
0.200678	461.113
0.201837	462.442
0.203002	463.775
0.204174	465.111
0.205353	466.452
0.206538	467.797
0.20773	469.145
0.20893	470.497
0.210136	471.853
0.211349	473.214
0.212569	474.577
0.213796	475.945
0.21503	477.317
0.216272	478.693
0.21752	480.073
0.218776	481.456
0.220039	482.844
0.221309	484.236
0.222587	485.632
0.223872	487.032
0.225165	488.435
0.226464	489.843
0.227772	491.255
0.229087	492.671
0.230409	494.091
0.231739	495.515
0.233077	496.944
0.234423	498.376
0.235776	499.813
0.237137	501.253
0.238506	502.698
0.239883	504.147
0.241268	505.6
0.242661	507.057
0.244062	508.519
0.245471	509.984
0.246888	511.455
0.248313	512.929
0.249747	514.407
0.251189	515.89
0.252639	517.377
0.254097	518.868
0.255564	520.364
0.25704	521.864
0.258523	523.368
0.260016	524.877
0.261517	526.389
0.263027	527.906
0.264545	529.428
0.266073	530.954
0.267609	532.485
0.269153	534.02
0.270707	535.559
0.27227	537.102
0.273842	538.65
0.275423	540.203
0.277013	541.76
0.278612	543.322
0.280221	544.888
0.281838	546.458
0.283465	548.034
0.285102	549.613
0.286748	551.197
0.288403	552.786
0.290068	554.379
0.291743	555.977
0.293427	557.58
0.295121	559.187
0.296825	560.799
0.298538	562.415
0.300262	564.05
0.301995	565.771
0.303739	567.498
0.305492	569.233
0.307256	570.975
0.30903	572.723
0.310814	574.479
0.312608	576.242
0.314413	578.012
0.316228	579.79
0.318053	581.574
0.31989	583.366
0.321736	585.165
0.323594	586.971
0.325462	588.784
0.327341	590.605
0.32923	592.433
0.331131	594.268
0.333043	596.11
0.334965	597.96
0.336899	599.816
0.338844	601.681
0.3408	603.552
0.342768	605.431
0.344747	607.316
0.346737	609.21
0.348739	611.11
0.350752	613.054
0.352777	615.068
0.354813	617.092
0.356862	619.126
0.358922	621.169
0.360994	623.204
0.363078	625.229
0.365174	627.263
0.367282	629.307
0.369403	631.36
0.371535	633.423
0.37368	635.495
0.375837	637.577
0.378007	639.668
0.380189	641.768
0.382384	643.878
0.384592	645.998
0.386812	648.127
0.389045	650.265
0.391291	652.412
0.39355	654.569
0.395822	656.735
0.398107	658.91
0.400405	661.111
0.402717	663.4
0.405042	665.7
0.40738	668.012
0.409732	670.336
0.412098	672.67
0.414477	675.016
0.416869	677.374
0.419276	679.743
0.421697	682.103
0.424131	684.465
0.42658	686.838
0.429042	689.222
0.431519	691.618
0.43401	694.023
0.436516	696.439
0.439036	698.866
0.44157	701.303
0.44412	703.751
0.446684	706.209
0.449262	708.676
0.451856	711.155
0.454465	713.643
0.457088	716.141
0.459727	718.648
0.462381	721.165
0.46505	723.692
0.467735	726.228
0.470435	728.773
0.473151	731.328
0.475883	733.891
0.47863	736.463
0.481393	739.027
0.484172	741.582
0.486968	744.145
0.489779	746.716
0.492606	749.295
0.49545	751.882
0.49831	754.478
0.501187	757.081
0.504081	759.692
0.506991	762.311
0.509918	764.937
0.512861	767.571
0.515822	770.212
0.5188	772.86
0.521795	775.516
0.524807	778.178
0.527837	780.848
0.530884	783.524
0.533949	786.208
0.537032	788.897
0.540132	791.593
0.54325	794.296
0.546387	797.005
0.549541	799.72
0.552713	802.44
0.555904	805.166
0.559114	807.899
0.562341	810.631
0.565588	813.366
0.568853	816.106
0.572137	818.851
0.57544	821.601
0.578762	824.357
0.582103	827.116
0.585464	829.881
0.588844	832.649
0.592243	835.423
0.595662	838.199
0.599101	840.98
0.60256	843.765
0.606038	846.553
0.609537	849.344
0.613056	852.139
0.616595	854.938
0.620155	857.739
0.623735	860.543
0.627336	863.351
0.630957	866.161
0.6346	868.974
0.638263	871.79
0.641948	874.604
0.645654	877.417
0.649382	880.233
0.653131	883.05
0.656901	885.87
0.660693	888.69
0.664508	891.512
0.668344	894.336
0.672202	897.161
0.676083	899.986
0.679986	902.813
0.683912	905.639
0.68786	908.467
0.691831	911.294
0.695825	914.122
0.699842	916.949
0.703882	919.776
0.707946	922.602
0.712033	925.427
0.716143	928.252
0.720278	931.076
0.724436	933.899
0.728618	936.72
0.732825	939.541
0.737055	942.36
0.74131	945.178
0.74559	947.993
0.749894	950.808
0.754223	953.619
0.758578	956.429
0.762957	959.237
0.767361	962.042
0.771792	964.845
0.776247	967.644
0.780728	970.441
0.785236	973.235
0.789769	976.025
0.794328	978.812
0.798914	981.594
0.803526	984.375
0.808165	987.148
0.812831	989.921
0.817523	992.686
0.822243	995.448
0.82699	998.208
0.831764	1000.96
0.836566	1003.71
0.841395	1006.46
0.846253	1009.2
0.851138	1011.93
0.856052	1014.66
0.860994	1017.39
0.865964	1020.11
0.870964	1022.83
0.875992	1025.54
0.881049	1028.24
0.886135	1030.94
0.891251	1033.63
0.896396	1036.32
0.901571	1039
0.906776	1041.68
0.912011	1044.34
0.917276	1047.01
0.922571	1049.67
0.927897	1052.32
0.933254	1054.96
0.938642	1057.6
0.944061	1060.23
0.949511	1062.85
0.954993	1065.47
0.960506	1068.08
0.966051	1070.69
0.971628	1073.28
0.977237	1075.87
0.982879	1078.45
0.988553	1081.03
0.99426	1083.6
1	1086.16
1.00577	1088.71
1.01158	1091.26
1.01742	1093.8
1.02329	1096.33
1.0292	1098.85
1.03514	1101.36
1.04112	1103.87
1.04713	1106.37
1.05317	1108.87
1.05925	1111.35
1.06537	1113.82
1.07152	1116.29
1.07771	1118.75
1.08393	1121.2
1.09018	1123.65
1.09648	1126.08
1.10281	1128.51
1.10917	1130.93
1.11558	1133.34
1.12202	1135.75
1.1285	1138.14
1.13501	1140.53
1.14156	1142.91
1.14815	1145.28
1.15478	1147.64
1.16145	1150
1.16815	1152.35
1.1749	1154.68
1.18168	1157.01
1.1885	1159.33
1.19536	1161.65
1.20226	1163.96
1.20921	1166.25
1.21619	1168.54
1.22321	1170.82
1.23027	1173.1
1.23737	1175.36
1.24451	1177.62
1.2517	1179.87
1.25893	1182.11
1.26619	1184.34
1.2735	1186.56
1.28086	1188.78
1.28825	1190.98
1.29569	1193.18
1.30317	1195.37
1.31069	1197.55
1.31826	1199.72
1.32587	1201.89
1.33352	1204.05
1.34122	1206.19
1.34896	1208.33
1.35675	1210.46
1.36458	1212.58
1.37246	1214.69
1.38038	1216.79
1.38835	1218.89
1.39637	1220.97
1.40443	1223.05
1.41254	1225.12
1.42069	1227.18
1.42889	1229.24
1.43714	1231.28
1.44544	1233.31
1.45378	1235.34
1.46218	1237.36
1.47062	1239.37
1.47911	1241.37
1.48765	1243.36
1.49624	1245.34
1.50487	1247.31
1.51356	1249.28
1.5223	1251.23
1.53109	1253.18
1.53993	1255.12
1.54882	1257.05
1.55776	1258.96
1.56675	1260.88
1.5758	1262.78
1.58489	1264.67
1.59404	1266.56
1.60325	1268.43
1.6125	1270.3
1.62181	1272.16
1.63117	1274.01
1.64059	1275.86
1.65006	1277.69
1.65959	1279.52
1.66917	1281.34
1.6788	1283.14
1.6885	1284.94
1.69824	1286.73
1.70805	1288.51
1.71791	1290.29
1.72783	1292.05
1.7378	1293.8
1.74783	1295.56
1.75792	1297.29
1.76807	1299.02
1.77828	1300.74
1.78855	1302.45
1.79887	1304.16
1.80926	1305.84
1.8197	1307.52
1.83021	1309.19
1.84077	1310.85
1.8514	1312.5
1.86209	1314.14
1.87284	1315.78
1.88365	1317.4
1.89452	1319.02
1.90546	1320.63
1.91646	1322.23
1.92752	1323.82
1.93865	1325.4
1.94984	1326.98
1.9611	1328.54
1.97242	1330.1
1.98381	1331.65
1.99526	1333.19
2.00678	1334.72
2.01837	1336.25
2.03002	1337.77
2.04174	1339.27
2.05353	1340.77
2.06538	1342.27
2.0773	1343.75
2.0893	1345.23
2.10136	1346.7
2.11349	1348.14
2.12569	1349.58
2.13796	1351.02
2.1503	1352.44
2.16272	1353.85
2.1752	1355.26
2.18776	1356.67
2.20039	1358.06
2.21309	1359.45
2.22587	1360.82
2.23872	1362.19
2.25165	1363.56
2.26464	1364.91
2.27772	1366.26
2.29087	1367.6
2.30409	1368.93
2.31739	1370.26
2.33077	1371.58
2.34423	1372.89
2.35776	1374.19
2.37137	1375.48
2.38506	1376.78
2.39883	1378.06
2.41268	1379.32
2.42661	1380.57
2.44062	1381.82
2.45471	1383.05
2.46888	1384.28
2.48313	1385.51
2.49747	1386.72
2.51189	1387.93
2.52639	1389.13
2.54097	1390.32
2.55564	1391.51
2.5704	1392.68
2.58523	1393.85
2.60016	1395.01
2.61517	1396.16
2.63027	1397.31
2.64545	1398.44
2.66073	1399.57
2.67609	1400.69
2.69153	1401.81
2.70707	1402.91
2.7227	1404
2.73842	1405.09
2.75423	1406.17
2.77013	1407.24
2.78612	1408.3
2.80221	1409.35
2.81838	1410.4
2.83465	1411.44
2.85102	1412.47
2.86748	1413.49
2.88403	1414.5
2.90068	1415.5
2.91743	1416.5
2.93427	1417.48
2.95121	1418.46
2.96825	1419.43
2.98538	1420.39
3.00262	1421.34
3.01995	1422.28
3.03739	1423.21
3.05492	1424.13
3.07256	1425.05
3.0903	1425.96
3.10814	1426.85
3.12608	1427.74
3.14413	1428.62
3.16228	1429.49
3.18053	1430.35
3.1989	1431.2
3.21736	1432.05
3.23594	1432.89
3.25462	1433.72
3.27341	1434.54
3.2923	1435.34
3.31131	1436.15
3.33043	1436.94
3.34965	1437.72
3.36899	1438.49
3.38844	1439.25
3.408	1440.01
3.42768	1440.75
3.44747	1441.49
3.46737	1442.22
3.48739	1442.93
3.50752	1443.64
3.52777	1444.34
3.54813	1445.03
3.56862	1445.71
3.58922	1446.38
3.60994	1447.05
3.63078	1447.7
3.65174	1448.35
3.67282	1448.98
3.69403	1449.6
3.71535	1450.22
3.7368	1450.83
3.75837	1451.42
3.78007	1452.01
3.80189	1452.59
3.82384	1453.16
3.84592	1453.72
3.86812	1454.27
3.89045	1454.81
3.91291	1455.34
3.9355	1455.86
3.95822	1456.37
3.98107	1456.87
4.00405	1457.36
4.02717	1457.85
4.05042	1458.32
4.0738	1458.79
4.09732	1459.24
4.12098	1459.69
4.14477	1460.12
4.16869	1460.55
4.19276	1460.96
4.21697	1461.37
4.24131	1461.77
4.2658	1462.15
4.29042	1462.53
4.31519	1462.9
4.3401	1463.25
4.36516	1463.6
4.39036	1463.94
4.4157	1464.26
4.4412	1464.58
4.46684	1464.89
4.49262	1465.18
4.51856	1465.46
4.54465	1465.74
4.57088	1466
4.59727	1466.25
4.62381	1466.5
4.6505	1466.73
4.67735	1466.95
4.70435	1467.16
4.73151	1467.36
4.75883	1467.55
4.7863	1467.73
4.81393	1467.9
4.84172	1468.05
4.86968	1468.2
4.89779	1468.33
4.92606	1468.46
4.9545	1468.57
4.9831	1468.67
5.01187	1468.76
5.04081	1468.84
5.06991	1468.91
5.09918	1468.97
5.12861	1469.02
5.15822	1469.05
5.188	1469.08
5.21795	1469.09
5.24807	1469.09
5.27837	1469.08
5.30884	1469.06
5.33949	1469.03
5.37032	1468.98
5.40132	1468.92
5.4325	1468.86
5.46387	1468.78
5.49541	1468.69
5.52713	1468.59
5.55904	1468.47
5.59114	1468.34
5.62341	1468.21
5.65588	1468.06
5.68853	1467.89
5.72137	1467.72
5.7544	1467.53
5.78762	1467.33
5.82103	1467.12
5.85464	1466.9
5.88844	1466.67
5.92243	1466.42
5.95662	1466.16
5.99101	1465.9
6.0256	1465.62
6.06038	1465.32
6.09537	1465.02
6.13056	1464.7
6.16595	1464.37
6.20155	1464.03
6.23735	1463.68
6.27336	1463.32
6.30957	1462.94
6.346	1462.55
6.38263	1462.16
6.41948	1461.74
6.45654	1461.31
6.49382	1460.87
6.53131	1460.42
6.56901	1459.96
6.60693	1459.48
6.64508	1458.99
6.68344	1458.49
6.72202	1457.98
6.76083	1457.46
6.79986	1456.92
6.83912	1456.37
6.8786	1455.8
6.91831	1455.23
6.95825	1454.64
6.99842	1454.04
7.03882	1453.44
7.07946	1452.81
7.12033	1452.17
7.16143	1451.53
7.20278	1450.87
7.24436	1450.19
7.28618	1449.51
7.32825	1448.81
7.37055	1448.1
7.4131	1447.38
7.4559	1446.64
7.49894	1445.89
7.54223	1445.13
7.58578	1444.35
7.62957	1443.57
7.67361	1442.77
7.71792	1441.96
7.76247	1441.13
7.80728	1440.3
7.85236	1439.44
7.89769	1438.58
7.94328	1437.71
7.98914	1436.82
8.03526	1435.92
8.08165	1435.01
8.12831	1434.08
8.17523	1433.15
8.22243	1432.2
8.2699	1431.24
8.31764	1430.26
8.36566	1429.28
8.41395	1428.28
8.46253	1427.26
8.51138	1426.24
8.56052	1425.2
8.60994	1424.15
8.65964	1423.09
8.70964	1422.02
8.75992	1420.93
8.81049	1419.84
8.86135	1418.73
8.91251	1417.6
8.96396	1416.47
9.01571	1415.32
9.06776	1414.16
9.12011	1412.99
9.17276	1411.81
9.22571	1410.61
9.27897	1409.41
9.33254	1408.19
9.38642	1406.96
9.44061	1405.71
9.49511	1404.46
9.54993	1403.19
9.60506	1401.92
9.66051	1400.62
9.71628	1399.33
9.77237	1398.01
9.82879	1396.69
9.88553	1395.35
9.9426	1394.01
10	1392.65
10.0577	1391.28
10.1158	1389.9
10.1742	1388.51
10.2329	1387.1
10.292	1385.69
10.3514	1384.26
10.4112	1382.83
10.4713	1381.37
10.5317	1379.92
10.5925	1378.45
10.6537	1376.97
10.7152	1375.47
10.7771	1373.97
10.8393	1372.45
10.9018	1370.93
10.9648	1369.39
11.0281	1367.85
11.0917	1366.29
11.1558	1364.72
11.2202	1363.14
11.285	1361.56
11.3501	1359.96
11.4156	1358.35
11.4815	1356.73
11.5478	1355.1
11.6145	1353.46
11.6815	1351.81
11.749	1350.15
11.8168	1348.48
11.885	1346.8
11.9536	1345.11
12.0226	1343.42
12.0921	1341.71
12.1619	1339.99
12.2321	1338.26
12.3027	1336.52
12.3737	1334.78
12.4451	1333.02
12.517	1331.25
12.5893	1329.48
12.6619	1327.7
12.735	1325.9
12.8086	1324.1
12.8825	1322.29
12.9569	1320.47
13.0317	1318.64
13.1069	1316.8
13.1826	1314.96
13.2587	1313.1
13.3352	1311.24
13.4122	1309.36
13.4896	1307.48
13.5675	1305.59
13.6458	1303.69
13.7246	1301.79
13.8038	1299.87
13.8835	1297.95
13.9637	1296.02
14.0443	1294.08
14.1254	1292.13
14.2069	1290.17
14.2889	1288.21
14.3714	1286.24
14.4544	1284.26
14.5378	1282.27
14.6218	1280.28
14.7062	1278.28
14.7911	1276.27
14.8765	1274.25
14.9624	1272.23
15.0487	1270.19
15.1356	1268.15
15.223	1266.11
15.3109	1264.05
15.3993	1261.99
15.4882	1259.92
15.5776	1257.85
15.6675	1255.77
15.758	1253.67
15.8489	1251.58
15.9404	1249.48
16.0325	1247.37
16.125	1245.25
16.2181	1243.13
16.3117	1241
16.4059	1238.86
16.5006	1236.72
16.5959	1234.57
16.6917	1232.42
16.788	1230.26
16.885	1228.09
16.9824	1225.91
17.0805	1223.73
17.1791	1221.55
17.2783	1219.36
17.378	1217.15
17.4783	1214.95
17.5792	1212.74
17.6807	1210.52
17.7828	1208.3
17.8855	1206.07
17.9887	1203.83
18.0926	1201.6
18.197	1199.35
18.3021	1197.1
18.4077	1194.85
18.514	1192.59
18.6209	1190.32
18.7284	1188.05
18.8365	1185.78
18.9452	1183.5
19.0546	1181.21
19.1646	1178.92
19.2752	1176.62
19.3865	1174.32
19.4984	1172.01
19.611	1169.69
19.7242	1167.38
19.8381	1165.05
19.9526	1162.72
20.0678	1160.39
20.1837	1158.05
20.3002	1155.71
20.4174	1153.36
20.5353	1151.01
20.6538	1148.65
20.773	1146.29
20.893	1143.92
21.0136	1141.55
21.1349	1139.18
21.2569	1136.81
21.3796	1134.43
21.503	1132.05
21.6272	1129.66
21.752	1127.27
21.8776	1124.88
22.0039	1122.48
22.1309	1120.08
22.2587	1117.67
22.3872	1115.26
22.5165	1112.85
22.6464	1110.43
22.7772	1108.01
22.9087	1105.59
23.0409	1103.17
23.1739	1100.74
23.3077	1098.31
23.4423	1095.87
23.5776	1093.44
23.7137	1091
23.8506	1088.55
23.9883	1086.1
24.1268	1083.66
24.2661	1081.21
24.4062	1078.76
24.5471	1076.3
24.6888	1073.85
24.8313	1071.39
24.9747	1068.93
25.1189	1066.46
25.2639	1064
25.4097	1061.53
25.5564	1059.06
25.704	1056.59
25.8523	1054.12
26.0016	1051.64
26.1517	1049.17
26.3027	1046.69
26.4545	1044.21
26.6073	1041.72
26.7609	1039.24
26.9153	1036.76
27.0707	1034.27
27.227	1031.78
27.3842	1029.29
27.5423	1026.8
27.7013	1024.31
27.8612	1021.81
28.0221	1019.32
28.1838	1016.82
28.3465	1014.32
28.5102	1011.82
28.6748	1009.32
28.8403	1006.81
29.0068	1004.31
29.1743	1001.8
29.3427	999.295
29.5121	996.789
29.6825	994.28
29.8538	991.771
30.0262	989.262
30.1995	986.75
30.3739	984.238
30.5492	981.727
30.7256	979.212
30.903	976.698
31.0814	974.184
31.2608	971.667
31.4413	969.154
31.6228	966.638
31.8053	964.12
31.989	961.605
32.1736	959.084
32.3594	956.566
32.5462	954.046
32.7341	951.524
32.923	949.005
33.1131	946.484
33.3043	943.963
33.4965	941.443
33.6899	938.923
33.8844	936.401
34.08	933.884
34.2768	931.363
34.4747	928.84
34.6737	926.321
34.8739	923.803
35.0752	921.282
35.2777	918.762
35.4813	916.243
35.6862	913.724
35.8922	911.206
36.0994	908.686
36.3078	906.169
36.5174	903.65
36.7282	901.132
36.9403	898.614
37.1535	896.098
37.368	893.583
37.5837	891.066
37.8007	888.553
38.0189	886.039
38.2384	883.525
38.4592	881.016
38.6812	878.505
38.9045	875.995
39.1291	873.487
39.355	870.976
39.5822	868.471
39.8107	865.967
40.0405	863.461
40.2717	860.96
40.5042	858.457
40.738	855.959
40.9732	853.459
41.2098	850.961
41.4477	848.464
41.6869	845.969
41.9276	843.475
42.1697	840.983
42.4131	838.491
42.658	836.002
42.9042	833.514
43.1519	831.028
43.401	828.546
43.6516	826.064
43.9036	823.583
44.157	821.104
44.412	818.626
44.6684	816.151
44.9262	813.677
45.1856	811.205
45.4465	808.739
45.7088	806.271
45.9727	803.804
46.2381	801.343
46.505	798.884
46.7735	796.423
47.0435	793.968
47.3151	791.514
47.5883	789.059
47.863	786.609
48.1393	784.162
48.4172	781.719
48.6968	779.278
48.9779	776.838
49.2606	774.401
49.545	771.966
49.831	769.535
50.1187	767.104
50.4081	764.677
50.6991	762.253
50.9918	759.831
51.2861	757.411
51.5822	754.993
51.88	752.581
52.1795	750.169
52.4807	747.76
52.7837	745.355
53.0884	742.951
53.3949	740.551
53.7032	738.154
54.0132	735.759
54.325	733.368
54.6387	730.979
54.9541	728.593
55.2713	726.211
55.5904	723.83
55.9114	721.453
56.2341	719.082
56.5588	716.714
56.8853	714.35
57.2137	711.989
57.544	709.63
57.8762	707.275
58.2103	704.923
58.5464	702.574
58.8844	700.228
59.2243	697.886
59.5662	695.546
59.9101	693.21
60.256	690.877
60.6038	688.546
60.9537	686.219
61.3056	683.895
61.6595	681.575
62.0155	679.258
62.3735	676.944
62.7336	674.634
63.0957	672.328
63.46	670.024
63.8263	667.724
64.1948	665.43
64.5654	663.141
64.9382	660.856
65.3131	658.575
65.6901	656.297
66.0693	654.023
66.4508	651.752
66.8344	649.486
67.2202	647.222
67.6083	644.964
67.9986	642.709
68.3912	640.457
68.786	638.21
69.1831	635.967
69.5825	633.727
69.9842	631.492
70.3882	629.26
70.7946	627.032
71.2033	624.808
71.6143	622.587
72.0278	620.372
72.4436	618.16
72.8618	615.952
73.2825	613.749
73.7055	611.55
74.131	609.355
74.559	607.165
74.9894	604.979
75.4223	602.798
75.8578	600.621
76.2957	598.448
76.7361	596.281
77.1792	594.118
77.6247	591.959
78.0728	589.805
78.5236	587.656
78.9769	585.512
79.4328	583.372
79.8914	581.237
80.3526	579.105
80.8165	576.978
81.2831	574.856
81.7523	572.738
82.2243	570.626
82.699	568.517
83.1764	566.414
83.6566	564.315
84.1395	562.221
84.6253	560.131
85.1138	558.047
85.6052	555.966
86.0994	553.891
86.5964	551.821
87.0964	549.755
87.5992	547.694
88.1049	545.639
88.6135	543.588
89.1251	541.542
89.6396	539.502
90.1571	537.466
90.6776	535.435
91.2011	533.409
91.7276	531.388
92.2571	529.372
92.7897	527.362
93.3254	525.356
93.8642	523.355
94.4061	521.359
94.9511	519.368
95.4993	517.382
96.0506	515.4
96.6051	513.424
97.1628	511.452
97.7237	509.485
98.2879	507.523
98.8553	505.566
99.426	503.614
100	501.667
100.577	499.725
101.158	497.788
101.742	495.856
102.329	493.929
102.92	492.007
103.514	490.091
104.112	488.18
104.713	486.274
105.317	484.373
105.925	482.478
106.537	480.587
107.152	478.702
107.771	476.823
108.393	474.948
109.018	473.079
109.648	471.215
110.281	469.356
110.917	467.502
111.558	465.654
112.202	463.81
112.85	461.972
113.501	460.139
114.156	458.311
114.815	456.488
115.478	454.67
116.145	452.857
116.815	451.05
117.49	449.248
118.168	447.451
118.85	445.659
119.536	443.872
120.226	442.09
120.921	440.313
121.619	438.541
122.321	436.774
123.027	435.012
123.737	433.256
124.451	431.504
125.17	429.758
125.893	428.017
126.619	426.281
127.35	424.551
128.086	422.825
128.825	421.105
129.569	419.39
130.317	417.681
131.069	415.977
131.826	414.278
132.587	412.584
133.352	410.896
134.122	409.213
134.896	407.535
135.675	405.863
136.458	404.196
137.246	402.535
138.038	400.878
138.835	399.227
139.637	397.581
140.443	395.941
141.254	394.305
142.069	392.674
142.889	391.048
143.714	389.428
144.544	387.814
145.378	386.204
146.218	384.6
147.062	383.002
147.911	381.408
148.765	379.821
149.624	378.239
150.487	376.661
151.356	375.09
152.23	373.524
153.109	371.964
153.993	370.409
154.882	368.859
155.776	367.315
156.675	365.777
157.58	364.243
158.489	362.715
159.404	361.192
160.325	359.675
161.25	358.161
162.181	356.653
163.117	355.15
164.059	353.652
165.006	352.16
165.959	350.673
166.917	349.191
167.88	347.714
168.85	346.243
169.824	344.777
170.805	343.316
171.791	341.86
172.783	340.41
173.78	338.965
174.783	337.525
175.792	336.09
176.807	334.66
177.828	333.236
178.855	331.816
179.887	330.401
180.926	328.999
181.97	327.602
183.021	326.211
184.077	324.824
185.14	323.442
186.209	322.066
187.284	320.694
188.365	319.328
189.452	317.966
190.546	316.609
191.646	315.258
192.752	313.911
193.865	312.569
194.984	311.233
196.11	309.901
197.242	308.574
198.381	307.252
199.526	305.935
200.678	304.622
201.837	303.314
203.002	302.011
204.174	300.712
205.353	299.418
206.538	298.129
207.73	296.844
208.93	295.563
210.136	294.287
211.349	293.026
212.569	291.768
213.796	290.515
215.03	289.266
216.272	288.021
217.52	286.781
218.776	285.544
220.039	284.312
221.309	283.084
222.587	281.861
223.872	280.641
225.165	279.426
226.464	278.214
227.772	277.007
229.087	275.804
230.409	274.605
231.739	273.41
233.077	272.218
234.423	271.03
235.776	269.847
237.137	268.667
238.506	267.491
239.883	266.318
241.268	265.159
242.661	264.006
244.062	262.855
245.471	261.709
246.888	260.566
248.313	259.428
249.747	258.293
251.189	257.162
252.639	256.035
254.097	254.911
255.564	253.792
257.04	252.677
258.523	251.566
260.016	250.459
261.517	249.356
263.027	248.258
264.545	247.164
266.073	246.074
267.609	244.987
269.153	243.906
270.707	242.829
272.27	241.756
273.842	240.687
275.423	239.623
277.013	238.563
278.612	237.507
280.221	236.456
281.838	235.407
283.465	234.363
285.102	233.323
286.748	232.287
288.403	231.256
290.068	230.229
291.743	229.207
293.427	228.189
295.121	227.175
296.825	226.166
298.538	225.161
300.262	224.161
301.995	223.164
303.739	222.172
305.492	221.185
307.256	220.201
309.03	219.222
310.814	218.247
312.608	217.277
314.413	216.311
316.228	215.35
318.053	214.392
319.89	213.439
321.736	212.489
323.594	211.542
325.462	210.6
327.341	209.661
329.23	208.728
331.131	207.798
333.043	206.873
334.965	205.952
336.899	205.035
338.844	204.123
340.8	203.214
342.768	202.31
344.747	201.41
346.737	200.513
348.739	199.621
350.752	198.733
352.777	197.848
354.813	196.968
356.862	196.091
358.922	195.218
360.994	194.349
363.078	193.483
365.174	192.621
367.282	191.763
369.403	190.909
371.535	190.059
373.68	189.212
375.837	188.369
378.007	187.53
380.189	186.695
382.384	185.863
384.592	185.035
386.812	184.211
389.045	183.39
391.291	182.573
393.55	181.76
395.822	180.95
398.107	180.143
400.405	179.34
402.717	178.54
405.042	177.744
407.38	176.95
409.732	176.16
412.098	175.374
414.477	174.591
416.869	173.811
419.276	173.034
421.697	172.261
424.131	171.49
426.58	170.723
429.042	169.96
431.519	169.199
434.01	168.442
436.516	167.688
439.036	166.938
441.57	166.191
444.12	165.448
446.684	164.708
449.262	163.971
451.856	163.237
454.465	162.507
457.088	161.78
459.727	161.057
462.381	160.337
465.05	159.619
467.735	158.905
470.435	158.195
473.151	157.487
475.883	156.783
478.63	156.081
481.393	155.383
484.172	154.689
486.968	153.997
489.779	153.308
492.606	152.622
495.45	151.94
498.31	151.261
501.187	150.584
504.081	149.911
506.991	149.241
509.918	148.573
512.861	147.909
515.822	147.248
518.8	146.59
521.795	145.936
524.807	145.284
527.837	144.635
530.884	143.989
533.949	143.347
537.032	142.707
540.132	142.07
543.25	141.436
546.387	140.805
549.541	140.178
552.713	139.553
555.904	138.93
559.114	138.311
562.341	137.695
565.588	137.083
568.853	136.474
572.137	135.867
575.44	135.263
578.762	134.662
582.103	134.063
585.464	133.467
588.844	132.875
592.243	132.284
595.662	131.696
599.101	131.111
602.56	130.529
606.038	129.949
609.537	129.371
613.056	128.796
616.595	128.224
620.155	127.654
623.735	127.087
627.336	126.522
630.957	125.96
634.6	125.4
638.263	124.842
641.948	124.288
645.654	123.737
649.382	123.189
653.131	122.643
656.901	122.099
660.693	121.558
664.508	121.019
668.344	120.482
672.202	119.948
676.083	119.416
679.986	118.887
683.912	118.359
687.86	117.835
691.831	117.312
695.825	116.792
699.842	116.275
703.882	115.759
707.946	115.246
712.033	114.735
716.143	114.226
720.278	113.72
724.436	113.216
728.618	112.714
732.825	112.215
737.055	111.718
741.31	111.223
745.59	110.731
749.894	110.241
754.223	109.754
758.578	109.269
762.957	108.786
767.361	108.305
771.792	107.827
776.247	107.351
780.728	106.878
785.236	106.407
789.769	105.938
794.328	105.471
798.914	105.007
803.526	104.544
808.165	104.084
812.831	103.626
817.523	103.17
822.243	102.716
826.99	102.265
831.764	101.815
836.566	101.368
841.395	100.923
846.253	100.48
851.138	100.039
856.052	99.6001
860.994	99.1637
865.964	98.729
870.964	98.2966
875.992	97.8664
881.049	97.4383
886.135	97.0122
891.251	96.5882
896.396	96.166
901.571	95.7462
906.776	95.3284
912.011	94.9128
917.276	94.4992
922.571	94.0874
927.897	93.6776
933.254	93.2699
938.642	92.8642
944.061	92.4606
949.511	92.0587
954.993	91.6585
960.506	91.2603
966.051	90.8641
971.628	90.4693
977.237	90.0767
982.879	89.6859
988.553	89.2967
994.26	88.9091
1000	88.5239
1005.77	88.14
1011.58	87.7584
1017.42	87.3782
1023.29	87.0003
1029.2	86.6238
1035.14	86.2495
1041.12	85.8765
1047.13	85.5059
1053.17	85.1366
1059.25	84.7696
1065.37	84.4043
1071.52	84.0406
1077.71	83.6788
1083.93	83.3186
1090.18	82.9604
1096.48	82.6038
1102.81	82.2487
1109.17	81.8956
1115.58	81.5441
1122.02	81.1944
1128.5	80.8463
1135.01	80.4998
1141.56	80.155
1148.15	79.8119
1154.78	79.4703
1161.45	79.1302
1168.15	78.792
1174.9	78.4556
1181.68	78.1204
1188.5	77.7871
1195.36	77.4552
1202.26	77.1251
1209.21	76.7964
1216.19	76.4692
1223.21	76.1435
1230.27	75.8195
1237.37	75.4971
1244.51	75.1762
1251.7	74.8567
1258.93	74.539
1266.19	74.2225
1273.5	73.9078
1280.86	73.5946
1288.25	73.2829
1295.69	72.9723
1303.17	72.6636
1310.69	72.3566
1318.26	72.0508
1325.87	71.7464
1333.52	71.4436
1341.22	71.1423
1348.96	70.8425
1356.75	70.5442
1364.58	70.2474
1372.46	69.952
1380.38	69.6581
1388.35	69.3656
1396.37	69.0745
1404.43	68.7848
1412.54	68.4964
1420.69	68.2093
1428.89	67.9237
1437.14	67.6395
1445.44	67.3567
1453.78	67.0753
1462.18	66.7954
1470.62	66.5168
1479.11	66.2397
1487.65	65.9639
1496.24	65.6896
1504.87	65.4166
1513.56	65.1451
1522.3	64.8749
1531.09	64.6061
1539.93	64.3387
1548.82	64.0727
1557.76	63.808
1566.75	63.5446
1575.8	63.2826
1584.89	63.0219
1594.04	62.7624
1603.25	62.5042
1612.5	62.247
1621.81	61.9911
1631.17	61.7365
1640.59	61.4831
1650.06	61.2311
1659.59	60.9803
1669.17	60.7307
1678.8	60.4825
1688.5	60.2355
1698.24	59.9897
1708.05	59.7453
1717.91	59.5014
1727.83	59.2554
1737.8	59.0108
1747.83	58.7674
1757.92	58.5253
1768.07	58.2844
1778.28	58.0448
1788.55	57.8064
1798.87	57.5692
1809.26	57.3346
1819.7	57.1013
1830.21	56.8693
1840.77	56.6385
1851.4	56.4089
1862.09	56.1805
1872.84	55.9533
1883.65	55.7273
1894.52	55.5025
1905.46	55.2788
1916.46	55.0564
1927.52	54.8352
1938.65	54.6151
1949.84	54.3961
1961.1	54.1784
1972.42	53.9618
1983.81	53.7463
1995.26	53.5319
2006.78	53.3167
2018.37	53.0992
2030.02	52.8827
2041.74	52.6674
2053.53	52.4532
2065.38	52.24
2077.3	52.028
2089.3	51.8169
2101.36	51.6071
2113.49	51.4002
2125.69	51.1942
2137.96	50.9892
2150.3	50.7852
2162.72	50.5822
2175.2	50.3802
2187.76	50.1792
2200.39	49.9791
2213.09	49.78
2225.87	49.5818
2238.72	49.3846
2251.65	49.1883
2264.64	48.9929
2277.72	48.7985
2290.87	48.6031
2304.09	48.4034
2317.39	48.2046
2330.77	48.0067
2344.23	47.8098
2357.76	47.6137
2371.37	47.4185
2385.06	47.2242
2398.83	47.0306
2412.68	46.8402
2426.61	46.6509
2440.62	46.4623
2454.71	46.2746
2468.88	46.0877
2483.13	45.9017
2497.47	45.7165
2511.89	45.5322
2526.39	45.3488
2540.97	45.1662
2555.64	44.9845
2570.4	44.8038
2585.23	44.6238
2600.16	44.4449
2615.17	44.2668
2630.27	44.0896
2645.45	43.9133
2660.73	43.7379
2676.09	43.5634
2691.53	43.3899
2707.07	43.2173
2722.7	43.0456
2738.42	42.8749
2754.23	42.705
2770.13	42.5361
2786.12	42.3681
2802.21	42.2011
2818.38	42.0346
2834.65	41.8691
2851.02	41.7045
2867.48	41.5409
2884.03	41.3782
2900.68	41.2164
2917.43	41.0555
2934.27	40.8956
2951.21	40.7365
2968.25	40.5784
2985.38	40.4212
3002.62	40.2649
3019.95	40.1094
3037.39	39.9549
3054.92	39.8013
3072.56	39.6486
3090.3	39.4968
3108.14	39.3459
3126.08	39.1958
3144.13	39.0467
3162.28	38.8985
3180.53	38.7512
3198.9	38.6047
3217.36	38.4588
3235.94	38.3137
3254.62	38.1696
3273.41	38.0263
3292.3	37.8838
3311.31	37.7423
3330.43	37.6016
3349.65	37.4617
3368.99	37.3228
3388.44	37.1846
3408	37.0473
3427.68	36.9108
3447.47	36.7752
3467.37	36.6403
3487.39	36.5063
3507.52	36.373
3527.77	36.2404
3548.13	36.1087
3568.62	35.9777
3589.22	35.8475
3609.94	35.7181
3630.78	35.5893
3651.74	35.4613
3672.82	35.3341
3694.03	35.2076
3715.35	35.0819
3736.8	34.9569
3758.37	34.8326
3780.07	34.709
3801.89	34.5862
3823.84	34.4642
3845.92	34.3428
3868.12	34.2221
3890.45	34.1021
3912.91	33.9828
3935.5	33.8642
3958.22	33.7462
3981.07	33.6289
4004.05	33.5122
4027.17	33.3961
4050.42	33.2807
4073.8	33.1659
4097.32	33.0517
4120.98	32.9382
4144.77	32.8252
4168.69	32.713
4192.76	32.6013
4216.97	32.4902
4241.31	32.3797
4265.8	32.2699
4290.42	32.1606
4315.19	32.052
4340.1	31.944
4365.16	31.8366
4390.36	31.7299
4415.7	31.6238
4441.2	31.5183
4466.84	31.4133
4492.62	31.3091
4518.56	31.2054
4544.65	31.1024
4570.88	30.9999
4597.27	30.8981
4623.81	30.7969
4650.5	30.6962
4677.35	30.5962
4704.35	30.4967
4731.51	30.3978
4758.83	30.2995
4786.3	30.2018
4813.93	30.1046
4841.72	30.0081
4869.68	29.9121
4897.79	29.8166
4926.06	29.7218
4954.5	29.6274
4983.1	29.5337
5011.87	29.4405
5040.81	29.3478
5069.91	29.2557
5099.18	29.1642
5128.61	29.0732
5158.22	28.9828
5188	28.8929
5217.95	28.8036
5248.07	28.7148
5278.37	28.6266
5308.84	28.5389
5339.49	28.4518
5370.32	28.3652
5401.32	28.2791
5432.5	28.1936
5463.87	28.1085
5495.41	28.024
5527.13	27.94
5559.04	27.8565
5591.14	27.7735
5623.41	27.6913
5655.88	27.6095
5688.53	27.5283
5721.37	27.4475
5754.4	27.3672
5787.62	27.2874
5821.03	27.208
5854.64	27.1292
5888.44	27.0508
5922.43	26.9729
5956.62	26.8955
5991.01	26.8185
6025.6	26.742
6060.38	26.6659
6095.37	26.5903
6130.56	26.5151
6165.95	26.4404
6201.55	26.3661
6237.35	26.2922
6273.36	26.2187
6309.57	26.1457
6346	26.0732
6382.63	26.001
6419.48	25.9294
6456.54	25.8584
6493.82	25.7877
6531.31	25.7175
6569.01	25.6477
6606.93	25.5782
6645.08	25.5092
6683.44	25.4406
6722.02	25.3724
6760.83	25.3046
6799.86	25.2372
6839.12	25.1703
6878.6	25.1037
6918.31	25.0375
6958.25	24.9717
6998.42	24.9064
7038.82	24.8414
7079.46	24.7767
7120.33	24.7125
7161.43	24.6487
7202.78	24.5853
7244.36	24.5222
7286.18	24.4596
7328.25	24.3974
7370.55	24.3356
7413.1	24.2741
7455.9	24.213
7498.94	24.1524
7542.23	24.0921
7585.78	24.0323
7629.57	23.9728
7673.61	23.9137
7717.92	23.855
7762.47	23.7968
7807.28	23.7389
7852.36	23.6813
7897.69	23.6242
7943.28	23.5675
7989.14	23.5111
8035.26	23.4551
8081.65	23.3994
8128.31	23.344
8175.23	23.2891
8222.43	23.2345
8269.9	23.1803
8317.64	23.1264
8365.66	23.0729
8413.95	23.0198
8462.53	22.967
8511.38	22.9145
8560.52	22.8624
8609.94	22.8107
8659.64	22.7593
8709.64	22.7082
8759.92	22.6575
8810.49	22.6072
8861.35	22.5572
8912.51	22.5075
8963.96	22.4582
9015.71	22.4092
9067.76	22.3606
9120.11	22.3123
9172.76	22.2643
9225.71	22.2167
9278.97	22.1694
9332.54	22.1224
9386.42	22.0758
9440.61	22.0294
9495.11	21.9834
9549.93	21.9377
9605.06	21.8922
9660.51	21.8471
9716.28	21.8023
9772.37	21.7578
9828.79	21.7135
9885.53	21.6696
9942.6	21.6259
10000	21.5826
10057.7	21.5395
10115.8	21.4968
10174.2	21.4543
10232.9	21.4122
10292	21.3703
10351.4	21.3287
10411.2	21.2875
10471.3	21.2465
10531.7	21.2058
10592.5	21.1653
10653.7	21.1252
10715.2	21.0854
10777.1	21.0458
10839.3	21.0066
10901.8	20.9676
10964.8	20.9289
11028.1	20.8904
11091.7	20.8522
11155.8	20.8143
11220.2	20.7767
11285	20.7393
11350.1	20.7021
11415.6	20.6653
11481.5	20.6286
11547.8	20.5923
11614.5	20.5561
11681.5	20.5202
11749	20.4846
11816.8	20.4492
11885	20.4141
11953.6	20.3792
12022.6	20.3444
12092.1	20.3098
12161.9	20.2754
12232.1	20.2413
12302.7	20.2074
12373.7	20.1738
12445.1	20.1404
12517	20.1073
12589.3	20.0744
12661.9	20.0418
12735	20.0094
12808.6	19.9772
12882.5	19.9453
12956.9	19.9136
13031.7	19.8821
13106.9	19.8508
13182.6	19.8198
13258.7	19.789
13335.2	19.7584
13412.2	19.728
13489.6	19.6979
13567.5	19.6679
13645.8	19.6382
13724.6	19.6086
13803.8	19.5793
13883.5	19.5501
13963.7	19.5212
14044.3	19.4923
14125.4	19.4634
14206.9	19.4348
14288.9	19.4064
14371.4	19.3782
14454.4	19.3502
14537.8	19.3225
14621.8	19.2949
14706.2	19.2675
14791.1	19.2404
14876.5	19.2135
14962.4	19.1867
15048.7	19.1602
15135.6	19.1338
15223	19.1076
15310.9	19.0816
15399.3	19.0558
15488.2	19.0302
15577.6	19.0048
15667.5	18.9795
15758	18.9544
15848.9	18.9294
15940.4	18.9046
16032.5	18.8798
16125	18.855
16218.1	18.8304
16311.7	18.8059
16405.9	18.7817
16500.6	18.7576
16595.9	18.7338
16691.7	18.7101
16788	18.6867
16885	18.6634
16982.4	18.6403
17080.5	18.6174
17179.1	18.5946
17278.3	18.5721
17378	18.5498
17478.3	18.5276
17579.2	18.5056
17680.7	18.4838
17782.8	18.4622
17885.5	18.4407
17988.7	18.4195
18092.6	18.3984
18197	18.3775
18302.1	18.3567
18407.7	18.3362
18514	18.3158
18620.9	18.2956
18728.4	18.2756
18836.5	18.2557
18945.2	18.236
19054.6	18.2165
19164.6	18.1971
19275.2	18.1779
19386.5	18.1589
19498.4	18.1401
19611	18.1214
19724.2	18.1028
19838.1	18.0845
19952.6	18.0663
20067.8	18.0482
20183.7	18.0303
20300.2	18.0126
20417.4	17.995
20535.3	17.9776
20653.8	17.9603
20773	17.9432
20893	17.9263
21013.6	17.9095
21134.9	17.8928
21256.9	17.8763
21379.6	17.86
21503	17.8438
21627.2	17.8277
21752	17.8118
21877.6	17.7961
22003.9	17.7804
22130.9	17.765
22258.7	17.7497
22387.2	17.7345
22516.5	17.7195
22646.4	17.7046
22777.2	17.6898
22908.7	17.6752
23040.9	17.6607
23173.9	17.6464
23307.7	17.6322
23442.3	17.6181
23577.6	17.6042
23713.7	17.5904
23850.6	17.5767
23988.3	17.5632
24126.8	17.5498
24266.1	17.5366
24406.2	17.5234
24547.1	17.5104
24688.8	17.4976
24831.3	17.4848
24974.7	17.4722
25118.9	17.4597
25263.9	17.4474
25409.7	17.4351
25556.4	17.423
25704	17.411
25852.3	17.3992
26001.6	17.3874
26151.7	17.3758
26302.7	17.3643
26454.5	17.3529
26607.3	17.3416
26760.9	17.3305
26915.3	17.3195
27070.7	17.3086
27227	17.2978
27384.2	17.2871
27542.3	17.2765
27701.3	17.2661
27861.2	17.2557
28022.1	17.2455
28183.8	17.2354
28346.5	17.2254
28510.2	17.2155
28674.8	17.2057
28840.3	17.196
29006.8	17.1865
29174.3	17.177
29342.7	17.1676
29512.1	17.1584
29682.5	17.1492
29853.8	17.1402
30026.2	17.1313
30199.5	17.1225
30373.9	17.1137
30549.2	17.1051
30725.6	17.0966
30903	17.0882
31081.4	17.0799
31260.8	17.0716
31441.3	17.0635
31622.8	17.0555
31805.3	17.0475
31989	17.0397
32173.6	17.032
32359.4	17.0243
32546.2	17.0168
32734.1	17.0093
32923	17.002
33113.1	16.9947
33304.3	16.9875
33496.5	16.9804
33689.9	16.9734
33884.4	16.9665
34080	16.9597
34276.8	16.953
34474.7	16.9463
34673.7	16.9398
34873.9	16.9333
35075.2	16.9269
35277.7	16.9206
35481.3	16.9144
35686.2	16.9083
35892.2	16.9023
36099.4	16.8963
36307.8	16.8904
36517.4	16.8847
36728.2	16.8789
36940.3	16.8733
37153.5	16.8677
37368	16.8623
37583.7	16.8569
37800.7	16.8516
38018.9	16.8464
38238.4	16.8412
38459.2	16.8362
38681.2	16.8311
38904.5	16.8262
39129.1	16.8214
39355	16.8166
39582.2	16.8119
39810.7	16.8073
40040.5	16.8027
40271.7	16.7982
40504.2	16.7938
40738	16.7895
40973.2	16.7852
41209.8	16.781
41447.7	16.7769
41686.9	16.7729
41927.6	16.7689
42169.7	16.7649
42413.1	16.7611
42658	16.7573
42904.2	16.7536
43151.9	16.7499
43401	16.7463
43651.6	16.7428
43903.6	16.7394
44157	16.7359
44412	16.7326
44668.4	16.7294
44926.2	16.7262
45185.6	16.723
45446.5	16.72
45708.8	16.7169
45972.7	16.714
46238.1	16.7111
46505	16.7082
46773.5	16.7054
47043.5	16.7027
47315.1	16.7001
47588.3	16.6975
47863	16.6949
48139.3	16.6924
48417.2	16.69
48696.8	16.6876
48977.9	16.6853
49260.6	16.6831
49545	16.6808
49831	16.6787
50118.7	16.6766
50408.1	16.6745
50699.1	16.6725
50991.8	16.6705
51286.1	16.6687
51582.2	16.6668
51880	16.6651
52179.5	16.6633
52480.7	16.6616
52783.7	16.66
53088.4	16.6584
53394.9	16.6569
53703.2	16.6553
54013.2	16.6539
54325	16.6525
54638.7	16.6512
54954.1	16.6498
55271.3	16.6486
55590.4	16.6474
55911.4	16.6462
56234.1	16.6451
56558.8	16.644
56885.3	16.643
57213.7	16.642
57544	16.6411
57876.2	16.6402
58210.3	16.6393
58546.4	16.6385
58884.4	16.6377
59224.3	16.637
59566.2	16.6363
59910.1	16.6356
60256	16.635
60603.8	16.6345
60953.7	16.6339
61305.6	16.6335
61659.5	16.633
62015.5	16.6326
62373.5	16.6322
62733.6	16.6319
63095.7	16.6316
63460	16.6313
63826.3	16.6311
64194.8	16.6309
64565.4	16.6307
64938.2	16.6306
65313.1	16.6305
65690.1	16.6305
66069.3	16.6305
66450.8	16.6305
66834.4	16.6306
67220.2	16.6306
67608.3	16.6308
67998.6	16.6309
68391.2	16.6311
68786	16.6313
69183.1	16.6316
69582.5	16.6319
69984.2	16.6322
70388.2	16.6326
70794.6	16.6329
71203.3	16.6333
71614.3	16.6338
72027.8	16.6343
72443.6	16.6347
72861.8	16.6353
73282.5	16.6358
73705.5	16.6365
74131	16.6371
74559	16.6377
74989.4	16.6384
75422.3	16.6391
75857.8	16.6398
76295.7	16.6405
76736.1	16.6413
77179.2	16.6421
77624.7	16.6429
78072.8	16.6438
78523.6	16.6447
78976.9	16.6456
79432.8	16.6465
79891.4	16.6475
80352.6	16.6485
80816.5	16.6495
81283.1	16.6505
81752.3	16.6516
82224.3	16.6526
82699	16.6537
83176.4	16.6548
83656.6	16.656
84139.5	16.6572
84625.3	16.6583
85113.8	16.6596
85605.2	16.6608
86099.4	16.662
86596.4	16.6633
87096.4	16.6646
87599.2	16.6659
88104.9	16.6672
88613.5	16.6686
89125.1	16.67
89639.6	16.6713
90157.1	16.6728
90677.6	16.6742
91201.1	16.6756
91727.6	16.6771
92257.1	16.6786
92789.7	16.6801
93325.4	16.6816
93864.2	16.6832
94406.1	16.6847
94951.1	16.6863
95499.3	16.6879
96050.6	16.6895
96605.1	16.6911
97162.8	16.6928
97723.7	16.6944
98287.9	16.6961
98855.3	16.6978
99426	16.6995
100000	16.7011
100577	16.7029
101158	16.7046
101742	16.7064
102329	16.7082
102920	16.71
103514	16.7118
104112	16.7136
104713	16.7154
105317	16.7173
105925	16.7191
106537	16.721
107152	16.7228
107771	16.7248
108393	16.7266
109018	16.7286
109648	16.7305
110281	16.7325
110917	16.7344
111558	16.7363
112202	16.7383
112850	16.7403
113501	16.7423
114156	16.7443
114815	16.7464
115478	16.7483
116145	16.7504
116815	16.7525
117490	16.7545
118168	16.7566
118850	16.7587
119536	16.7607
120226	16.7629
120921	16.765
121619	16.767
122321	16.7692
123027	16.7713
123737	16.7734
124451	16.7756
125170	16.7777
125893	16.7799
126619	16.7821
127350	16.7842
128086	16.7865
128825	16.7886
129569	16.7908
130317	16.793
131069	16.7952
131826	16.7975
132587	16.7997
133352	16.8019
134122	16.8042
134896	16.8064
135675	16.8086
136458	16.8109
137246	16.8132
138038	16.8154
138835	16.8177
139637	16.82
140443	16.8222
141254	16.8245
142069	16.8268
142889	16.8291
143714	16.8314
144544	16.8338
145378	16.8361
146218	16.8383
147062	16.8407
147911	16.843
148765	16.8453
149624	16.8476
150487	16.85
151356	16.8523
152230	16.8547
153109	16.857
153993	16.8594
154882	16.8617
155776	16.8641
156675	16.8664
157580	16.8687
158489	16.8711
159404	16.8735
160325	16.8759
161250	16.8782
162181	16.8806
163117	16.883
164059	16.8854
165006	16.8877
165959	16.8901
166917	16.8925
167880	16.8948
168850	16.8972
169824	16.8996
170805	16.902
171791	16.9044
172783	16.9068
173780	16.9092
174783	16.9116
175792	16.9139
176807	16.9163
177828	16.9187
178855	16.9211
179887	16.9235
180926	16.9259
181970	16.9283
183021	16.9307
184077	16.9331
185140	16.9355
186209	16.9379
187284	16.9402
188365	16.9426
189452	16.945
190546	16.9474
191646	16.9498
192752	16.9522
193865	16.9546
194984	16.957
196110	16.9594
197242	16.9618
198381	16.9642
199526	16.9665
200678	16.9689
201837	16.9713
203002	16.9737
204174	16.9761
205353	16.9784
206538	16.9808
207730	16.9832
208930	16.9856
210136	16.9879
211349	16.9903
212569	16.9927
213796	16.995
215030	16.9974
216272	16.9998
217520	17.0021
218776	17.0045
220039	17.0068
221309	17.0092
222587	17.0116
223872	17.0139
225165	17.0162
226464	17.0186
227772	17.0209
229087	17.0233
230409	17.0256
231739	17.0279
233077	17.0303
234423	17.0326
235776	17.0349
237137	17.0372
238506	17.0396
239883	17.0419
241268	17.0442
242661	17.0465
244062	17.0488
245471	17.0511
246888	17.0534
248313	17.0557
249747	17.058
251189	17.0603
252639	17.0626
254097	17.0649
255564	17.0672
257040	17.0695
258523	17.0717
260016	17.074
261517	17.0763
263027	17.0785
264545	17.0808
266073	17.083
267609	17.0853
269153	17.0876
270707	17.0898
272270	17.092
273842	17.0942
275423	17.0965
277013	17.0987
278612	17.1009
280221	17.1031
281838	17.1054
283465	17.1076
285102	17.1098
286748	17.112
288403	17.1142
290068	17.1164
291743	17.1186
293427	17.1207
295121	17.1229
296825	17.1251
298538	17.1272
300262	17.1294
301995	17.1316
303739	17.1337
305492	17.1359
307256	17.138
309030	17.1402
310814	17.1423
312608	17.1444
314413	17.1466
316228	17.1487
318053	17.1508
319890	17.1529
321736	17.1551
323594	17.1571
325462	17.1593
327341	17.1613
329230	17.1634
331131	17.1655
333043	17.1676
334965	17.1696
336899	17.1717
338844	17.1738
340800	17.1759
342768	17.1779
344747	17.18
346737	17.182
348739	17.184
350752	17.1861
352777	17.1881
354813	17.1901
356862	17.1921
358922	17.1942
360994	17.1961
363078	17.1981
365174	17.2001
367282	17.2021
369403	17.2041
371535	17.2061
373680	17.2081
375837	17.21
378007	17.212
380189	17.214
382384	17.2159
384592	17.2179
386812	17.2198
389045	17.2217
391291	17.2236
393550	17.2256
395822	17.2275
398107	17.2294
400405	17.2313
402717	17.2332
405042	17.2351
407380	17.237
409732	17.2388
412098	17.2407
414477	17.2426
416869	17.2445
419276	17.2463
421697	17.2482
424131	17.25
426580	17.2518
429042	17.2537
431519	17.2555
434010	17.2573
436516	17.2592
439036	17.261
441570	17.2628
444120	17.2646
446684	17.2664
449262	17.2682
451856	17.27
454465	17.2718
457088	17.2735
459727	17.2753
462381	17.277
465050	17.2788
467735	17.2806
470435	17.2823
473151	17.284
475883	17.2858
478630	17.2875
481393	17.2892
484172	17.2909
486968	17.2926
489779	17.2943
492606	17.296
495450	17.2977
498310	17.2994
501187	17.3011
504081	17.3028
506991	17.3044
509918	17.3061
512861	17.3078
515822	17.3094
518800	17.311
521795	17.3127
524807	17.3143
527837	17.3159
530884	17.3175
533949	17.3191
537032	17.3208
540132	17.3224
543250	17.324
546387	17.3255
549541	17.3271
552713	17.3287
555904	17.3303
559114	17.3318
562341	17.3334
565588	17.335
568853	17.3365
572137	17.3381
575440	17.3396
578762	17.3411
582103	17.3426
585464	17.3442
588844	17.3457
592243	17.3471
595662	17.3486
599101	17.3501
602560	17.3516
606038	17.3531
609537	17.3546
613056	17.3561
616595	17.3575
620155	17.359
623735	17.3604
627336	17.3619
630957	17.3633
634600	17.3648
638263	17.3662
641948	17.3676
645654	17.369
649382	17.3704
653131	17.3718
656901	17.3732
660693	17.3746
664508	17.376
668344	17.3774
672202	17.3788
676083	17.3801
679986	17.3815
683912	17.3829
687860	17.3842
691831	17.3856
695825	17.3869
699842	17.3882
703882	17.3896
707946	17.3909
712033	17.3922
716143	17.3935
720278	17.3948
724436	17.3961
728618	17.3974
732825	17.3987
737055	17.4
741310	17.4013
745590	17.4025
749894	17.4038
754223	17.4051
758578	17.4063
762957	17.4076
767361	17.4088
771792	17.41
776247	17.4113
780728	17.4125
785236	17.4137
789769	17.4149
794328	17.4161
798914	17.4173
803526	17.4185
808165	17.4197
812831	17.4209
817523	17.4221
822243	17.4233
826990	17.4244
831764	17.4256
836566	17.4267
841395	17.4279
846253	17.429
851138	17.4302
856052	17.4313
860994	17.4325
865964	17.4336
870964	17.4347
875992	17.4358
881049	17.4369
886135	17.438
891251	17.4391
896396	17.4402
901571	17.4413
906776	17.4424
912011	17.4434
917276	17.4445
922571	17.4456
927897	17.4466
933254	17.4477
938642	17.4487
944061	17.4498
949511	17.4508
954993	17.4518
960506	17.4529
966051	17.4539
971628	17.4549
977237	17.4559
982879	17.4569
988553	17.4579
994260	17.4589
1e+06	17.4599
1.00577e+06	17.4609
1.01158e+06	17.4619
1.01742e+06	17.4628
1.02329e+06	17.4638
1.0292e+06	17.4648
1.03514e+06	17.4657
1.04112e+06	17.4667
1.04713e+06	17.4676
1.05317e+06	17.4686
1.05925e+06	17.4695
1.06537e+06	17.4705
1.07152e+06	17.4714
1.07771e+06	17.4723
1.08393e+06	17.4732
1.09018e+06	17.4741
1.09648e+06	17.475
1.10281e+06	17.476
1.10917e+06	17.4768
1.11558e+06	17.4777
1.12202e+06	17.4786
1.1285e+06	17.4795
1.13501e+06	17.4804
1.14156e+06	17.4812
1.14815e+06	17.4821
1.15478e+06	17.483
1.16145e+06	17.4838
1.16815e+06	17.4847
1.1749e+06	17.4855
1.18168e+06	17.4864
1.1885e+06	17.4872
1.19536e+06	17.488
1.20226e+06	17.4889
1.20921e+06	17.4897
1.21619e+06	17.4905
1.22321e+06	17.4913
1.23027e+06	17.4921
1.23737e+06	17.4929
1.24451e+06	17.4937
1.2517e+06	17.4945
1.25893e+06	17.4953
1.26619e+06	17.4961
1.2735e+06	17.4969
1.28086e+06	17.4976
1.28825e+06	17.4984
1.29569e+06	17.4992
1.30317e+06	17.4999
1.31069e+06	17.5007
1.31826e+06	17.5015
1.32587e+06	17.5022
1.33352e+06	17.5029
1.34122e+06	17.5037
1.34896e+06	17.5044
1.35675e+06	17.5051
1.36458e+06	17.5059
1.37246e+06	17.5066
1.38038e+06	17.5073
1.38835e+06	17.508
1.39637e+06	17.5087
1.40443e+06	17.5094
1.41254e+06	17.5101
1.42069e+06	17.5108
1.42889e+06	17.5115
1.43714e+06	17.5122
1.44544e+06	17.5128
1.45378e+06	17.5135
1.46218e+06	17.5142
1.47062e+06	17.5148
1.47911e+06	17.5155
1.48765e+06	17.5162
1.49624e+06	17.5168
1.50487e+06	17.5175
1.51356e+06	17.5181
1.5223e+06	17.5187
1.53109e+06	17.5194
1.53993e+06	17.52
1.54882e+06	17.5206
1.55776e+06	17.5213
1.56675e+06	17.5219
1.5758e+06	17.5225
1.58489e+06	17.5231
1.59404e+06	17.5237
1.60325e+06	17.5243
1.6125e+06	17.5249
1.62181e+06	17.5255
1.63117e+06	17.5261
1.64059e+06	17.5267
1.65006e+06	17.5272
1.65959e+06	17.5278
1.66917e+06	17.5284
1.6788e+06	17.529
1.6885e+06	17.5295
1.69824e+06	17.5301
1.70805e+06	17.5307
1.71791e+06	17.5312
1.72783e+06	17.5318
1.7378e+06	17.5323
1.74783e+06	17.5328
1.75792e+06	17.5334
1.76807e+06	17.5339
1.77828e+06	17.5344
1.78855e+06	17.5349
1.79887e+06	17.5355
1.80926e+06	17.536
1.8197e+06	17.5365
1.83021e+06	17.537
1.84077e+06	17.5375
1.8514e+06	17.538
1.86209e+06	17.5385
1.87284e+06	17.539
1.88365e+06	17.5395
1.89452e+06	17.54
1.90546e+06	17.5405
1.91646e+06	17.5409
1.92752e+06	17.5414
1.93865e+06	17.5419
1.94984e+06	17.5424
1.9611e+06	17.5428
1.97242e+06	17.5433
1.98381e+06	17.5438
1.99526e+06	17.5442
2.00678e+06	17.5447
2.01837e+06	17.5451
2.03002e+06	17.5455
2.04174e+06	17.546
2.05353e+06	17.5464
2.06538e+06	17.5469
2.0773e+06	17.5473
2.0893e+06	17.5477
2.10136e+06	17.5481
2.11349e+06	17.5485
2.12569e+06	17.549
2.13796e+06	17.5494
2.1503e+06	17.5498
2.16272e+06	17.5502
2.1752e+06	17.5506
2.18776e+06	17.551
2.20039e+06	17.5514
2.21309e+06	17.5518
2.22587e+06	17.5521
2.23872e+06	17.5525
2.25165e+06	17.5529
2.26464e+06	17.5533
2.27772e+06	17.5537
2.29087e+06	17.554
2.30409e+06	17.5544
2.31739e+06	17.5548
2.33077e+06	17.5551
2.34423e+06	17.5555
2.35776e+06	17.5558
2.37137e+06	17.5562
2.38506e+06	17.5566
2.39883e+06	17.5569
2.41268e+06	17.5572
2.42661e+06	17.5576
2.44062e+06	17.5579
2.45471e+06	17.5583
2.46888e+06	17.5586
2.48313e+06	17.5589
2.49747e+06	17.5592
2.51189e+06	17.5596
2.52639e+06	17.5598
2.54097e+06	17.5602
2.55564e+06	17.5605
2.5704e+06	17.5608
2.58523e+06	17.5611
2.60016e+06	17.5614
2.61517e+06	17.5617
2.63027e+06	17.562
2.64545e+06	17.5623
2.66073e+06	17.5626
2.67609e+06	17.5629
2.69153e+06	17.5632
2.70707e+06	17.5634
2.7227e+06	17.5638
2.73842e+06	17.564
2.75423e+06	17.5643
2.77013e+06	17.5646
2.78612e+06	17.5648
2.80221e+06	17.5651
2.81838e+06	17.5654
2.83465e+06	17.5656
2.85102e+06	17.5659
2.86748e+06	17.5661
2.88403e+06	17.5664
2.90068e+06	17.5666
2.91743e+06	17.5669
2.93427e+06	17.5671
2.95121e+06	17.5674
2.96825e+06	17.5676
2.98538e+06	17.5679
3.00262e+06	17.5681
3.01995e+06	17.5683
3.03739e+06	17.5685
3.05492e+06	17.5688
3.07256e+06	17.569
3.0903e+06	17.5692
3.10814e+06	17.5694
3.12608e+06	17.5697
3.14413e+06	17.5699
3.16228e+06	17.5701
3.18053e+06	17.5703
3.1989e+06	17.5705
3.21736e+06	17.5707
3.23594e+06	17.5709
3.25462e+06	17.5711
3.27341e+06	17.5713
3.2923e+06	17.5715
3.31131e+06	17.5717
3.33043e+06	17.5719
3.34965e+06	17.5721
3.36899e+06	17.5723
3.38844e+06	17.5725
3.408e+06	17.5726
3.42768e+06	17.5728
3.44747e+06	17.573
3.46737e+06	17.5732
3.48739e+06	17.5733
3.50752e+06	17.5735
3.52777e+06	17.5737
3.54813e+06	17.5739
3.56862e+06	17.574
3.58922e+06	17.5742
3.60994e+06	17.5744
3.63078e+06	17.5745
3.65174e+06	17.5747
3.67282e+06	17.5748
3.69403e+06	17.575
3.71535e+06	17.5751
3.7368e+06	17.5753
3.75837e+06	17.5754
3.78007e+06	17.5755
3.80189e+06	17.5757
3.82384e+06	17.5759
3.84592e+06	17.576
3.86812e+06	17.5761
3.89045e+06	17.5763
3.91291e+06	17.5764
3.9355e+06	17.5765
3.95822e+06	17.5766
3.98107e+06	17.5768
4.00405e+06	17.5769
4.02717e+06	17.577
4.05042e+06	17.5771
4.0738e+06	17.5773
4.09732e+06	17.5774
4.12098e+06	17.5775
4.14477e+06	17.5776
4.16869e+06	17.5777
4.19276e+06	17.5778
4.21697e+06	17.578
4.24131e+06	17.5781
4.2658e+06	17.5782
4.29042e+06	17.5783
4.31519e+06	17.5784
4.3401e+06	17.5785
4.36516e+06	17.5786
4.39036e+06	17.5787
4.4157e+06	17.5788
4.4412e+06	17.5789
4.46684e+06	17.579
4.49262e+06	17.5791
4.51856e+06	17.5792
4.54465e+06	17.5793
4.57088e+06	17.5793
4.59727e+06	17.5795
4.62381e+06	17.5795
4.6505e+06	17.5796
4.67735e+06	17.5797
4.70435e+06	17.5798
4.73151e+06	17.5798
4.75883e+06	17.5799
4.7863e+06	17.58
4.81393e+06	17.5801
4.84172e+06	17.5801
4.86968e+06	17.5803
4.89779e+06	17.5803
4.92606e+06	17.5804
4.9545e+06	17.5804
4.9831e+06	17.5805
5.01187e+06	17.5806
5.04081e+06	17.5806
5.06991e+06	17.5807
5.09918e+06	17.5808
5.12861e+06	17.5808
5.15822e+06	17.5809
5.188e+06	17.5809
5.21795e+06	17.581
5.24807e+06	17.581
5.27837e+06	17.5811
5.30884e+06	17.5812
5.33949e+06	17.5812
5.37032e+06	17.5813
5.40132e+06	17.5813
5.4325e+06	17.5814
5.46387e+06	17.5814
5.49541e+06	17.5815
5.52713e+06	17.5815
5.55904e+06	17.5816
5.59114e+06	17.5816
5.62341e+06	17.5816
5.65588e+06	17.5817
5.68853e+06	17.5817
5.72137e+06	17.5818
5.7544e+06	17.5818
5.78762e+06	17.5819
5.82103e+06	17.5819
5.85464e+06	17.5819
5.88844e+06	17.582
5.92243e+06	17.582
5.95662e+06	17.582
5.99101e+06	17.5821
6.0256e+06	17.5821
6.06038e+06	17.5821
6.09537e+06	17.5821
6.13056e+06	17.5822
6.16595e+06	17.5822
6.20155e+06	17.5823
6.23735e+06	17.5823
6.27336e+06	17.5823
6.30957e+06	17.5823
6.346e+06	17.5824
6.38263e+06	17.5824
6.41948e+06	17.5824
6.45654e+06	17.5824
6.49382e+06	17.5825
6.53131e+06	17.5825
6.56901e+06	17.5825
6.60693e+06	17.5825
6.64508e+06	17.5825
6.68344e+06	17.5826
6.72202e+06	17.5826
6.76083e+06	17.5826
6.79986e+06	17.5826
6.83912e+06	17.5826
6.8786e+06	17.5826
6.91831e+06	17.5826
6.95825e+06	17.5826
6.99842e+06	17.5827
7.03882e+06	17.5827
7.07946e+06	17.5827
7.12033e+06	17.5827
7.16143e+06	17.5827
7.20278e+06	17.5827
7.24436e+06	17.5827
7.28618e+06	17.5828
7.32825e+06	17.5828
7.37055e+06	17.5828
7.4131e+06	17.5828
7.4559e+06	17.5828
7.49894e+06	17.5828
7.54223e+06	17.5828
7.58578e+06	17.5828
7.62957e+06	17.5828
7.67361e+06	17.5828
7.71792e+06	17.5828
7.76247e+06	17.5829
7.80728e+06	17.5829
7.85236e+06	17.5829
7.89769e+06	17.5829
7.94328e+06	17.5829
7.98914e+06	17.5829
8.03526e+06	17.5829
8.08165e+06	17.5829
8.12831e+06	17.5829
8.17523e+06	17.5829
8.22243e+06	17.5829
8.2699e+06	17.5829
8.31764e+06	17.5829
8.36566e+06	17.5829
8.41395e+06	17.5829
8.46253e+06	17.5829
8.51138e+06	17.5829
8.56052e+06	17.5829
8.60994e+06	17.5829
8.65964e+06	17.5829
8.70964e+06	17.5829
8.75992e+06	17.5829
8.81049e+06	17.5829
8.86135e+06	17.5829
8.91251e+06	17.5829
8.96396e+06	17.5829
9.01571e+06	17.5829
9.06776e+06	17.5829
9.12011e+06	17.5829
9.17276e+06	17.5829
9.22571e+06	17.5829
9.27897e+06	17.5829
9.33254e+06	17.5829
9.38642e+06	17.5829
9.44061e+06	17.5829
9.49511e+06	17.5829
9.54993e+06	17.5829
9.60506e+06	17.5829
9.66051e+06	17.5829
9.71628e+06	17.5829
9.77237e+06	17.5829
9.82879e+06	17.5829
9.88553e+06	17.5829
9.9426e+06	17.5829
1e+07	17.5829
