E [MeV]	dEdx [keV/microm]
0.001	43.3896
0.00100577	43.5147
0.00101158	43.6401
0.00101742	43.7659
0.00102329	43.892
0.0010292	44.0186
0.00103514	44.1454
0.00104112	44.2727
0.00104713	44.4003
0.00105317	44.5283
0.00105925	44.6566
0.00106537	44.7853
0.00107152	44.9144
0.00107771	45.0439
0.00108393	45.1737
0.00109018	45.3039
0.00109648	45.4345
0.00110281	45.5655
0.00110917	45.6968
0.00111558	45.8285
0.00112202	45.9606
0.0011285	46.0931
0.00113501	46.226
0.00114156	46.3592
0.00114815	46.4928
0.00115478	46.6268
0.00116145	46.7612
0.00116815	46.896
0.0011749	47.0312
0.00118168	47.1668
0.0011885	47.3027
0.00119536	47.439
0.00120226	47.5758
0.00120921	47.7129
0.00121619	47.8504
0.00122321	47.9884
0.00123027	48.1267
0.00123737	48.2654
0.00124451	48.4045
0.0012517	48.544
0.00125893	48.6839
0.00126619	48.8243
0.0012735	48.965
0.00128086	49.1062
0.00128825	49.2477
0.00129569	49.3896
0.00130317	49.532
0.00131069	49.6748
0.00131826	49.818
0.00132587	49.9615
0.00133352	50.1056
0.00134122	50.25
0.00134896	50.3948
0.00135675	50.5401
0.00136458	50.6858
0.00137246	50.8319
0.00138038	50.9783
0.00138835	51.1253
0.00139637	51.2727
0.00140443	51.4205
0.00141254	51.5687
0.00142069	51.7173
0.00142889	51.8664
0.00143714	52.0159
0.00144544	52.1658
0.00145378	52.3162
0.00146218	52.4669
0.00147062	52.6182
0.00147911	52.7699
0.00148765	52.922
0.00149624	53.0745
0.00150487	53.2275
0.00151356	53.3809
0.0015223	53.5347
0.00153109	53.6891
0.00153993	53.8438
0.00154882	53.999
0.00155776	54.1547
0.00156675	54.3108
0.0015758	54.4673
0.00158489	54.6243
0.00159404	54.7817
0.00160325	54.9397
0.0016125	55.098
0.00162181	55.2568
0.00163117	55.4161
0.00164059	55.5758
0.00165006	55.736
0.00165959	55.8967
0.00166917	56.0578
0.0016788	56.2193
0.0016885	56.3814
0.00169824	56.5439
0.00170805	56.7069
0.00171791	56.8704
0.00172783	57.0343
0.0017378	57.1987
0.00174783	57.3635
0.00175792	57.5289
0.00176807	57.6947
0.00177828	57.861
0.00178855	58.0277
0.00179887	58.1951
0.00180926	58.3628
0.0018197	58.531
0.00183021	58.6997
0.00184077	58.8689
0.0018514	59.0386
0.00186209	59.2087
0.00187284	59.3794
0.00188365	59.5506
0.00189452	59.7222
0.00190546	59.8944
0.00191646	60.067
0.00192752	60.2401
0.00193865	60.4138
0.00194984	60.5879
0.0019611	60.7625
0.00197242	60.9377
0.00198381	61.1133
0.00199526	61.2895
0.00200678	61.4661
0.00201837	61.6433
0.00203002	61.821
0.00204174	61.9992
0.00205353	62.1779
0.00206538	62.3571
0.0020773	62.5368
0.0020893	62.7171
0.00210136	62.8979
0.00211349	63.0792
0.00212569	63.261
0.00213796	63.4433
0.0021503	63.6262
0.00216272	63.8096
0.0021752	63.9935
0.00218776	64.178
0.00220039	64.3629
0.00221309	64.5485
0.00222587	64.7345
0.00223872	64.9211
0.00225165	65.1082
0.00226464	65.2959
0.00227772	65.4841
0.00229087	65.6729
0.00230409	65.8621
0.00231739	66.052
0.00233077	66.2424
0.00234423	66.4333
0.00235776	66.6248
0.00237137	66.8168
0.00238506	67.0094
0.00239883	67.2026
0.00241268	67.3963
0.00242661	67.5905
0.00244062	67.7854
0.00245471	67.9807
0.00246888	68.1767
0.00248313	68.3732
0.00249747	68.5703
0.00251189	68.7679
0.00252639	68.9662
0.00254097	69.1649
0.00255564	69.3643
0.0025704	69.5642
0.00258523	69.7647
0.00260016	69.9658
0.00261517	70.1675
0.00263027	70.3697
0.00264545	70.5726
0.00266073	70.776
0.00267609	70.98
0.00269153	71.1846
0.00270707	71.3898
0.0027227	71.5955
0.00273842	71.8019
0.00275423	72.0089
0.00277013	72.2164
0.00278612	72.4246
0.00280221	72.6333
0.00281838	72.8427
0.00283465	73.0526
0.00285102	73.2632
0.00286748	73.4744
0.00288403	73.6862
0.00290068	73.8985
0.00291743	74.1115
0.00293427	74.3252
0.00295121	74.5394
0.00296825	74.7543
0.00298538	74.9697
0.00300262	75.1854
0.00301995	75.4005
0.00303739	75.6162
0.00305492	75.8325
0.00307256	76.0495
0.0030903	76.267
0.00310814	76.4852
0.00312608	76.7041
0.00314413	76.9235
0.00316228	77.1436
0.00318053	77.3644
0.0031989	77.5857
0.00321736	77.8077
0.00323594	78.0304
0.00325462	78.2537
0.00327341	78.4776
0.0032923	78.7022
0.00331131	78.9274
0.00333043	79.1533
0.00334965	79.3798
0.00336899	79.607
0.00338844	79.8348
0.003408	80.0633
0.00342768	80.2925
0.00344747	80.5223
0.00346737	80.7527
0.00348739	80.9839
0.00350752	81.2148
0.00352777	81.4454
0.00354813	81.6766
0.00356862	81.9085
0.00358922	82.1411
0.00360994	82.3743
0.00363078	82.6083
0.00365174	82.8428
0.00367282	83.0781
0.00369403	83.314
0.00371535	83.5507
0.0037368	83.788
0.00375837	84.026
0.00378007	84.2646
0.00380189	84.504
0.00382384	84.7441
0.00384592	84.9848
0.00386812	85.2262
0.00389045	85.4683
0.00391291	85.7112
0.0039355	85.9547
0.00395822	86.199
0.00398107	86.4439
0.00400405	86.6888
0.00402717	86.933
0.00405042	87.1779
0.0040738	87.4235
0.00409732	87.6698
0.00412098	87.9168
0.00414477	88.1646
0.00416869	88.413
0.00419276	88.6622
0.00421697	88.912
0.00424131	89.1627
0.0042658	89.414
0.00429042	89.666
0.00431519	89.9188
0.0043401	90.1723
0.00436516	90.4266
0.00439036	90.6815
0.0044157	90.9373
0.0044412	91.1937
0.00446684	91.4509
0.00449262	91.7088
0.00451856	91.9675
0.00454465	92.2269
0.00457088	92.4871
0.00459727	92.748
0.00462381	93.0097
0.0046505	93.2721
0.00467735	93.5352
0.00470435	93.7992
0.00473151	94.0639
0.00475883	94.3295
0.0047863	94.5956
0.00481393	94.8629
0.00484172	95.1306
0.00486968	95.3992
0.00489779	95.6683
0.00492606	95.9385
0.0049545	96.2093
0.0049831	96.4812
0.00501187	96.7536
0.00504081	97.0269
0.00506991	97.3007
0.00509918	97.5756
0.00512861	97.8511
0.00515822	98.1277
0.005188	98.4049
0.00521795	98.6829
0.00524807	98.9618
0.00527837	99.2415
0.00530884	99.5217
0.00533949	99.8031
0.00537032	100.085
0.00540132	100.368
0.0054325	100.652
0.00546387	100.936
0.00549541	101.222
0.00552713	101.508
0.00555904	101.794
0.00559114	102.083
0.00562341	102.371
0.00565588	102.661
0.00568853	102.951
0.00572137	103.242
0.0057544	103.534
0.00578762	103.827
0.00582103	104.121
0.00585464	104.415
0.00588844	104.711
0.00592243	105.007
0.00595662	105.304
0.00599101	105.602
0.0060256	105.901
0.00606038	106.201
0.00609537	106.501
0.00613056	106.803
0.00616595	107.105
0.00620155	107.408
0.00623735	107.712
0.00627336	108.017
0.00630957	108.323
0.006346	108.63
0.00638263	108.938
0.00641948	109.246
0.00645654	109.556
0.00649382	109.866
0.00653131	110.177
0.00656901	110.489
0.00660693	110.802
0.00664508	111.116
0.00668344	111.431
0.00672202	111.747
0.00676083	112.063
0.00679986	112.381
0.00683912	112.699
0.0068786	113.019
0.00691831	113.339
0.00695825	113.66
0.00699842	113.983
0.00703882	114.306
0.00707946	114.63
0.00712033	114.955
0.00716143	115.281
0.00720278	115.608
0.00724436	115.936
0.00728618	116.265
0.00732825	116.594
0.00737055	116.925
0.0074131	117.257
0.0074559	117.59
0.00749894	117.923
0.00754223	118.258
0.00758578	118.594
0.00762957	118.93
0.00767361	119.268
0.00771792	119.606
0.00776247	119.945
0.00780728	120.286
0.00785236	120.627
0.00789769	120.97
0.00794328	121.313
0.00798914	121.658
0.00803526	122.003
0.00808165	122.349
0.00812831	122.697
0.00817523	123.046
0.00822243	123.395
0.0082699	123.745
0.00831764	124.097
0.00836566	124.45
0.00841395	124.803
0.00846253	125.158
0.00851138	125.513
0.00856052	125.87
0.00860994	126.228
0.00865964	126.587
0.00870964	126.946
0.00875992	127.307
0.00881049	127.669
0.00886135	128.032
0.00891251	128.396
0.00896396	128.761
0.00901571	129.127
0.00906776	129.494
0.00912011	129.863
0.00917276	130.232
0.00922571	130.603
0.00927897	130.974
0.00933254	131.347
0.00938642	131.72
0.00944061	132.095
0.00949511	132.471
0.00954993	132.848
0.00960506	133.226
0.00966051	133.605
0.00971628	133.985
0.00977237	134.367
0.00982879	134.749
0.00988553	135.133
0.0099426	135.518
0.01	135.903
0.0100577	136.29
0.0101158	136.678
0.0101742	137.068
0.0102329	137.458
0.010292	137.849
0.0103514	138.242
0.0104112	138.636
0.0104713	139.031
0.0105317	139.427
0.0105925	139.824
0.0106537	140.222
0.0107152	140.622
0.0107771	141.022
0.0108393	141.424
0.0109018	141.827
0.0109648	142.232
0.0110281	142.637
0.0110917	143.044
0.0111558	143.452
0.0112202	143.86
0.011285	144.27
0.0113501	144.682
0.0114156	145.094
0.0114815	145.508
0.0115478	145.923
0.0116145	146.34
0.0116815	146.757
0.011749	147.176
0.0118168	147.595
0.011885	148.016
0.0119536	148.439
0.0120226	148.824
0.0120921	149.148
0.0121619	149.473
0.0122321	149.799
0.0123027	150.126
0.0123737	150.455
0.0124451	150.784
0.012517	151.115
0.0125893	151.447
0.0126619	151.78
0.012735	152.115
0.0128086	152.45
0.0128825	152.787
0.0129569	153.124
0.0130317	153.464
0.0131069	153.804
0.0131826	154.145
0.0132587	154.488
0.0133352	154.831
0.0134122	155.176
0.0134896	155.522
0.0135675	155.869
0.0136458	156.218
0.0137246	156.567
0.0138038	156.918
0.0138835	157.27
0.0139637	157.623
0.0140443	157.911
0.0141254	158.148
0.0142069	158.387
0.0142889	158.626
0.0143714	158.867
0.0144544	159.109
0.0145378	159.351
0.0146218	159.595
0.0147062	159.84
0.0147911	160.086
0.0148765	160.333
0.0149624	160.581
0.0150487	160.83
0.0151356	161.081
0.015223	161.332
0.0153109	161.584
0.0153993	161.837
0.0154882	162.091
0.0155776	162.347
0.0156675	162.603
0.015758	162.86
0.0158489	163.118
0.0159404	163.378
0.0160325	163.577
0.016125	163.704
0.0162181	163.831
0.0163117	163.96
0.0164059	164.09
0.0165006	164.22
0.0165959	164.352
0.0166917	164.484
0.016788	164.617
0.016885	164.751
0.0169824	164.886
0.0170805	165.021
0.0171791	165.157
0.0172783	165.295
0.017378	165.433
0.0174783	165.571
0.0175792	165.711
0.0176807	165.851
0.0177828	165.992
0.0178855	166.134
0.0179887	166.277
0.0180926	166.42
0.018197	166.564
0.0183021	166.709
0.0184077	166.854
0.018514	167.001
0.0186209	167.147
0.0187284	167.295
0.0188365	167.443
0.0189452	167.592
0.0190546	167.742
0.0191646	167.892
0.0192752	168.043
0.0193865	168.195
0.0194984	168.347
0.019611	168.5
0.0197242	168.654
0.0198381	168.808
0.0199526	168.963
0.0200678	169.119
0.0201837	169.275
0.0203002	169.432
0.0204174	169.589
0.0205353	169.747
0.0206538	169.906
0.020773	170.065
0.020893	170.225
0.0210136	170.385
0.0211349	170.546
0.0212569	170.708
0.0213796	170.871
0.021503	171.033
0.0216272	171.197
0.021752	171.361
0.0218776	171.525
0.0220039	171.69
0.0221309	171.856
0.0222587	172.023
0.0223872	172.19
0.0225165	172.358
0.0226464	172.526
0.0227772	172.694
0.0229087	172.864
0.0230409	173.034
0.0231739	173.204
0.0233077	173.375
0.0234423	173.547
0.0235776	173.719
0.0237137	173.892
0.0238506	174.065
0.0239883	174.239
0.0241268	174.413
0.0242661	174.588
0.0244062	174.763
0.0245471	174.94
0.0246888	175.116
0.0248313	175.293
0.0249747	175.471
0.0251189	175.65
0.0252639	175.828
0.0254097	176.008
0.0255564	176.188
0.025704	176.368
0.0258523	176.549
0.0260016	176.731
0.0261517	176.914
0.0263027	177.096
0.0264545	177.28
0.0266073	177.464
0.0267609	177.648
0.0269153	177.834
0.0270707	178.019
0.027227	178.206
0.0273842	178.392
0.0275423	178.58
0.0277013	178.768
0.0278612	178.956
0.0280221	179.145
0.0281838	179.335
0.0283465	179.525
0.0285102	179.717
0.0286748	179.908
0.0288403	180.1
0.0290068	180.292
0.0291743	180.486
0.0293427	180.68
0.0295121	180.874
0.0296825	181.069
0.0298538	181.265
0.0300262	181.461
0.0301995	181.658
0.0303739	181.855
0.0305492	182.053
0.0307256	182.252
0.030903	182.451
0.0310814	182.652
0.0312608	182.852
0.0314413	183.053
0.0316228	183.255
0.0318053	183.457
0.031989	183.66
0.0321736	183.864
0.0323594	184.068
0.0325462	184.273
0.0327341	184.479
0.032923	184.685
0.0331131	184.892
0.0333043	185.099
0.0334965	185.308
0.0336899	185.516
0.0338844	185.726
0.03408	185.936
0.0342768	186.147
0.0344747	186.359
0.0346737	186.571
0.0348739	186.784
0.0350752	186.997
0.0352777	187.212
0.0354813	187.427
0.0356862	187.642
0.0358922	187.858
0.0360994	188.076
0.0363078	188.293
0.0365174	188.512
0.0367282	188.731
0.0369403	188.951
0.0371535	189.171
0.037368	189.393
0.0375837	189.615
0.0378007	189.837
0.0380189	190.061
0.0382384	190.285
0.0384592	190.511
0.0386812	190.736
0.0389045	190.963
0.0391291	191.19
0.039355	191.418
0.0395822	191.647
0.0398107	191.876
0.0400405	192.107
0.0402717	192.338
0.0405042	192.57
0.040738	192.802
0.0409732	193.036
0.0412098	193.27
0.0414477	193.505
0.0416869	193.741
0.0419276	193.978
0.0421697	194.215
0.0424131	194.454
0.042658	194.693
0.0429042	194.933
0.0431519	195.174
0.043401	195.415
0.0436516	195.658
0.0439036	195.901
0.044157	196.145
0.044412	196.391
0.0446684	196.636
0.0449262	196.883
0.0451856	197.131
0.0454465	197.379
0.0457088	197.628
0.0459727	197.879
0.0462381	198.13
0.046505	198.382
0.0467735	198.635
0.0470435	198.889
0.0473151	199.144
0.0475883	199.399
0.047863	199.656
0.0481393	199.913
0.0484172	200.172
0.0486968	200.431
0.0489779	200.691
0.0492606	200.952
0.049545	201.215
0.049831	201.478
0.0501187	201.742
0.0504081	202.007
0.0506991	202.273
0.0509918	202.54
0.0512861	202.808
0.0515822	203.077
0.05188	203.347
0.0521795	203.617
0.0524807	203.889
0.0527837	204.162
0.0530884	204.436
0.0533949	204.711
0.0537032	204.987
0.0540132	205.264
0.054325	205.542
0.0546387	205.821
0.0549541	206.101
0.0552713	206.382
0.0555904	206.664
0.0559114	206.947
0.0562341	207.231
0.0565588	207.517
0.0568853	207.803
0.0572137	208.091
0.057544	208.379
0.0578762	208.668
0.0582103	208.959
0.0585464	209.251
0.0588844	209.544
0.0592243	209.837
0.0595662	210.132
0.0599101	210.429
0.060256	210.726
0.0606038	211.024
0.0609537	211.324
0.0613056	211.624
0.0616595	211.926
0.0620155	212.229
0.0623735	212.533
0.0627336	212.838
0.0630957	213.145
0.06346	213.452
0.0638263	213.761
0.0641948	214.07
0.0645654	214.382
0.0649382	214.694
0.0653131	215.007
0.0656901	215.322
0.0660693	215.638
0.0664508	215.955
0.0668344	216.273
0.0672202	216.592
0.0676083	216.913
0.0679986	217.234
0.0683912	217.558
0.068786	217.882
0.0691831	218.207
0.0695825	218.534
0.0699842	218.862
0.0703882	219.191
0.0707946	219.522
0.0712033	219.854
0.0716143	220.187
0.0720278	220.521
0.0724436	220.857
0.0728618	221.194
0.0732825	221.532
0.0737055	221.871
0.074131	222.212
0.074559	222.554
0.0749894	222.897
0.0754223	223.242
0.0758578	223.588
0.0762957	223.935
0.0767361	224.284
0.0771792	224.634
0.0776247	224.986
0.0780728	225.338
0.0785236	225.692
0.0789769	226.048
0.0794328	226.404
0.0798914	226.762
0.0803526	227.122
0.0808165	227.483
0.0812831	227.845
0.0817523	228.208
0.0822243	228.573
0.082699	228.94
0.0831764	229.308
0.0836566	229.677
0.0841395	230.047
0.0846253	230.419
0.0851138	230.792
0.0856052	231.167
0.0860994	231.543
0.0865964	231.921
0.0870964	232.3
0.0875992	232.681
0.0881049	233.063
0.0886135	233.446
0.0891251	233.831
0.0896396	234.217
0.0901571	234.605
0.0906776	234.994
0.0912011	235.385
0.0917276	235.777
0.0922571	236.171
0.0927897	236.566
0.0933254	236.963
0.0938642	237.361
0.0944061	237.761
0.0949511	238.162
0.0954993	238.565
0.0960506	238.969
0.0966051	239.374
0.0971628	239.782
0.0977237	240.19
0.0982879	240.601
0.0988553	241.013
0.099426	241.426
0.1	241.841
0.100577	242.257
0.101158	242.675
0.101742	243.095
0.102329	243.517
0.10292	243.939
0.103514	244.363
0.104112	244.789
0.104713	245.217
0.105317	245.646
0.105925	246.076
0.106537	246.509
0.107152	246.942
0.107771	247.378
0.108393	247.815
0.109018	248.254
0.109648	248.694
0.110281	249.136
0.110917	249.579
0.111558	250.025
0.112202	250.471
0.11285	250.92
0.113501	251.37
0.114156	251.822
0.114815	252.275
0.115478	252.73
0.116145	253.186
0.116815	253.645
0.11749	254.105
0.118168	254.567
0.11885	255.03
0.119536	255.495
0.120226	255.962
0.120921	256.43
0.121619	256.9
0.122321	257.372
0.123027	257.845
0.123737	258.321
0.124451	258.798
0.12517	259.276
0.125893	259.757
0.126619	260.238
0.12735	260.722
0.128086	261.208
0.128825	261.695
0.129569	262.184
0.130317	262.675
0.131069	263.167
0.131826	263.661
0.132587	264.157
0.133352	264.655
0.134122	265.154
0.134896	265.655
0.135675	266.158
0.136458	266.663
0.137246	267.169
0.138038	267.677
0.138835	268.187
0.139637	268.698
0.140443	269.212
0.141254	269.727
0.142069	270.244
0.142889	270.763
0.143714	271.284
0.144544	271.806
0.145378	272.33
0.146218	272.856
0.147062	273.384
0.147911	273.914
0.148765	274.445
0.149624	274.978
0.150487	275.513
0.151356	276.05
0.15223	276.589
0.153109	277.129
0.153993	277.671
0.154882	278.215
0.155776	278.761
0.156675	279.309
0.15758	279.858
0.158489	280.451
0.159404	281.095
0.160325	281.742
0.16125	282.393
0.162181	283.046
0.163117	283.701
0.164059	284.36
0.165006	285.022
0.165959	285.686
0.166917	286.354
0.16788	287.025
0.16885	287.698
0.169824	288.374
0.170805	289.054
0.171791	289.736
0.172783	290.421
0.17378	291.109
0.174783	291.801
0.175792	292.496
0.176807	293.193
0.177828	293.894
0.178855	294.597
0.179887	295.304
0.180926	296.014
0.18197	296.727
0.183021	297.443
0.184077	298.162
0.18514	298.885
0.186209	299.61
0.187284	300.339
0.188365	301.071
0.189452	301.807
0.190546	302.545
0.191646	303.287
0.192752	304.136
0.193865	305.004
0.194984	305.877
0.19611	306.754
0.197242	307.635
0.198381	308.522
0.199526	309.413
0.200678	310.309
0.201837	311.209
0.203002	312.115
0.204174	313.025
0.205353	313.941
0.206538	314.861
0.20773	315.786
0.20893	316.716
0.210136	317.651
0.211349	318.591
0.212569	319.537
0.213796	320.487
0.21503	321.442
0.216272	322.403
0.21752	323.369
0.218776	324.34
0.220039	325.316
0.221309	326.298
0.222587	327.285
0.223872	328.277
0.225165	329.275
0.226464	330.278
0.227772	331.286
0.229087	332.216
0.230409	333.235
0.231739	334.259
0.233077	335.442
0.234423	336.632
0.235776	337.829
0.237137	339.035
0.238506	340.247
0.239883	341.467
0.241268	342.695
0.242661	343.931
0.244062	345.174
0.245471	346.425
0.246888	347.684
0.248313	348.95
0.249747	350.225
0.251189	351.508
0.252639	352.799
0.254097	354.098
0.255564	355.404
0.25704	356.72
0.258523	358.044
0.260016	359.376
0.261517	360.716
0.263027	362.065
0.264545	363.423
0.266073	364.789
0.267609	366.164
0.269153	367.548
0.270707	368.94
0.27227	370.342
0.273842	371.752
0.275423	373.172
0.277013	374.601
0.278612	376.038
0.280221	377.485
0.281838	378.942
0.283465	380.408
0.285102	381.882
0.286748	383.367
0.288403	384.861
0.290068	386.365
0.291743	387.879
0.293427	389.403
0.295121	390.936
0.296825	392.479
0.298538	394.033
0.300262	395.596
0.301995	397.147
0.303739	398.658
0.305492	400.178
0.307256	401.708
0.30903	403.247
0.310814	404.794
0.312608	406.351
0.314413	407.917
0.316228	409.493
0.318053	411.078
0.31989	412.672
0.321736	414.276
0.323594	415.889
0.325462	417.512
0.327341	419.145
0.32923	420.787
0.331131	422.44
0.333043	424.102
0.334965	425.774
0.336899	427.456
0.338844	429.148
0.3408	430.851
0.342768	432.45
0.344747	434.171
0.346737	435.903
0.348739	437.645
0.350752	439.397
0.352777	441.115
0.354813	442.799
0.356862	444.493
0.358922	446.195
0.360994	447.906
0.363078	449.626
0.365174	451.355
0.367282	453.094
0.369403	454.841
0.371535	456.599
0.37368	458.365
0.375837	460.14
0.378007	461.925
0.380189	463.719
0.382384	465.523
0.384592	467.336
0.386812	469.159
0.389045	470.992
0.391291	472.834
0.39355	474.686
0.395822	476.547
0.398107	478.418
0.400405	480.299
0.402717	482.147
0.405042	483.942
0.40738	485.745
0.409732	487.555
0.412098	489.373
0.414477	491.199
0.416869	493.033
0.419276	494.876
0.421697	496.725
0.424131	498.583
0.42658	500.449
0.429042	502.323
0.431519	504.206
0.43401	506.095
0.436516	507.994
0.439036	509.899
0.44157	511.814
0.44412	513.735
0.446684	515.666
0.449262	517.604
0.451856	519.55
0.454465	521.504
0.457088	523.466
0.459727	525.437
0.462381	527.415
0.46505	529.401
0.467735	531.395
0.470435	533.398
0.473151	535.409
0.475883	537.427
0.47863	539.454
0.481393	541.489
0.484172	543.531
0.486968	545.582
0.489779	547.641
0.492606	549.707
0.49545	551.782
0.49831	553.864
0.501187	555.808
0.504081	557.905
0.506991	560.01
0.509918	562.123
0.512861	564.244
0.515822	566.373
0.5188	568.51
0.521795	570.655
0.524807	572.807
0.527837	574.968
0.530884	577.136
0.533949	579.312
0.537032	581.496
0.540132	583.689
0.54325	585.888
0.546387	588.096
0.549541	590.311
0.552713	592.534
0.555904	594.765
0.559114	597.004
0.562341	599.251
0.565588	601.504
0.568853	603.766
0.572137	606.035
0.57544	608.312
0.578762	610.597
0.582103	612.889
0.585464	615.188
0.588844	617.496
0.592243	619.81
0.595662	622.132
0.599101	624.462
0.60256	626.799
0.606038	629.143
0.609537	631.495
0.613056	633.853
0.616595	636.219
0.620155	638.593
0.623735	640.973
0.627336	643.361
0.630957	645.756
0.6346	648.158
0.638263	650.566
0.641948	652.982
0.645654	655.405
0.649382	657.835
0.653131	660.271
0.656901	662.715
0.660693	665.165
0.664508	667.622
0.668344	670.086
0.672202	672.556
0.676083	675.032
0.679986	677.516
0.683912	680.005
0.68786	682.502
0.691831	685.004
0.695825	687.513
0.699842	690.028
0.703882	692.549
0.707946	695.077
0.712033	697.61
0.716143	700.15
0.720278	702.695
0.724436	705.247
0.728618	707.804
0.732825	710.367
0.737055	712.936
0.74131	715.51
0.74559	718.09
0.749894	720.675
0.754223	723.266
0.758578	725.862
0.762957	728.463
0.767361	731.07
0.771792	733.682
0.776247	736.298
0.780728	738.92
0.785236	741.547
0.789769	744.178
0.794328	746.814
0.798914	749.455
0.803526	752.1
0.808165	754.75
0.812831	757.404
0.817523	760.063
0.822243	762.726
0.82699	765.393
0.831764	768.064
0.836566	770.739
0.841395	773.417
0.846253	776.1
0.851138	778.786
0.856052	781.476
0.860994	784.169
0.865964	786.866
0.870964	789.566
0.875992	792.269
0.881049	794.975
0.886135	797.684
0.891251	800.396
0.896396	803.11
0.901571	805.828
0.906776	808.548
0.912011	811.27
0.917276	813.995
0.922571	816.722
0.927897	819.451
0.933254	822.181
0.938642	824.914
0.944061	827.649
0.949511	830.385
0.954993	833.122
0.960506	835.861
0.966051	838.602
0.971628	841.343
0.977237	844.086
0.982879	846.829
0.988553	849.573
0.99426	852.318
1	855.063
1.00577	857.809
1.01158	860.555
1.01742	863.301
1.02329	866.047
1.0292	868.792
1.03514	871.538
1.04112	874.283
1.04713	877.028
1.05317	879.772
1.05925	882.515
1.06537	885.257
1.07152	887.998
1.07771	890.738
1.08393	893.476
1.09018	896.213
1.09648	898.948
1.10281	901.682
1.10917	904.413
1.11558	907.142
1.12202	909.869
1.1285	912.594
1.13501	915.316
1.14156	918.035
1.14815	920.751
1.15478	923.464
1.16145	926.175
1.16815	928.883
1.1749	931.585
1.18168	934.286
1.1885	936.98
1.19536	939.673
1.20226	942.359
1.20921	945.044
1.21619	947.722
1.22321	950.398
1.23027	953.067
1.23737	955.731
1.24451	958.393
1.2517	961.048
1.25893	963.697
1.26619	966.339
1.2735	968.978
1.28086	971.609
1.28825	974.234
1.29569	976.854
1.30317	979.469
1.31069	982.074
1.31826	984.674
1.32587	987.268
1.33352	989.853
1.34122	992.432
1.34896	995.004
1.35675	997.565
1.36458	1000.12
1.37246	1002.67
1.38038	1005.21
1.38835	1007.74
1.39637	1010.27
1.40443	1012.78
1.41254	1015.28
1.42069	1017.78
1.42889	1020.27
1.43714	1022.75
1.44544	1025.22
1.45378	1027.68
1.46218	1030.13
1.47062	1032.57
1.47911	1035
1.48765	1037.42
1.49624	1039.83
1.50487	1042.23
1.51356	1044.61
1.5223	1046.99
1.53109	1049.36
1.53993	1051.71
1.54882	1054.05
1.55776	1056.38
1.56675	1058.71
1.5758	1061.01
1.58489	1063.31
1.59404	1065.59
1.60325	1067.86
1.6125	1070.12
1.62181	1072.36
1.63117	1074.59
1.64059	1076.81
1.65006	1079.02
1.65959	1081.21
1.66917	1083.39
1.6788	1085.56
1.6885	1087.71
1.69824	1089.84
1.70805	1091.97
1.71791	1094.08
1.72783	1096.17
1.7378	1098.24
1.74783	1100.31
1.75792	1102.36
1.76807	1104.39
1.77828	1106.41
1.78855	1108.41
1.79887	1110.41
1.80926	1112.38
1.8197	1114.33
1.83021	1116.27
1.84077	1118.2
1.8514	1120.1
1.86209	1122
1.87284	1123.87
1.88365	1125.73
1.89452	1127.57
1.90546	1129.39
1.91646	1131.2
1.92752	1132.99
1.93865	1134.76
1.94984	1136.52
1.9611	1138.25
1.97242	1139.97
1.98381	1141.67
1.99526	1143.36
2.00678	1145.02
2.01837	1146.67
2.03002	1148.29
2.04174	1149.91
2.05353	1151.5
2.06538	1153.07
2.0773	1154.62
2.0893	1156.16
2.10136	1157.67
2.11349	1159.17
2.12569	1160.65
2.13796	1162.11
2.1503	1163.55
2.16272	1164.96
2.1752	1166.36
2.18776	1167.74
2.20039	1169.1
2.21309	1170.44
2.22587	1171.76
2.23872	1173.06
2.25165	1174.34
2.26464	1175.6
2.27772	1176.84
2.29087	1178.06
2.30409	1179.26
2.31739	1180.44
2.33077	1181.59
2.34423	1182.73
2.35776	1183.85
2.37137	1184.94
2.38506	1186.01
2.39883	1187.07
2.41268	1188.1
2.42661	1189.11
2.44062	1190.1
2.45471	1191.07
2.46888	1192.02
2.48313	1192.94
2.49747	1193.85
2.51189	1194.73
2.52639	1195.59
2.54097	1196.44
2.55564	1197.26
2.5704	1198.06
2.58523	1198.83
2.60016	1199.59
2.61517	1200.32
2.63027	1201.04
2.64545	1201.73
2.66073	1202.4
2.67609	1203.05
2.69153	1203.67
2.70707	1204.28
2.7227	1204.86
2.73842	1205.42
2.75423	1205.96
2.77013	1206.48
2.78612	1206.98
2.80221	1207.45
2.81838	1207.91
2.83465	1208.34
2.85102	1208.75
2.86748	1209.14
2.88403	1209.51
2.90068	1209.86
2.91743	1210.18
2.93427	1210.48
2.95121	1210.76
2.96825	1211.03
2.98538	1211.27
3.00262	1211.48
3.01995	1211.68
3.03739	1211.86
3.05492	1212.01
3.07256	1212.14
3.0903	1212.26
3.10814	1212.35
3.12608	1212.42
3.14413	1212.47
3.16228	1212.49
3.18053	1212.51
3.1989	1212.49
3.21736	1212.46
3.23594	1212.4
3.25462	1212.32
3.27341	1212.23
3.2923	1212.11
3.31131	1211.98
3.33043	1211.82
3.34965	1211.64
3.36899	1211.45
3.38844	1210.77
3.408	1210.55
3.42768	1210.29
3.44747	1210.03
3.46737	1209.74
3.48739	1209.43
3.50752	1209.1
3.52777	1208.75
3.54813	1208.38
3.56862	1207.99
3.58922	1207.58
3.60994	1207.16
3.63078	1206.71
3.65174	1206.25
3.67282	1205.76
3.69403	1205.26
3.71535	1204.75
3.7368	1204.2
3.75837	1203.64
3.78007	1203.07
3.80189	1202.48
3.82384	1201.87
3.84592	1201.23
3.86812	1200.58
3.89045	1199.92
3.91291	1199.24
3.9355	1198.54
3.95822	1197.81
3.98107	1197.08
4.00405	1196.33
4.02717	1195.56
4.05042	1194.77
4.0738	1193.97
4.09732	1193.15
4.12098	1192.31
4.14477	1191.46
4.16869	1190.59
4.19276	1189.09
4.21697	1188.2
4.24131	1187.29
4.2658	1186.37
4.29042	1185.43
4.31519	1184.47
4.3401	1183.5
4.36516	1182.51
4.39036	1181.52
4.4157	1180.5
4.4412	1179.47
4.46684	1178.42
4.49262	1177.36
4.51856	1176.29
4.54465	1175.2
4.57088	1174.1
4.59727	1172.98
4.62381	1171.85
4.6505	1170.7
4.67735	1169.55
4.70435	1168.38
4.73151	1167.19
4.75883	1166
4.7863	1164.79
4.81393	1163.56
4.84172	1162.33
4.86968	1161.08
4.89779	1159.82
4.92606	1158.54
4.9545	1157.26
4.9831	1155.96
5.01187	1153.85
5.04081	1152.55
5.06991	1151.23
5.09918	1149.9
5.12861	1148.55
5.15822	1147.2
5.188	1145.83
5.21795	1144.46
5.24807	1143.07
5.27837	1141.67
5.30884	1140.26
5.33949	1138.85
5.37032	1137.41
5.40132	1135.98
5.4325	1134.53
5.46387	1133.07
5.49541	1131.6
5.52713	1130.13
5.55904	1128.64
5.59114	1127.14
5.62341	1125.64
5.65588	1124.13
5.68853	1122.61
5.72137	1121.07
5.7544	1119.54
5.78762	1117.99
5.82103	1116.43
5.85464	1114.87
5.88844	1113.3
5.92243	1111.72
5.95662	1110.13
5.99101	1108.54
6.0256	1106.94
6.06038	1105.33
6.09537	1103.72
6.13056	1102.09
6.16595	1100.46
6.20155	1098.83
6.23735	1097.18
6.27336	1095.54
6.30957	1093.88
6.346	1092.22
6.38263	1090.55
6.41948	1088.88
6.45654	1087.2
6.49382	1085.52
6.53131	1083.83
6.56901	1082.14
6.60693	1080.44
6.64508	1078.73
6.68344	1077.02
6.72202	1075.31
6.76083	1073.59
6.79986	1071.86
6.83912	1070.13
6.8786	1068.4
6.91831	1066.66
6.95825	1064.92
6.99842	1063.18
7.03882	1061.43
7.07946	1059.67
7.12033	1057.92
7.16143	1056.16
7.20278	1054.39
7.24436	1052.63
7.28618	1050.85
7.32825	1049.08
7.37055	1047.31
7.4131	1045.53
7.4559	1043.74
7.49894	1041.95
7.54223	1040.17
7.58578	1038.37
7.62957	1036.58
7.67361	1034.78
7.71792	1032.99
7.76247	1031.19
7.80728	1029.39
7.85236	1027.58
7.89769	1025.77
7.94328	1023.97
7.98914	1022.15
8.03526	1020.34
8.08165	1018.53
8.12831	1016.71
8.17523	1014.89
8.22243	1013.08
8.2699	1011.26
8.31764	1009.44
8.36566	1007.61
8.41395	1005.79
8.46253	1003.97
8.51138	1002.14
8.56052	1000.32
8.60994	998.488
8.65964	996.661
8.70964	994.831
8.75992	993.002
8.81049	991.173
8.86135	989.344
8.91251	987.512
8.96396	985.68
9.01571	983.85
9.06776	982.019
9.12011	980.186
9.17276	978.356
9.22571	976.524
9.27897	974.692
9.33254	972.857
9.38642	971.027
9.44061	969.193
9.49511	967.364
9.54993	965.532
9.60506	963.7
9.66051	961.869
9.71628	960.036
9.77237	958.207
9.82879	956.378
9.88553	954.547
9.9426	952.716
10	950.89
10.0577	949.061
10.1158	947.233
10.1742	945.406
10.2329	943.579
10.292	941.754
10.3514	939.929
10.4112	938.105
10.4713	936.282
10.5317	934.46
10.5925	932.639
10.6537	930.818
10.7152	928.999
10.7771	927.18
10.8393	925.362
10.9018	923.546
10.9648	921.73
11.0281	919.915
11.0917	918.101
11.1558	916.288
11.2202	914.476
11.285	912.665
11.3501	910.855
11.4156	909.046
11.4815	907.237
11.5478	905.434
11.6145	903.628
11.6815	901.822
11.749	900.021
11.8168	898.218
11.885	896.419
11.9536	894.621
12.0226	892.824
12.0921	891.028
12.1619	889.229
12.2321	887.439
12.3027	885.646
12.3737	883.853
12.4451	882.063
12.517	880.276
12.5893	878.486
12.6619	876.702
12.735	874.918
12.8086	873.132
12.8825	871.35
12.9569	869.569
13.0317	867.792
13.1069	866.013
13.1826	864.235
13.2587	862.461
13.3352	860.685
13.4122	858.914
13.4896	857.143
13.5675	855.373
13.6458	853.604
13.7246	851.836
13.8038	850.069
13.8835	848.306
13.9637	846.541
14.0443	844.78
14.1254	843.02
14.2069	841.261
14.2889	839.502
14.3714	837.745
14.4544	835.989
14.5378	834.237
14.6218	832.482
14.7062	830.732
14.7911	828.983
14.8765	827.234
14.9624	825.487
15.0487	823.74
15.1356	821.994
15.223	820.255
15.3109	818.511
15.3993	816.771
15.4882	815.031
15.5776	813.289
15.6675	811.552
15.758	809.818
15.8489	808.083
15.9404	806.347
16.0325	804.617
16.125	802.883
16.2181	801.154
16.3117	799.426
16.4059	797.698
16.5006	795.972
16.5959	794.245
16.6917	792.524
16.788	790.799
16.885	789.076
16.9824	787.356
17.0805	785.637
17.1791	783.919
17.2783	782.202
17.378	780.486
17.4783	778.77
17.5792	777.057
17.6807	775.344
17.7828	773.635
17.8855	771.924
17.9887	770.214
18.0926	768.506
18.197	766.798
18.3021	765.092
18.4077	763.386
18.514	761.682
18.6209	759.978
18.7284	758.276
18.8365	756.575
18.9452	754.875
19.0546	753.175
19.1646	751.477
19.2752	749.78
19.3865	748.083
19.4984	746.388
19.611	744.694
19.7242	743.001
19.8381	741.308
19.9526	739.616
20.0678	737.926
20.1837	736.236
20.3002	734.55
20.4174	732.862
20.5353	731.175
20.6538	729.489
20.773	727.804
20.893	726.12
21.0136	724.437
21.1349	722.755
21.2569	721.073
21.3796	719.393
21.503	717.713
21.6272	716.034
21.752	714.356
21.8776	712.679
22.0039	711.004
22.1309	709.328
22.2587	707.654
22.3872	705.98
22.5165	704.307
22.6464	702.635
22.7772	700.964
22.9087	699.294
23.0409	697.625
23.1739	695.957
23.3077	694.289
23.4423	692.622
23.5776	690.956
23.7137	689.291
23.8506	687.624
23.9883	685.943
24.1268	684.264
24.2661	682.585
24.4062	680.907
24.5471	679.229
24.6888	677.552
24.8313	675.886
24.9747	674.21
25.1189	672.534
25.2639	670.859
25.4097	669.185
25.5564	667.512
25.704	665.839
25.8523	664.166
26.0016	662.495
26.1517	660.823
26.3027	659.153
26.4545	657.483
26.6073	655.834
26.7609	654.165
26.9153	652.503
27.0707	650.835
27.227	649.168
27.3842	647.502
27.5423	645.837
27.7013	644.172
27.8612	642.498
28.0221	640.807
28.1838	639.117
28.3465	637.428
28.5102	635.739
28.6748	634.05
28.8403	632.363
29.0068	630.688
29.1743	629.087
29.3427	627.4
29.5121	625.714
29.6825	624.028
29.8538	622.055
30.0262	620.365
30.1995	618.702
30.3739	617.015
30.5492	615.327
30.7256	613.641
30.903	611.955
31.0814	610.297
31.2608	608.613
31.4413	606.938
31.6228	605.255
31.8053	603.563
31.989	601.839
32.1736	600.115
32.3594	598.392
32.5462	596.67
32.7341	594.949
32.923	593.229
33.1131	591.526
33.3043	589.807
33.4965	588.088
33.6899	586.372
33.8844	584.655
34.08	583.052
34.2768	581.337
34.4747	579.621
34.6737	577.908
34.8739	575.817
35.0752	574.099
35.2777	572.417
35.4813	570.816
35.6862	569.1
35.8922	567.396
36.0994	565.683
36.3078	563.972
36.5174	562.261
36.7282	560.552
36.9403	558.843
37.1535	557.137
37.368	555.43
37.5837	553.725
37.8007	552.021
38.0189	550.319
38.2384	548.618
38.4592	546.919
38.6812	545.22
38.9045	543.663
39.1291	541.966
39.355	540.271
39.5822	538.577
39.8107	536.413
40.0405	534.714
40.2717	533.059
40.5042	531.368
40.738	529.673
40.9732	527.98
41.2098	526.289
41.4477	524.708
41.6869	523.021
41.9276	521.339
42.1697	519.668
42.4131	517.997
42.658	516.328
42.9042	514.661
43.1519	512.994
43.401	511.33
43.6516	509.665
43.9036	508.004
44.157	506.345
44.412	504.687
44.6684	503.03
44.9262	501.376
45.1856	499.723
45.4465	498.072
45.7088	496.423
45.9727	494.775
46.2381	493.13
46.505	491.486
46.7735	489.845
47.0435	488.211
47.3151	486.71
47.5883	485.073
47.863	483.438
48.1393	481.806
48.4172	480.176
48.6968	478.577
48.9779	476.958
49.2606	475.35
49.545	473.743
49.831	472.137
50.1187	470.534
50.4081	468.933
50.6991	467.335
50.9918	465.739
51.2861	464.144
51.5822	462.551
51.88	460.962
52.1795	459.374
52.4807	457.788
52.7837	456.205
53.0884	454.624
53.3949	453.114
53.7032	451.545
54.0132	449.971
54.325	448.399
54.6387	446.828
54.9541	445.261
55.2713	443.696
55.5904	442.134
55.9114	440.582
56.2341	439.046
56.5588	437.511
56.8853	436.018
57.2137	434.488
57.544	432.959
57.8762	431.434
58.2103	429.911
58.5464	428.39
58.8844	426.872
59.2243	425.356
59.5662	423.843
59.9101	422.333
60.256	420.825
60.6038	419.319
60.9537	417.817
61.3056	416.317
61.6595	414.82
62.0155	413.325
62.3735	411.924
62.7336	410.435
63.0957	408.948
63.46	407.464
63.8263	405.982
64.1948	404.504
64.5654	403.028
64.9382	401.605
65.3131	400.135
65.6901	398.668
66.0693	397.203
66.4508	395.741
66.8344	394.283
67.2202	392.827
67.6083	391.377
67.9986	389.927
68.3912	388.499
68.786	387.056
69.1831	385.616
69.5825	384.178
69.9842	382.744
70.3882	381.314
70.7946	379.886
71.2033	378.577
71.6143	377.155
72.0278	375.736
72.4436	374.32
72.8618	372.907
73.2825	371.498
73.7055	370.092
74.131	368.69
74.559	367.29
74.9894	365.894
75.4223	364.501
75.8578	363.112
76.2957	361.726
76.7361	360.344
77.1792	358.965
77.6247	357.589
78.0728	356.217
78.5236	354.848
78.9769	353.485
79.4328	352.123
79.8914	350.788
80.3526	349.433
80.8165	348.081
81.2831	346.732
81.7523	345.387
82.2243	344.045
82.699	342.707
83.1764	341.372
83.6566	340.041
84.1395	338.713
84.6253	337.39
85.1138	336.069
85.6052	334.752
86.0994	333.438
86.5964	332.128
87.0964	330.822
87.5992	329.519
88.1049	328.219
88.6135	326.923
89.1251	325.631
89.6396	324.365
90.1571	323.082
90.6776	321.8
91.2011	320.552
91.7276	319.277
92.2571	318.005
92.7897	316.737
93.3254	315.472
93.8642	314.212
94.4061	312.954
94.9511	311.701
95.4993	310.45
96.0506	309.204
96.6051	307.96
97.1628	306.721
97.7237	305.485
98.2879	304.252
98.8553	303.024
99.426	301.799
100	300.577
100.577	299.36
101.158	298.145
101.742	296.935
102.329	295.728
102.92	294.524
103.514	293.324
104.112	292.128
104.713	290.965
105.317	289.776
105.925	288.59
106.537	287.408
107.152	286.229
107.771	285.054
108.393	283.882
109.018	282.714
109.648	281.55
110.281	280.389
110.917	279.234
111.558	278.08
112.202	276.93
112.85	275.784
113.501	274.642
114.156	273.503
114.815	272.367
115.478	271.235
116.145	270.107
116.815	268.982
117.49	267.862
118.168	266.744
118.85	265.63
119.536	264.559
120.226	263.452
120.921	262.348
121.619	261.248
122.321	260.152
123.027	259.059
123.737	257.969
124.451	256.884
125.17	255.801
125.893	254.736
126.619	253.663
127.35	252.591
128.086	251.523
128.825	250.458
129.569	249.397
130.317	248.34
131.069	247.286
131.826	246.235
132.587	245.189
133.352	244.146
134.122	243.106
134.896	242.07
135.675	241.037
136.458	240.008
137.246	238.983
138.038	237.961
138.835	236.942
139.637	235.928
140.443	234.916
141.254	233.908
142.069	232.904
142.889	231.903
143.714	230.905
144.544	229.911
145.378	228.921
146.218	227.934
147.062	226.969
147.911	225.989
148.765	225.012
149.624	224.039
150.487	223.069
151.356	222.102
152.23	221.14
153.109	220.18
153.993	219.224
154.882	218.271
155.776	217.322
156.675	216.377
157.58	215.434
158.489	214.495
159.404	213.56
160.325	212.628
161.25	211.7
162.181	210.775
163.117	209.853
164.059	208.934
165.006	208.02
165.959	207.108
166.917	206.2
167.88	205.319
168.85	204.417
169.824	203.518
170.805	202.623
171.791	201.732
172.783	200.844
173.78	199.958
174.783	199.077
175.792	198.199
176.807	197.324
177.828	196.452
178.855	195.584
179.887	194.719
180.926	193.857
181.97	192.999
183.021	192.144
184.077	191.292
185.14	190.444
186.209	189.599
187.284	188.757
188.365	187.918
189.452	187.083
190.546	186.251
191.646	185.422
192.752	184.596
193.865	183.774
194.984	182.955
196.11	182.139
197.242	181.326
198.381	180.516
199.526	179.71
200.678	178.907
201.837	178.107
203.002	177.311
204.174	176.517
205.353	175.727
206.538	174.939
207.73	174.155
208.93	173.374
210.136	172.596
211.349	171.822
212.569	171.05
213.796	170.282
215.03	169.516
216.272	168.754
217.52	167.995
218.776	167.239
220.039	166.486
221.309	165.736
222.587	164.989
223.872	164.245
225.165	163.505
226.464	162.767
227.772	162.033
229.087	161.301
230.409	160.572
231.739	159.846
233.077	159.124
234.423	158.404
235.776	157.687
237.137	156.973
238.506	156.263
239.883	155.555
241.268	154.85
242.661	154.148
244.062	153.449
245.471	152.753
246.888	152.06
248.313	151.37
249.747	150.683
251.189	149.998
252.639	149.317
254.097	148.638
255.564	147.962
257.04	147.289
258.523	146.619
260.016	145.952
261.517	145.287
263.027	144.626
264.545	143.967
266.073	143.311
267.609	142.658
269.153	142.007
270.707	141.36
272.27	140.715
273.842	140.072
275.423	139.433
277.013	138.797
278.612	138.163
280.221	137.531
281.838	136.903
283.465	136.277
285.102	135.654
286.748	135.034
288.403	134.416
290.068	133.801
291.743	133.189
293.427	132.579
295.121	131.972
296.825	131.367
298.538	130.766
300.262	130.167
301.995	129.57
303.739	128.976
305.492	128.385
307.256	127.796
309.03	127.21
310.814	126.626
312.608	126.045
314.413	125.467
316.228	124.891
318.053	124.317
319.89	123.746
321.736	123.178
323.594	122.612
325.462	122.049
327.341	121.488
329.23	120.93
331.131	120.374
333.043	119.82
334.965	119.269
336.899	118.721
338.844	118.175
340.8	117.631
342.768	117.09
344.747	116.551
346.737	116.015
348.739	115.481
350.752	114.949
352.777	114.42
354.813	113.893
356.862	113.368
358.922	112.846
360.994	112.327
363.078	111.809
365.174	111.294
367.282	110.781
369.403	110.271
371.535	109.762
373.68	109.256
375.837	108.753
378.007	108.252
380.189	107.753
382.384	107.256
384.592	106.761
386.812	106.269
389.045	105.779
391.291	105.291
393.55	104.806
395.822	104.322
398.107	103.841
400.405	103.362
402.717	102.885
405.042	102.411
407.38	101.938
409.732	101.468
412.098	101
414.477	100.534
416.869	100.07
419.276	99.6085
421.697	99.1488
424.131	98.6913
426.58	98.2359
429.042	97.7827
431.519	97.3316
434.01	96.8826
436.516	96.4358
439.036	95.9907
441.57	95.5478
444.12	95.107
446.684	94.6683
449.262	94.2316
451.856	93.7968
454.465	93.364
457.088	92.9333
459.727	92.5048
462.381	92.0779
465.05	91.6531
467.735	91.2304
470.435	90.8098
473.151	90.3909
475.883	89.9741
478.63	89.5592
481.393	89.1462
484.172	88.7351
486.968	88.3261
489.779	87.9188
492.606	87.5135
495.45	87.1103
498.31	86.7087
501.187	86.3091
504.081	85.9113
506.991	85.5154
509.918	85.1215
512.861	84.7293
515.822	84.3388
518.8	83.9506
521.795	83.5637
524.807	83.1791
527.837	82.7958
530.884	82.4149
533.949	82.0352
537.032	81.6578
540.132	81.2818
543.25	80.9077
546.387	80.5355
549.541	80.1649
552.713	79.7963
555.904	79.429
559.114	79.0639
562.341	78.7005
565.588	78.3386
568.853	77.9783
572.137	77.6199
575.44	77.2632
578.762	76.9083
582.103	76.555
585.464	76.2032
588.844	75.8534
592.243	75.5051
595.662	75.1584
599.101	74.8136
602.56	74.47
606.038	74.1283
609.537	73.7884
613.056	73.4501
616.595	73.113
620.155	72.778
623.735	72.4443
627.336	72.1125
630.957	71.7818
634.6	71.4529
638.263	71.1259
641.948	70.8001
645.654	70.476
649.382	70.1534
653.131	69.8324
656.901	69.5129
660.693	69.195
664.508	68.8786
668.344	68.5637
672.202	68.2503
676.083	67.9385
679.986	67.6281
683.912	67.3193
687.86	67.0119
691.831	66.706
695.825	66.4016
699.842	66.0986
703.882	65.7971
707.946	65.4971
712.033	65.1986
716.143	64.9014
720.278	64.6058
724.436	64.3115
728.618	64.0187
732.825	63.7272
737.055	63.4373
741.31	63.1487
745.59	62.8615
749.894	62.5757
754.223	62.2913
758.578	62.0083
762.957	61.7266
767.361	61.4463
771.792	61.1674
776.247	60.8898
780.728	60.6136
785.236	60.3387
789.769	60.0652
794.328	59.793
798.914	59.5222
803.526	59.2526
808.165	58.9844
812.831	58.7175
817.523	58.4518
822.243	58.1875
826.99	57.9245
831.764	57.6628
836.566	57.4023
841.395	57.1431
846.253	56.8852
851.138	56.6285
856.052	56.3732
860.994	56.119
865.964	55.8661
870.964	55.6144
875.992	55.364
881.049	55.1148
886.135	54.8668
891.251	54.6201
896.396	54.3745
901.571	54.1302
906.776	53.8871
912.011	53.6451
917.276	53.4044
922.571	53.1648
927.897	52.9265
933.254	52.6892
938.642	52.4532
944.061	52.2183
949.511	51.9846
954.993	51.7521
960.506	51.5207
966.051	51.2904
971.628	51.0613
977.237	50.8332
982.879	50.6064
988.553	50.3806
994.26	50.156
1000	49.9325
1005.77	49.7101
1011.58	49.4887
1017.42	49.2685
1023.29	49.0494
1029.2	48.8314
1035.14	48.6144
1041.12	48.3985
1047.13	48.1837
1053.17	47.97
1059.25	47.7573
1065.37	47.5457
1071.52	47.3351
1077.71	47.1256
1083.93	46.9171
1090.18	46.7097
1096.48	46.5033
1102.81	46.2979
1109.17	46.0935
1115.58	45.8902
1122.02	45.6878
1128.5	45.4865
1135.01	45.2862
1141.56	45.0869
1148.15	44.8886
1154.78	44.6912
1161.45	44.4949
1168.15	44.2996
1174.9	44.1052
1181.68	43.9118
1188.5	43.7193
1195.36	43.5279
1202.26	43.3373
1209.21	43.1477
1216.19	42.9591
1223.21	42.7715
1230.27	42.5848
1237.37	42.399
1244.51	42.2141
1251.7	42.0302
1258.93	41.8472
1266.19	41.6651
1273.5	41.4839
1280.86	41.3037
1288.25	41.1243
1295.69	40.9459
1303.17	40.7683
1310.69	40.5916
1318.26	40.4158
1325.87	40.241
1333.52	40.067
1341.22	39.8938
1348.96	39.7216
1356.75	39.5502
1364.58	39.3797
1372.46	39.2101
1380.38	39.0413
1388.35	38.8733
1396.37	38.7062
1404.43	38.54
1412.54	38.3746
1420.69	38.21
1428.89	38.0463
1437.14	37.8833
1445.44	37.7213
1453.78	37.56
1462.18	37.3996
1470.62	37.24
1479.11	37.0811
1487.65	36.9231
1496.24	36.7659
1504.87	36.6095
1513.56	36.4539
1522.3	36.2991
1531.09	36.145
1539.93	35.9918
1548.82	35.8394
1557.76	35.6877
1566.75	35.5367
1575.8	35.3866
1584.89	35.2372
1594.04	35.0886
1603.25	34.9407
1612.5	34.7936
1621.81	34.6473
1631.17	34.5016
1640.59	34.3568
1650.06	34.2127
1659.59	34.0693
1669.17	33.9267
1678.8	33.7847
1688.5	33.6435
1698.24	33.5031
1708.05	33.3633
1717.91	33.2243
1727.83	33.086
1737.8	32.9484
1747.83	32.8115
1757.92	32.6753
1768.07	32.5398
1778.28	32.405
1788.55	32.2709
1798.87	32.1375
1809.26	32.0048
1819.7	31.8727
1830.21	31.7413
1840.77	31.6107
1851.4	31.4807
1862.09	31.3513
1872.84	31.2227
1883.65	31.0947
1894.52	30.9673
1905.46	30.8406
1916.46	30.7146
1927.52	30.5892
1938.65	30.4645
1949.84	30.3404
1961.1	30.217
1972.42	30.0942
1983.81	29.972
1995.26	29.8505
2006.78	29.7296
2018.37	29.6093
2030.02	29.4897
2041.74	29.3707
2053.53	29.2523
2065.38	29.1345
2077.3	29.0173
2089.3	28.9008
2101.36	28.7848
2113.49	28.6695
2125.69	28.5547
2137.96	28.4406
2150.3	28.327
2162.72	28.2141
2175.2	28.1017
2187.76	27.99
2200.39	27.8788
2213.09	27.7682
2225.87	27.6581
2238.72	27.5487
2251.65	27.4398
2264.64	27.3315
2277.72	27.2237
2290.87	27.1166
2304.09	27.01
2317.39	26.9039
2330.77	26.7984
2344.23	26.6935
2357.76	26.5891
2371.37	26.4852
2385.06	26.382
2398.83	26.2792
2412.68	26.177
2426.61	26.0754
2440.62	25.9743
2454.71	25.8737
2468.88	25.7736
2483.13	25.6741
2497.47	25.5751
2511.89	25.4766
2526.39	25.3787
2540.97	25.2812
2555.64	25.1844
2570.4	25.0879
2585.23	24.992
2600.16	24.8967
2615.17	24.8018
2630.27	24.7074
2645.45	24.6136
2660.73	24.5202
2676.09	24.4274
2691.53	24.335
2707.07	24.2431
2722.7	24.1517
2738.42	24.0608
2754.23	23.9704
2770.13	23.8805
2786.12	23.791
2802.21	23.7021
2818.38	23.6136
2834.65	23.5256
2851.02	23.4381
2867.48	23.351
2884.03	23.2644
2900.68	23.1783
2917.43	23.0926
2934.27	23.0074
2951.21	22.9227
2968.25	22.8383
2985.38	22.7545
3002.62	22.6711
3019.95	22.5882
3037.39	22.5057
3054.92	22.4237
3072.56	22.3421
3090.3	22.2609
3108.14	22.1802
3126.08	22.1
3144.13	22.0201
3162.28	21.9407
3180.53	21.8617
3198.9	21.7832
3217.36	21.7051
3235.94	21.6274
3254.62	21.5502
3273.41	21.4733
3292.3	21.3969
3311.31	21.3209
3330.43	21.2453
3349.65	21.1701
3368.99	21.0954
3388.44	21.0211
3408	20.9471
3427.68	20.8736
3447.47	20.8005
3467.37	20.7277
3487.39	20.6554
3507.52	20.5835
3527.77	20.5119
3548.13	20.4408
3568.62	20.3701
3589.22	20.2997
3609.94	20.2298
3630.78	20.1602
3651.74	20.091
3672.82	20.0222
3694.03	19.9538
3715.35	19.8857
3736.8	19.8181
3758.37	19.7508
3780.07	19.6839
3801.89	19.6174
3823.84	19.5512
3845.92	19.4854
3868.12	19.4199
3890.45	19.3549
3912.91	19.2902
3935.5	19.2258
3958.22	19.1619
3981.07	19.0983
4004.05	19.035
4027.17	18.9721
4050.42	18.9096
4073.8	18.8474
4097.32	18.7856
4120.98	18.7241
4144.77	18.6629
4168.69	18.6021
4192.76	18.5417
4216.97	18.4816
4241.31	18.4218
4265.8	18.3624
4290.42	18.3033
4315.19	18.2445
4340.1	18.1861
4365.16	18.128
4390.36	18.0703
4415.7	18.0128
4441.2	17.9558
4466.84	17.899
4492.62	17.8425
4518.56	17.7865
4544.65	17.7306
4570.88	17.6752
4597.27	17.62
4623.81	17.5652
4650.5	17.5107
4677.35	17.4565
4704.35	17.4026
4731.51	17.349
4758.83	17.2958
4786.3	17.2428
4813.93	17.1902
4841.72	17.1378
4869.68	17.0858
4897.79	17.034
4926.06	16.9826
4954.5	16.9315
4983.1	16.8806
5011.87	16.8301
5040.81	16.7799
5069.91	16.73
5099.18	16.6803
5128.61	16.631
5158.22	16.5819
5188	16.5331
5217.95	16.4847
5248.07	16.4365
5278.37	16.3885
5308.84	16.3409
5339.49	16.2936
5370.32	16.2465
5401.32	16.1998
5432.5	16.1533
5463.87	16.107
5495.41	16.0611
5527.13	16.0155
5559.04	15.9701
5591.14	15.9249
5623.41	15.8801
5655.88	15.8355
5688.53	15.7912
5721.37	15.7471
5754.4	15.7034
5787.62	15.6599
5821.03	15.6166
5854.64	15.5736
5888.44	15.5309
5922.43	15.4885
5956.62	15.4463
5991.01	15.4043
6025.6	15.3627
6060.38	15.3212
6095.37	15.28
6130.56	15.2391
6165.95	15.1985
6201.55	15.1581
6237.35	15.1179
6273.36	15.0779
6309.57	15.0383
6346	14.9989
6382.63	14.9597
6419.48	14.9208
6456.54	14.8821
6493.82	14.8436
6531.31	14.8054
6569.01	14.7674
6606.93	14.7297
6645.08	14.6922
6683.44	14.6549
6722.02	14.618
6760.83	14.5812
6799.86	14.5446
6839.12	14.5083
6878.6	14.4722
6918.31	14.4364
6958.25	14.4008
6998.42	14.3653
7038.82	14.3302
7079.46	14.2952
7120.33	14.2605
7161.43	14.226
7202.78	14.1917
7244.36	14.1577
7286.18	14.1238
7328.25	14.0902
7370.55	14.0568
7413.1	14.0237
7455.9	13.9907
7498.94	13.9579
7542.23	13.9254
7585.78	13.8931
7629.57	13.861
7673.61	13.8291
7717.92	13.7974
7762.47	13.766
7807.28	13.7347
7852.36	13.7036
7897.69	13.6728
7943.28	13.6422
7989.14	13.6117
8035.26	13.5815
8081.65	13.5515
8128.31	13.5216
8175.23	13.492
8222.43	13.4626
8269.9	13.4334
8317.64	13.4044
8365.66	13.3756
8413.95	13.3469
8462.53	13.3185
8511.38	13.2903
8560.52	13.2622
8609.94	13.2344
8659.64	13.2067
8709.64	13.1792
8759.92	13.152
8810.49	13.1249
8861.35	13.098
8912.51	13.0713
8963.96	13.0448
9015.71	13.0184
9067.76	12.9923
9120.11	12.9663
9172.76	12.9406
9225.71	12.915
9278.97	12.8896
9332.54	12.8643
9386.42	12.8393
9440.61	12.8144
9495.11	12.7897
9549.93	12.7652
9605.06	12.7409
9660.51	12.7167
9716.28	12.6927
9772.37	12.6689
9828.79	12.6453
9885.53	12.6218
9942.6	12.5986
10000	12.5754
10057.7	12.5525
10115.8	12.5297
10174.2	12.5071
10232.9	12.4847
10292	12.4624
10351.4	12.4403
10411.2	12.4184
10471.3	12.3967
10531.7	12.3751
10592.5	12.3536
10653.7	12.3324
10715.2	12.3112
10777.1	12.2903
10839.3	12.2695
10901.8	12.2489
10964.8	12.2284
11028.1	12.2081
11091.7	12.188
11155.8	12.168
11220.2	12.1481
11285	12.1284
11350.1	12.1089
11415.6	12.0896
11481.5	12.0704
11547.8	12.0513
11614.5	12.0323
11681.5	12.0132
11749	11.9943
11816.8	11.9756
11885	11.957
11953.6	11.9385
12022.6	11.9202
12092.1	11.902
12161.9	11.884
12232.1	11.8662
12302.7	11.8484
12373.7	11.8309
12445.1	11.8135
12517	11.7962
12589.3	11.779
12661.9	11.762
12735	11.7452
12808.6	11.7284
12882.5	11.7119
12956.9	11.6954
13031.7	11.6792
13106.9	11.663
13182.6	11.6469
13258.7	11.6311
13335.2	11.6153
13412.2	11.5997
13489.6	11.5842
13567.5	11.5686
13645.8	11.553
13724.6	11.5375
13803.8	11.5222
13883.5	11.507
13963.7	11.4919
14044.3	11.4769
14125.4	11.4621
14206.9	11.4474
14288.9	11.4328
14371.4	11.4184
14454.4	11.4041
14537.8	11.3899
14621.8	11.3759
14706.2	11.3619
14791.1	11.3481
14876.5	11.3344
14962.4	11.3208
15048.7	11.3074
15135.6	11.2941
15223	11.2809
15310.9	11.2678
15399.3	11.2549
15488.2	11.2417
15577.6	11.2285
15667.5	11.2153
15758	11.2023
15848.9	11.1894
15940.4	11.1767
16032.5	11.164
16125	11.1515
16218.1	11.139
16311.7	11.1267
16405.9	11.1145
16500.6	11.1024
16595.9	11.0905
16691.7	11.0786
16788	11.0669
16885	11.0552
16982.4	11.0437
17080.5	11.0323
17179.1	11.021
17278.3	11.0098
17378	10.9987
17478.3	10.9877
17579.2	10.9768
17680.7	10.966
17782.8	10.9554
17885.5	10.9448
17988.7	10.9343
18092.6	10.924
18197	10.9137
18302.1	10.9036
18407.7	10.8935
18514	10.8836
18620.9	10.8738
18728.4	10.8641
18836.5	10.8544
18945.2	10.8449
19054.6	10.8355
19164.6	10.8261
19275.2	10.8168
19386.5	10.8077
19498.4	10.7987
19611	10.7898
19724.2	10.7809
19838.1	10.7722
19952.6	10.7635
20067.8	10.7549
20183.7	10.7465
20300.2	10.7381
20417.4	10.7298
20535.3	10.7217
20653.8	10.7136
20773	10.7056
20893	10.6977
21013.6	10.6898
21134.9	10.6821
21256.9	10.6745
21379.6	10.6669
21503	10.6595
21627.2	10.6521
21752	10.6448
21877.6	10.6377
22003.9	10.6306
22130.9	10.6236
22258.7	10.6166
22387.2	10.6098
22516.5	10.603
22646.4	10.5964
22777.2	10.5898
22908.7	10.5833
23040.9	10.5769
23173.9	10.5706
23307.7	10.5643
23442.3	10.5581
23577.6	10.5521
23713.7	10.5461
23850.6	10.5402
23988.3	10.5343
24126.8	10.5286
24266.1	10.5229
24406.2	10.5173
24547.1	10.5118
24688.8	10.5063
24831.3	10.501
24974.7	10.4957
25118.9	10.4905
25263.9	10.4854
25409.7	10.4803
25556.4	10.4753
25704	10.4704
25852.3	10.4656
26001.6	10.4609
26151.7	10.4562
26302.7	10.4516
26454.5	10.447
26607.3	10.4426
26760.9	10.4382
26915.3	10.4339
27070.7	10.4296
27227	10.4255
27384.2	10.4214
27542.3	10.4174
27701.3	10.4134
27861.2	10.4095
28022.1	10.4057
28183.8	10.402
28346.5	10.3983
28510.2	10.3947
28674.8	10.3911
28840.3	10.3877
29006.8	10.3843
29174.3	10.381
29342.7	10.3777
29512.1	10.3745
29682.5	10.3713
29853.8	10.3683
30026.2	10.3653
30199.5	10.3623
30373.9	10.3594
30549.2	10.3566
30725.6	10.3539
30903	10.3512
31081.4	10.3486
31260.8	10.346
31441.3	10.3435
31622.8	10.3411
31805.3	10.3387
31989	10.3364
32173.6	10.3341
32359.4	10.3319
32546.2	10.3298
32734.1	10.3277
32923	10.3257
33113.1	10.3237
33304.3	10.3218
33496.5	10.32
33689.9	10.3182
33884.4	10.3165
34080	10.3148
34276.8	10.3132
34474.7	10.3116
34673.7	10.3102
34873.9	10.3087
35075.2	10.3073
35277.7	10.306
35481.3	10.3047
35686.2	10.3035
35892.2	10.3023
36099.4	10.3012
36307.8	10.3001
36517.4	10.2991
36728.2	10.2982
36940.3	10.2972
37153.5	10.2964
37368	10.2956
37583.7	10.2948
37800.7	10.2941
38018.9	10.2935
38238.4	10.2929
38459.2	10.2923
38681.2	10.2918
38904.5	10.2914
39129.1	10.291
39355	10.2906
39582.2	10.2903
39810.7	10.2901
40040.5	10.2898
40271.7	10.2897
40504.2	10.2896
40738	10.2895
40973.2	10.2895
41209.8	10.2895
41447.7	10.2896
41686.9	10.2897
41927.6	10.2899
42169.7	10.2901
42413.1	10.2903
42658	10.2906
42904.2	10.291
43151.9	10.2914
43401	10.2918
43651.6	10.2923
43903.6	10.2928
44157	10.2933
44412	10.2939
44668.4	10.2946
44926.2	10.2953
45185.6	10.296
45446.5	10.2968
45708.8	10.2976
45972.7	10.2984
46238.1	10.2993
46505	10.3002
46773.5	10.3012
47043.5	10.3022
47315.1	10.3033
47588.3	10.3043
47863	10.3055
48139.3	10.3066
48417.2	10.3079
48696.8	10.3091
48977.9	10.3104
49260.6	10.3117
49545	10.3131
49831	10.3144
50118.7	10.3159
50408.1	10.3173
50699.1	10.3189
50991.8	10.3204
51286.1	10.322
51582.2	10.3235
51880	10.3252
52179.5	10.3269
52480.7	10.3286
52783.7	10.3303
53088.4	10.3321
53394.9	10.3339
53703.2	10.3358
54013.2	10.3377
54325	10.3396
54638.7	10.3415
54954.1	10.3435
55271.3	10.3455
55590.4	10.3475
55911.4	10.3496
56234.1	10.3518
56558.8	10.3539
56885.3	10.356
57213.7	10.3583
57544	10.3605
57876.2	10.3628
58210.3	10.3651
58546.4	10.3674
58884.4	10.3697
59224.3	10.3721
59566.2	10.3745
59910.1	10.377
60256	10.3795
60603.8	10.382
60953.7	10.3845
61305.6	10.3871
61659.5	10.3897
62015.5	10.3922
62373.5	10.3949
62733.6	10.3975
63095.7	10.4002
63460	10.403
63826.3	10.4057
64194.8	10.4085
64565.4	10.4113
64938.2	10.4141
65313.1	10.417
65690.1	10.4199
66069.3	10.4227
66450.8	10.4257
66834.4	10.4286
67220.2	10.4316
67608.3	10.4346
67998.6	10.4377
68391.2	10.4407
68786	10.4438
69183.1	10.4469
69582.5	10.45
69984.2	10.4532
70388.2	10.4564
70794.6	10.4596
71203.3	10.4628
71614.3	10.466
72027.8	10.4693
72443.6	10.4726
72861.8	10.4759
73282.5	10.4792
73705.5	10.4826
74131	10.486
74559	10.4894
74989.4	10.4928
75422.3	10.4962
75857.8	10.4997
76295.7	10.5031
76736.1	10.5067
77179.2	10.5101
77624.7	10.5137
78072.8	10.5173
78523.6	10.5209
78976.9	10.5245
79432.8	10.5281
79891.4	10.5317
80352.6	10.5354
80816.5	10.5391
81283.1	10.5428
81752.3	10.5465
82224.3	10.5502
82699	10.554
83176.4	10.5578
83656.6	10.5615
84139.5	10.5653
84625.3	10.5692
85113.8	10.573
85605.2	10.5769
86099.4	10.5808
86596.4	10.5846
87096.4	10.5886
87599.2	10.5925
88104.9	10.5964
88613.5	10.6004
89125.1	10.6044
89639.6	10.6084
90157.1	10.6124
90677.6	10.6165
91201.1	10.6205
91727.6	10.6245
92257.1	10.6286
92789.7	10.6327
93325.4	10.6368
93864.2	10.6409
94406.1	10.6451
94951.1	10.6492
95499.3	10.6534
96050.6	10.6576
96605.1	10.6617
97162.8	10.6659
97723.7	10.6702
98287.9	10.6744
98855.3	10.6787
99426	10.6829
100000	10.6872
100577	10.6915
101158	10.6958
101742	10.7001
102329	10.7044
102920	10.7088
103514	10.7132
104112	10.7175
104713	10.7219
105317	10.7263
105925	10.7307
106537	10.7351
107152	10.7395
107771	10.744
108393	10.7484
109018	10.7529
109648	10.7574
110281	10.7619
110917	10.7664
111558	10.7709
112202	10.7754
112850	10.7799
113501	10.7845
114156	10.789
114815	10.7936
115478	10.7981
116145	10.8027
116815	10.8073
117490	10.8119
118168	10.8165
118850	10.8212
119536	10.8258
120226	10.8305
120921	10.8351
121619	10.8398
122321	10.8444
123027	10.8491
123737	10.8538
124451	10.8585
125170	10.8632
125893	10.868
126619	10.8727
127350	10.8774
128086	10.8822
128825	10.8869
129569	10.8917
130317	10.8965
131069	10.9012
131826	10.906
132587	10.9108
133352	10.9156
134122	10.9204
134896	10.9253
135675	10.9301
136458	10.9349
137246	10.9398
138038	10.9446
138835	10.9495
139637	10.9543
140443	10.9592
141254	10.9641
142069	10.969
142889	10.9738
143714	10.9787
144544	10.9837
145378	10.9886
146218	10.9935
147062	10.9984
147911	11.0033
148765	11.0083
149624	11.0132
150487	11.0182
151356	11.0231
152230	11.0281
153109	11.0331
153993	11.038
154882	11.043
155776	11.048
156675	11.053
157580	11.058
158489	11.063
159404	11.068
160325	11.073
161250	11.078
162181	11.083
163117	11.0881
164059	11.0931
165006	11.0982
165959	11.1032
166917	11.1082
167880	11.1133
168850	11.1184
169824	11.1234
170805	11.1285
171791	11.1335
172783	11.1386
173780	11.1437
174783	11.1488
175792	11.1539
176807	11.159
177828	11.1641
178855	11.1692
179887	11.1742
180926	11.1794
181970	11.1845
183021	11.1896
184077	11.1947
185140	11.1999
186209	11.205
187284	11.2101
188365	11.2152
189452	11.2204
190546	11.2255
191646	11.2306
192752	11.2358
193865	11.2409
194984	11.2461
196110	11.2513
197242	11.2564
198381	11.2616
199526	11.2668
200678	11.2719
201837	11.2771
203002	11.2823
204174	11.2875
205353	11.2926
206538	11.2978
207730	11.303
208930	11.3082
210136	11.3134
211349	11.3186
212569	11.3238
213796	11.329
215030	11.3342
216272	11.3394
217520	11.3446
218776	11.3498
220039	11.355
221309	11.3602
222587	11.3654
223872	11.3706
225165	11.3759
226464	11.3811
227772	11.3863
229087	11.3915
230409	11.3967
231739	11.402
233077	11.4072
234423	11.4124
235776	11.4176
237137	11.4229
238506	11.4281
239883	11.4334
241268	11.4386
242661	11.4438
244062	11.4491
245471	11.4543
246888	11.4596
248313	11.4648
249747	11.4701
251189	11.4753
252639	11.4805
254097	11.4858
255564	11.4911
257040	11.4963
258523	11.5016
260016	11.5068
261517	11.512
263027	11.5173
264545	11.5226
266073	11.5278
267609	11.533
269153	11.5383
270707	11.5436
272270	11.5488
273842	11.5541
275423	11.5594
277013	11.5646
278612	11.5699
280221	11.5751
281838	11.5804
283465	11.5857
285102	11.5909
286748	11.5962
288403	11.6015
290068	11.6067
291743	11.612
293427	11.6173
295121	11.6225
296825	11.6278
298538	11.6331
300262	11.6383
301995	11.6436
303739	11.6489
305492	11.6541
307256	11.6594
309030	11.6647
310814	11.67
312608	11.6752
314413	11.6805
316228	11.6858
318053	11.691
319890	11.6963
321736	11.7016
323594	11.7068
325462	11.7121
327341	11.7174
329230	11.7226
331131	11.7279
333043	11.7332
334965	11.7384
336899	11.7437
338844	11.749
340800	11.7542
342768	11.7595
344747	11.7648
346737	11.77
348739	11.7753
350752	11.7805
352777	11.7858
354813	11.7911
356862	11.7963
358922	11.8016
360994	11.8068
363078	11.8121
365174	11.8174
367282	11.8226
369403	11.8279
371535	11.8332
373680	11.8384
375837	11.8436
378007	11.8489
380189	11.8541
382384	11.8594
384592	11.8647
386812	11.8699
389045	11.8752
391291	11.8804
393550	11.8857
395822	11.8909
398107	11.8961
400405	11.9014
402717	11.9067
405042	11.9119
407380	11.9171
409732	11.9224
412098	11.9276
414477	11.9329
416869	11.9381
419276	11.9433
421697	11.9486
424131	11.9538
426580	11.9591
429042	11.9643
431519	11.9695
434010	11.9748
436516	11.98
439036	11.9852
441570	11.9905
444120	11.9957
446684	12.0009
449262	12.0061
451856	12.0114
454465	12.0166
457088	12.0218
459727	12.0271
462381	12.0322
465050	12.0375
467735	12.0427
470435	12.0479
473151	12.0532
475883	12.0583
478630	12.0636
481393	12.0688
484172	12.0739
486968	12.0792
489779	12.0844
492606	12.0896
495450	12.0948
498310	12.1
501187	12.1052
504081	12.1104
506991	12.1156
509918	12.1208
512861	12.126
515822	12.1312
518800	12.1364
521795	12.1416
524807	12.1468
527837	12.152
530884	12.1572
533949	12.1624
537032	12.1675
540132	12.1727
543250	12.1779
546387	12.1831
549541	12.1883
552713	12.1934
555904	12.1986
559114	12.2038
562341	12.2089
565588	12.2141
568853	12.2193
572137	12.2245
575440	12.2296
578762	12.2348
582103	12.24
585464	12.2451
588844	12.2503
592243	12.2554
595662	12.2606
599101	12.2657
602560	12.2709
606038	12.2761
609537	12.2812
613056	12.2863
616595	12.2915
620155	12.2967
623735	12.3017
627336	12.3069
630957	12.3121
634600	12.3172
638263	12.3223
641948	12.3274
645654	12.3326
649382	12.3377
653131	12.3428
656901	12.348
660693	12.3531
664508	12.3582
668344	12.3633
672202	12.3685
676083	12.3736
679986	12.3787
683912	12.3838
687860	12.3889
691831	12.394
695825	12.3991
699842	12.4042
703882	12.4094
707946	12.4145
712033	12.4195
716143	12.4246
720278	12.4298
724436	12.4349
728618	12.4399
732825	12.445
737055	12.4501
741310	12.4552
745590	12.4603
749894	12.4654
754223	12.4705
758578	12.4755
762957	12.4806
767361	12.4857
771792	12.4908
776247	12.4958
780728	12.5009
785236	12.506
789769	12.5111
794328	12.5161
798914	12.5212
803526	12.5263
808165	12.5313
812831	12.5363
817523	12.5414
822243	12.5465
826990	12.5515
831764	12.5566
836566	12.5616
841395	12.5667
846253	12.5717
851138	12.5767
856052	12.5818
860994	12.5869
865964	12.5919
870964	12.5969
875992	12.6019
881049	12.607
886135	12.612
891251	12.617
896396	12.622
901571	12.6271
906776	12.6321
912011	12.6371
917276	12.6421
922571	12.6471
927897	12.6521
933254	12.6571
938642	12.6622
944061	12.6672
949511	12.6722
954993	12.6772
960506	12.6822
966051	12.6871
971628	12.6921
977237	12.6971
982879	12.7021
988553	12.7071
994260	12.7121
1e+06	12.7171
1.00577e+06	12.7221
1.01158e+06	12.727
1.01742e+06	12.732
1.02329e+06	12.737
1.0292e+06	12.742
1.03514e+06	12.7469
1.04112e+06	12.7519
1.04713e+06	12.7569
1.05317e+06	12.7618
1.05925e+06	12.7668
1.06537e+06	12.7718
1.07152e+06	12.7767
1.07771e+06	12.7817
1.08393e+06	12.7866
1.09018e+06	12.7916
1.09648e+06	12.7966
1.10281e+06	12.8015
1.10917e+06	12.8065
1.11558e+06	12.8114
1.12202e+06	12.8163
1.1285e+06	12.8213
1.13501e+06	12.8262
1.14156e+06	12.8311
1.14815e+06	12.8361
1.15478e+06	12.841
1.16145e+06	12.8459
1.16815e+06	12.8509
1.1749e+06	12.8558
1.18168e+06	12.8607
1.1885e+06	12.8656
1.19536e+06	12.8705
1.20226e+06	12.8755
1.20921e+06	12.8804
1.21619e+06	12.8853
1.22321e+06	12.8902
1.23027e+06	12.8951
1.23737e+06	12.9
1.24451e+06	12.9049
1.2517e+06	12.9098
1.25893e+06	12.9147
1.26619e+06	12.9196
1.2735e+06	12.9245
1.28086e+06	12.9294
1.28825e+06	12.9343
1.29569e+06	12.9392
1.30317e+06	12.9441
1.31069e+06	12.949
1.31826e+06	12.9539
1.32587e+06	12.9587
1.33352e+06	12.9636
1.34122e+06	12.9685
1.34896e+06	12.9733
1.35675e+06	12.9782
1.36458e+06	12.9831
1.37246e+06	12.988
1.38038e+06	12.9928
1.38835e+06	12.9977
1.39637e+06	13.0026
1.40443e+06	13.0074
1.41254e+06	13.0123
1.42069e+06	13.0171
1.42889e+06	13.022
1.43714e+06	13.0268
1.44544e+06	13.0316
1.45378e+06	13.0365
1.46218e+06	13.0414
1.47062e+06	13.0462
1.47911e+06	13.051
1.48765e+06	13.0559
1.49624e+06	13.0607
1.50487e+06	13.0655
1.51356e+06	13.0704
1.5223e+06	13.0752
1.53109e+06	13.08
1.53993e+06	13.0848
1.54882e+06	13.0897
1.55776e+06	13.0945
1.56675e+06	13.0993
1.5758e+06	13.1041
1.58489e+06	13.1089
1.59404e+06	13.1137
1.60325e+06	13.1185
1.6125e+06	13.1233
1.62181e+06	13.1282
1.63117e+06	13.1329
1.64059e+06	13.1377
1.65006e+06	13.1426
1.65959e+06	13.1473
1.66917e+06	13.1521
1.6788e+06	13.1569
1.6885e+06	13.1617
1.69824e+06	13.1665
1.70805e+06	13.1713
1.71791e+06	13.1761
1.72783e+06	13.1808
1.7378e+06	13.1856
1.74783e+06	13.1904
1.75792e+06	13.1952
1.76807e+06	13.1999
1.77828e+06	13.2047
1.78855e+06	13.2095
1.79887e+06	13.2142
1.80926e+06	13.219
1.8197e+06	13.2237
1.83021e+06	13.2285
1.84077e+06	13.2332
1.8514e+06	13.238
1.86209e+06	13.2427
1.87284e+06	13.2475
1.88365e+06	13.2522
1.89452e+06	13.257
1.90546e+06	13.2617
1.91646e+06	13.2664
1.92752e+06	13.2712
1.93865e+06	13.2759
1.94984e+06	13.2806
1.9611e+06	13.2853
1.97242e+06	13.2901
1.98381e+06	13.2948
1.99526e+06	13.2995
2.00678e+06	13.3042
2.01837e+06	13.309
2.03002e+06	13.3137
2.04174e+06	13.3184
2.05353e+06	13.3231
2.06538e+06	13.3278
2.0773e+06	13.3325
2.0893e+06	13.3372
2.10136e+06	13.3419
2.11349e+06	13.3466
2.12569e+06	13.3513
2.13796e+06	13.356
2.1503e+06	13.3607
2.16272e+06	13.3654
2.1752e+06	13.3701
2.18776e+06	13.3747
2.20039e+06	13.3794
2.21309e+06	13.3841
2.22587e+06	13.3888
2.23872e+06	13.3935
2.25165e+06	13.3981
2.26464e+06	13.4028
2.27772e+06	13.4075
2.29087e+06	13.4121
2.30409e+06	13.4168
2.31739e+06	13.4215
2.33077e+06	13.4261
2.34423e+06	13.4308
2.35776e+06	13.4355
2.37137e+06	13.4401
2.38506e+06	13.4447
2.39883e+06	13.4494
2.41268e+06	13.454
2.42661e+06	13.4586
2.44062e+06	13.4633
2.45471e+06	13.468
2.46888e+06	13.4726
2.48313e+06	13.4772
2.49747e+06	13.4819
2.51189e+06	13.4865
2.52639e+06	13.4911
2.54097e+06	13.4957
2.55564e+06	13.5003
2.5704e+06	13.505
2.58523e+06	13.5096
2.60016e+06	13.5142
2.61517e+06	13.5188
2.63027e+06	13.5234
2.64545e+06	13.528
2.66073e+06	13.5326
2.67609e+06	13.5372
2.69153e+06	13.5418
2.70707e+06	13.5464
2.7227e+06	13.551
2.73842e+06	13.5556
2.75423e+06	13.5602
2.77013e+06	13.5647
2.78612e+06	13.5694
2.80221e+06	13.574
2.81838e+06	13.5785
2.83465e+06	13.5831
2.85102e+06	13.5877
2.86748e+06	13.5922
2.88403e+06	13.5968
2.90068e+06	13.6014
2.91743e+06	13.6059
2.93427e+06	13.6105
2.95121e+06	13.6151
2.96825e+06	13.6196
2.98538e+06	13.6242
3.00262e+06	13.6287
3.01995e+06	13.6333
3.03739e+06	13.6378
3.05492e+06	13.6424
3.07256e+06	13.647
3.0903e+06	13.6515
3.10814e+06	13.656
3.12608e+06	13.6606
3.14413e+06	13.6651
3.16228e+06	13.6696
3.18053e+06	13.6741
3.1989e+06	13.6787
3.21736e+06	13.6832
3.23594e+06	13.6877
3.25462e+06	13.6922
3.27341e+06	13.6968
3.2923e+06	13.7013
3.31131e+06	13.7058
3.33043e+06	13.7103
3.34965e+06	13.7148
3.36899e+06	13.7193
3.38844e+06	13.7238
3.408e+06	13.7283
3.42768e+06	13.7328
3.44747e+06	13.7373
3.46737e+06	13.7418
3.48739e+06	13.7463
3.50752e+06	13.7508
3.52777e+06	13.7552
3.54813e+06	13.7598
3.56862e+06	13.7642
3.58922e+06	13.7687
3.60994e+06	13.7732
3.63078e+06	13.7776
3.65174e+06	13.7821
3.67282e+06	13.7866
3.69403e+06	13.7911
3.71535e+06	13.7955
3.7368e+06	13.8
3.75837e+06	13.8044
3.78007e+06	13.8089
3.80189e+06	13.8133
3.82384e+06	13.8178
3.84592e+06	13.8222
3.86812e+06	13.8267
3.89045e+06	13.8311
3.91291e+06	13.8356
3.9355e+06	13.84
3.95822e+06	13.8444
3.98107e+06	13.8489
4.00405e+06	13.8533
4.02717e+06	13.8577
4.05042e+06	13.8621
4.0738e+06	13.8666
4.09732e+06	13.871
4.12098e+06	13.8754
4.14477e+06	13.8798
4.16869e+06	13.8843
4.19276e+06	13.8886
4.21697e+06	13.893
4.24131e+06	13.8975
4.2658e+06	13.9019
4.29042e+06	13.9062
4.31519e+06	13.9107
4.3401e+06	13.915
4.36516e+06	13.9194
4.39036e+06	13.9239
4.4157e+06	13.9282
4.4412e+06	13.9326
4.46684e+06	13.937
4.49262e+06	13.9413
4.51856e+06	13.9457
4.54465e+06	13.9501
4.57088e+06	13.9545
4.59727e+06	13.9588
4.62381e+06	13.9632
4.6505e+06	13.9676
4.67735e+06	13.9719
4.70435e+06	13.9763
4.73151e+06	13.9807
4.75883e+06	13.985
4.7863e+06	13.9894
4.81393e+06	13.9937
4.84172e+06	13.998
4.86968e+06	14.0024
4.89779e+06	14.0068
4.92606e+06	14.0111
4.9545e+06	14.0154
4.9831e+06	14.0197
5.01187e+06	14.0241
5.04081e+06	14.0284
5.06991e+06	14.0328
5.09918e+06	14.037
5.12861e+06	14.0414
5.15822e+06	14.0457
5.188e+06	14.05
5.21795e+06	14.0543
5.24807e+06	14.0586
5.27837e+06	14.0629
5.30884e+06	14.0672
5.33949e+06	14.0716
5.37032e+06	14.0758
5.40132e+06	14.0802
5.4325e+06	14.0844
5.46387e+06	14.0887
5.49541e+06	14.093
5.52713e+06	14.0973
5.55904e+06	14.1016
5.59114e+06	14.1059
5.62341e+06	14.1101
5.65588e+06	14.1144
5.68853e+06	14.1187
5.72137e+06	14.1229
5.7544e+06	14.1272
5.78762e+06	14.1315
5.82103e+06	14.1357
5.85464e+06	14.14
5.88844e+06	14.1443
5.92243e+06	14.1485
5.95662e+06	14.1528
5.99101e+06	14.157
6.0256e+06	14.1613
6.06038e+06	14.1655
6.09537e+06	14.1697
6.13056e+06	14.174
6.16595e+06	14.1782
6.20155e+06	14.1824
6.23735e+06	14.1866
6.27336e+06	14.1909
6.30957e+06	14.1951
6.346e+06	14.1993
6.38263e+06	14.2036
6.41948e+06	14.2078
6.45654e+06	14.212
6.49382e+06	14.2162
6.53131e+06	14.2204
6.56901e+06	14.2246
6.60693e+06	14.2288
6.64508e+06	14.233
6.68344e+06	14.2372
6.72202e+06	14.2414
6.76083e+06	14.2456
6.79986e+06	14.2498
6.83912e+06	14.254
6.8786e+06	14.2581
6.91831e+06	14.2623
6.95825e+06	14.2665
6.99842e+06	14.2707
7.03882e+06	14.2749
7.07946e+06	14.279
7.12033e+06	14.2832
7.16143e+06	14.2874
7.20278e+06	14.2915
7.24436e+06	14.2957
7.28618e+06	14.2998
7.32825e+06	14.304
7.37055e+06	14.3081
7.4131e+06	14.3123
7.4559e+06	14.3164
7.49894e+06	14.3206
7.54223e+06	14.3247
7.58578e+06	14.3288
7.62957e+06	14.333
7.67361e+06	14.3371
7.71792e+06	14.3412
7.76247e+06	14.3454
7.80728e+06	14.3494
7.85236e+06	14.3536
7.89769e+06	14.3577
7.94328e+06	14.3618
7.98914e+06	14.3659
8.03526e+06	14.37
8.08165e+06	14.3742
8.12831e+06	14.3782
8.17523e+06	14.3824
8.22243e+06	14.3864
8.2699e+06	14.3905
8.31764e+06	14.3946
8.36566e+06	14.3987
8.41395e+06	14.4028
8.46253e+06	14.4069
8.51138e+06	14.4109
8.56052e+06	14.415
8.60994e+06	14.4191
8.65964e+06	14.4232
8.70964e+06	14.4272
8.75992e+06	14.4313
8.81049e+06	14.4354
8.86135e+06	14.4394
8.91251e+06	14.4435
8.96396e+06	14.4475
9.01571e+06	14.4516
9.06776e+06	14.4556
9.12011e+06	14.4597
9.17276e+06	14.4637
9.22571e+06	14.4677
9.27897e+06	14.4718
9.33254e+06	14.4758
9.38642e+06	14.4799
9.44061e+06	14.4839
9.49511e+06	14.4879
9.54993e+06	14.4919
9.60506e+06	14.4959
9.66051e+06	14.4999
9.71628e+06	14.504
9.77237e+06	14.5079
9.82879e+06	14.512
9.88553e+06	14.516
9.9426e+06	14.52
1e+07	14.524
