Stopping power dEdx from Ionisation for Cr52[0.0] Z = 24 in G4_TISSUE_SOFT_ICRP, process name: ionIoni
E [MeV]	dEdx [MeV/mm]
0.001	66.9563
0.00100577	67.1493
0.00101158	67.3428
0.00101742	67.5369
0.00102329	67.7316
0.0010292	67.9268
0.00103514	68.1226
0.00104112	68.319
0.00104713	68.5159
0.00105317	68.7134
0.00105925	68.9114
0.00106537	69.1101
0.00107152	69.3093
0.00107771	69.509
0.00108393	69.7094
0.00109018	69.9103
0.00109648	70.1118
0.00110281	70.3139
0.00110917	70.5166
0.00111558	70.7198
0.00112202	70.9237
0.0011285	71.1281
0.00113501	71.3331
0.00114156	71.5387
0.00114815	71.7449
0.00115478	71.9517
0.00116145	72.1591
0.00116815	72.3671
0.0011749	72.5757
0.00118168	72.7849
0.0011885	72.9947
0.00119536	73.2051
0.00120226	73.4161
0.00120921	73.6277
0.00121619	73.8399
0.00122321	74.0528
0.00123027	74.2662
0.00123737	74.4803
0.00124451	74.6949
0.0012517	74.9102
0.00125893	75.1262
0.00126619	75.3427
0.0012735	75.5599
0.00128086	75.7777
0.00128825	75.9961
0.00129569	76.2151
0.00130317	76.4348
0.00131069	76.6551
0.00131826	76.8761
0.00132587	77.0977
0.00133352	77.3199
0.00134122	77.5428
0.00134896	77.7663
0.00135675	77.9904
0.00136458	78.2152
0.00137246	78.4407
0.00138038	78.6668
0.00138835	78.8935
0.00139637	79.1209
0.00140443	79.349
0.00141254	79.5777
0.00142069	79.807
0.00142889	80.0371
0.00143714	80.2678
0.00144544	80.4991
0.00145378	80.7312
0.00146218	80.9639
0.00147062	81.1972
0.00147911	81.4313
0.00148765	81.666
0.00149624	81.9014
0.00150487	82.1375
0.00151356	82.3742
0.0015223	82.6116
0.00153109	82.8498
0.00153993	83.0886
0.00154882	83.3281
0.00155776	83.5682
0.00156675	83.8091
0.0015758	84.0507
0.00158489	84.2929
0.00159404	84.5359
0.00160325	84.7796
0.0016125	85.0239
0.00162181	85.269
0.00163117	85.5148
0.00164059	85.7613
0.00165006	86.0085
0.00165959	86.2564
0.00166917	86.505
0.0016788	86.7543
0.0016885	87.0044
0.00169824	87.2552
0.00170805	87.5067
0.00171791	87.7589
0.00172783	88.0119
0.0017378	88.2656
0.00174783	88.52
0.00175792	88.7751
0.00176807	89.031
0.00177828	89.2876
0.00178855	89.545
0.00179887	89.8031
0.00180926	90.0619
0.0018197	90.3215
0.00183021	90.5819
0.00184077	90.843
0.0018514	91.1048
0.00186209	91.3674
0.00187284	91.6307
0.00188365	91.8949
0.00189452	92.1597
0.00190546	92.4254
0.00191646	92.6918
0.00192752	92.959
0.00193865	93.2269
0.00194984	93.4956
0.0019611	93.7651
0.00197242	94.0354
0.00198381	94.3064
0.00199526	94.5782
0.00200678	94.8509
0.00201837	95.1242
0.00203002	95.3984
0.00204174	95.6734
0.00205353	95.9492
0.00206538	96.2257
0.0020773	96.5031
0.0020893	96.7813
0.00210136	97.0602
0.00211349	97.34
0.00212569	97.6205
0.00213796	97.9019
0.0021503	98.1841
0.00216272	98.4671
0.0021752	98.7509
0.00218776	99.0356
0.00220039	99.321
0.00221309	99.6073
0.00222587	99.8944
0.00223872	100.182
0.00225165	100.471
0.00226464	100.761
0.00227772	101.051
0.00229087	101.342
0.00230409	101.635
0.00231739	101.927
0.00233077	102.221
0.00234423	102.516
0.00235776	102.811
0.00237137	103.108
0.00238506	103.405
0.00239883	103.703
0.00241268	104.002
0.00242661	104.302
0.00244062	104.602
0.00245471	104.904
0.00246888	105.206
0.00248313	105.509
0.00249747	105.814
0.00251189	106.119
0.00252639	106.424
0.00254097	106.731
0.00255564	107.039
0.0025704	107.347
0.00258523	107.657
0.00260016	107.967
0.00261517	108.278
0.00263027	108.59
0.00264545	108.903
0.00266073	109.217
0.00267609	109.532
0.00269153	109.848
0.00270707	110.164
0.0027227	110.482
0.00273842	110.8
0.00275423	111.12
0.00277013	111.44
0.00278612	111.761
0.00280221	112.083
0.00281838	112.406
0.00283465	112.73
0.00285102	113.055
0.00286748	113.381
0.00288403	113.708
0.00290068	114.036
0.00291743	114.364
0.00293427	114.694
0.00295121	115.025
0.00296825	115.356
0.00298538	115.689
0.00300262	116.022
0.00301995	116.357
0.00303739	116.692
0.00305492	117.028
0.00307256	117.366
0.0030903	117.704
0.00310814	118.043
0.00312608	118.384
0.00314413	118.725
0.00316228	119.067
0.00318053	119.41
0.0031989	119.754
0.00321736	120.1
0.00323594	120.446
0.00325462	120.793
0.00327341	121.141
0.0032923	121.49
0.00331131	121.84
0.00333043	122.192
0.00334965	122.544
0.00336899	122.897
0.00338844	123.251
0.003408	123.606
0.00342768	123.963
0.00344747	124.32
0.00346737	124.678
0.00348739	125.038
0.00350752	125.398
0.00352777	125.76
0.00354813	126.122
0.00356862	126.486
0.00358922	126.85
0.00360994	127.216
0.00363078	127.583
0.00365174	127.95
0.00367282	128.319
0.00369403	128.689
0.00371535	129.06
0.0037368	129.432
0.00375837	129.805
0.00378007	130.179
0.00380189	130.554
0.00382384	130.931
0.00384592	131.308
0.00386812	131.686
0.00389045	132.066
0.00391291	132.447
0.0039355	132.828
0.00395822	133.211
0.00398107	133.595
0.00400405	133.98
0.00402717	134.367
0.00405042	134.754
0.0040738	135.142
0.00409732	135.532
0.00412098	135.922
0.00414477	136.314
0.00416869	136.707
0.00419276	137.101
0.00421697	137.496
0.00424131	137.893
0.0042658	138.29
0.00429042	138.689
0.00431519	139.089
0.0043401	139.489
0.00436516	139.891
0.00439036	140.295
0.0044157	140.699
0.0044412	141.105
0.00446684	141.511
0.00449262	141.919
0.00451856	142.328
0.00454465	142.739
0.00457088	143.15
0.00459727	143.563
0.00462381	143.976
0.0046505	144.391
0.00467735	144.808
0.00470435	145.225
0.00473151	145.644
0.00475883	146.063
0.0047863	146.484
0.00481393	146.907
0.00484172	147.33
0.00486968	147.755
0.00489779	148.181
0.00492606	148.608
0.0049545	149.036
0.0049831	149.466
0.00501187	149.896
0.00504081	150.328
0.00506991	150.762
0.00509918	151.196
0.00512861	151.632
0.00515822	152.069
0.005188	152.508
0.00521795	152.947
0.00524807	153.388
0.00527837	153.83
0.00530884	154.273
0.00533949	154.718
0.00537032	155.164
0.00540132	155.611
0.0054325	156.06
0.00546387	156.51
0.00549541	156.961
0.00552713	157.413
0.00555904	157.867
0.00559114	158.322
0.00562341	158.778
0.00565588	159.236
0.00568853	159.695
0.00572137	160.155
0.0057544	160.617
0.00578762	161.08
0.00582103	161.544
0.00585464	162.01
0.00588844	162.477
0.00592243	162.945
0.00595662	163.415
0.00599101	163.886
0.0060256	164.358
0.00606038	164.832
0.00609537	165.307
0.00613056	165.783
0.00616595	166.261
0.00620155	166.741
0.00623735	167.221
0.00627336	167.703
0.00630957	168.187
0.006346	168.671
0.00638263	169.157
0.00641948	169.645
0.00645654	170.134
0.00649382	170.624
0.00653131	171.116
0.00656901	171.609
0.00660693	172.104
0.00664508	172.6
0.00668344	173.098
0.00672202	173.597
0.00676083	174.097
0.00679986	174.599
0.00683912	175.102
0.0068786	175.607
0.00691831	176.113
0.00695825	176.621
0.00699842	177.13
0.00703882	177.64
0.00707946	178.152
0.00712033	178.666
0.00716143	179.181
0.00720278	179.697
0.00724436	180.215
0.00728618	180.735
0.00732825	181.256
0.00737055	181.778
0.0074131	182.302
0.0074559	182.827
0.00749894	183.354
0.00754223	183.883
0.00758578	184.413
0.00762957	184.944
0.00767361	185.477
0.00771792	186.012
0.00776247	186.548
0.00780728	187.086
0.00785236	187.625
0.00789769	188.166
0.00794328	188.708
0.00798914	189.252
0.00803526	189.798
0.00808165	190.345
0.00812831	190.894
0.00817523	191.444
0.00822243	191.996
0.0082699	192.549
0.00831764	193.104
0.00836566	193.661
0.00841395	194.219
0.00846253	194.779
0.00851138	195.34
0.00856052	195.903
0.00860994	196.468
0.00865964	197.034
0.00870964	197.602
0.00875992	198.172
0.00881049	198.743
0.00886135	199.316
0.00891251	199.89
0.00896396	200.466
0.00901571	201.044
0.00906776	201.624
0.00912011	202.205
0.00917276	202.788
0.00922571	203.372
0.00927897	203.958
0.00933254	204.546
0.00938642	205.136
0.00944061	205.727
0.00949511	206.32
0.00954993	206.915
0.00960506	207.511
0.00966051	208.109
0.00971628	208.709
0.00977237	209.311
0.00982879	209.914
0.00988553	210.519
0.0099426	211.126
0.01	211.734
0.0100577	212.345
0.0101158	212.957
0.0101742	213.57
0.0102329	214.186
0.010292	214.803
0.0103514	215.423
0.0104112	216.044
0.0104713	216.666
0.0105317	217.291
0.0105925	217.917
0.0106537	218.545
0.0107152	219.175
0.0107771	219.807
0.0108393	220.44
0.0109018	221.076
0.0109648	221.713
0.0110281	222.352
0.0110917	222.993
0.0111558	223.636
0.0112202	224.28
0.011285	224.927
0.0113501	225.575
0.0114156	226.225
0.0114815	226.877
0.0115478	227.531
0.0116145	228.187
0.0116815	228.845
0.011749	229.505
0.0118168	230.166
0.011885	230.829
0.0119536	231.495
0.0120226	232.162
0.0120921	232.831
0.0121619	233.502
0.0122321	234.175
0.0123027	234.85
0.0123737	235.527
0.0124451	236.206
0.012517	236.887
0.0125893	237.57
0.0126619	238.255
0.012735	238.941
0.0128086	239.63
0.0128825	240.321
0.0129569	241.013
0.0130317	241.696
0.0131069	242.376
0.0131826	243.057
0.0132587	243.741
0.0133352	244.427
0.0134122	245.115
0.0134896	245.804
0.0135675	246.496
0.0136458	247.19
0.0137246	247.885
0.0138038	248.583
0.0138835	249.282
0.0139637	249.984
0.0140443	250.688
0.0141254	251.394
0.0142069	252.101
0.0142889	252.811
0.0143714	253.523
0.0144544	254.237
0.0145378	254.953
0.0146218	255.671
0.0147062	256.391
0.0147911	257.113
0.0148765	257.837
0.0149624	258.563
0.0150487	259.292
0.0151356	260.022
0.015223	260.755
0.0153109	261.49
0.0153993	262.227
0.0154882	262.966
0.0155776	263.707
0.0156675	264.45
0.015758	265.195
0.0158489	265.943
0.0159404	266.692
0.0160325	267.444
0.016125	268.198
0.0162181	268.955
0.0163117	269.713
0.0164059	270.473
0.0165006	271.236
0.0165959	272.001
0.0166917	272.768
0.016788	273.538
0.016885	274.309
0.0169824	275.083
0.0170805	275.859
0.0171791	276.638
0.0172783	277.418
0.017378	278.201
0.0174783	278.986
0.0175792	279.773
0.0176807	280.563
0.0177828	281.355
0.0178855	282.149
0.0179887	282.945
0.0180926	283.744
0.018197	284.545
0.0183021	285.349
0.0184077	286.154
0.018514	286.962
0.0186209	287.773
0.0187284	288.585
0.0188365	289.401
0.0189452	290.218
0.0190546	291.038
0.0191646	291.86
0.0192752	292.684
0.0193865	293.511
0.0194984	294.341
0.019611	295.172
0.0197242	296.007
0.0198381	296.843
0.0199526	297.682
0.0200678	298.523
0.0201837	299.367
0.0203002	300.213
0.0204174	301.062
0.0205353	301.913
0.0206538	302.767
0.020773	303.623
0.020893	304.482
0.0210136	305.343
0.0211349	306.206
0.0212569	307.072
0.0213796	307.941
0.021503	308.812
0.0216272	309.685
0.021752	310.562
0.0218776	311.44
0.0220039	312.321
0.0221309	313.205
0.0222587	314.091
0.0223872	314.98
0.0225165	315.872
0.0226464	316.766
0.0227772	317.662
0.0229087	318.562
0.0230409	319.464
0.0231739	320.368
0.0233077	321.275
0.0234423	322.185
0.0235776	323.097
0.0237137	324.012
0.0238506	324.93
0.0239883	325.85
0.0241268	326.773
0.0242661	327.699
0.0244062	328.627
0.0245471	329.558
0.0246888	330.492
0.0248313	331.428
0.0249747	332.367
0.0251189	333.309
0.0252639	334.254
0.0254097	335.201
0.0255564	336.151
0.025704	337.104
0.0258523	338.06
0.0260016	339.018
0.0261517	339.979
0.0263027	340.943
0.0264545	341.91
0.0266073	342.88
0.0267609	343.852
0.0269153	344.827
0.0270707	345.805
0.027227	346.786
0.0273842	347.77
0.0275423	348.756
0.0277013	349.746
0.0278612	350.738
0.0280221	351.733
0.0281838	352.731
0.0283465	353.732
0.0285102	354.736
0.0286748	355.743
0.0288403	356.753
0.0290068	357.766
0.0291743	358.781
0.0293427	359.8
0.0295121	360.821
0.0296825	361.846
0.0298538	362.873
0.0300262	363.904
0.0301995	364.937
0.0303739	365.974
0.0305492	367.013
0.0307256	368.056
0.030903	369.102
0.0310814	370.15
0.0312608	371.202
0.0314413	372.257
0.0316228	373.314
0.0318053	374.375
0.031989	375.439
0.0321736	376.506
0.0323594	377.576
0.0325462	378.65
0.0327341	379.726
0.032923	380.806
0.0331131	381.888
0.0333043	382.974
0.0334965	384.063
0.0336899	385.155
0.0338844	386.251
0.03408	387.349
0.0342768	388.451
0.0344747	389.556
0.0346737	390.664
0.0348739	391.775
0.0350752	392.89
0.0352777	394.008
0.0354813	395.129
0.0356862	396.253
0.0358922	397.381
0.0360994	398.512
0.0363078	399.646
0.0365174	400.784
0.0367282	401.925
0.0369403	403.069
0.0371535	404.217
0.037368	405.367
0.0375837	406.522
0.0378007	407.679
0.0380189	408.84
0.0382384	410.005
0.0384592	411.173
0.0386812	412.344
0.0389045	413.518
0.0391291	414.696
0.039355	415.878
0.0395822	417.063
0.0398107	418.251
0.0400405	419.443
0.0402717	420.638
0.0405042	421.837
0.040738	423.039
0.0409732	424.245
0.0412098	425.455
0.0414477	426.668
0.0416869	427.884
0.0419276	429.104
0.0421697	430.327
0.0424131	431.555
0.042658	432.785
0.0429042	434.02
0.0431519	435.257
0.043401	436.499
0.0436516	437.744
0.0439036	438.993
0.044157	440.245
0.044412	441.501
0.0446684	442.761
0.0449262	444.025
0.0451856	445.292
0.0454465	446.563
0.0457088	447.837
0.0459727	449.115
0.0462381	450.398
0.046505	451.683
0.0467735	452.973
0.0470435	454.266
0.0473151	455.563
0.0475883	456.864
0.047863	458.169
0.0481393	459.477
0.0484172	460.79
0.0486968	462.106
0.0489779	463.426
0.0492606	464.75
0.049545	466.078
0.049831	467.409
0.0501187	468.745
0.0504081	470.084
0.0506991	471.428
0.0509918	472.775
0.0512861	474.126
0.0515822	475.481
0.05188	476.841
0.0521795	477.322
0.0524807	477.64
0.0527837	477.962
0.0530884	478.287
0.0533949	478.616
0.0537032	478.948
0.0540132	479.283
0.054325	479.621
0.0546387	479.963
0.0549541	480.307
0.0552713	480.655
0.0555904	481.006
0.0559114	481.359
0.0562341	481.716
0.0565588	482.075
0.0568853	482.437
0.0572137	482.803
0.057544	483.17
0.0578762	483.541
0.0582103	483.914
0.0585464	484.291
0.0588844	484.669
0.0592243	485.051
0.0595662	485.434
0.0599101	485.821
0.060256	486.21
0.0606038	486.601
0.0609537	486.995
0.0613056	487.392
0.0616595	487.791
0.0620155	488.192
0.0623735	488.595
0.0627336	489.001
0.0630957	489.409
0.06346	489.82
0.0638263	490.233
0.0641948	490.648
0.0645654	491.065
0.0649382	491.484
0.0653131	491.906
0.0656901	492.329
0.0660693	492.755
0.0664508	493.183
0.0668344	493.613
0.0672202	494.045
0.0676083	494.479
0.0679986	494.915
0.0683912	495.353
0.068786	495.793
0.0691831	496.235
0.0695825	496.679
0.0699842	497.125
0.0703882	497.573
0.0707946	498.023
0.0712033	498.474
0.0716143	498.928
0.0720278	499.383
0.0724436	499.841
0.0728618	500.3
0.0732825	500.761
0.0737055	501.223
0.074131	501.688
0.074559	502.154
0.0749894	502.622
0.0754223	503.092
0.0758578	503.564
0.0762957	504.037
0.0767361	504.512
0.0771792	504.989
0.0776247	505.468
0.0780728	505.948
0.0785236	506.43
0.0789769	506.914
0.0794328	507.399
0.0798914	507.886
0.0803526	508.375
0.0808165	508.865
0.0812831	509.357
0.0817523	509.851
0.0822243	510.347
0.082699	510.844
0.0831764	511.342
0.0836566	511.843
0.0841395	512.345
0.0846253	512.848
0.0851138	513.354
0.0856052	513.861
0.0860994	514.369
0.0865964	514.879
0.0870964	515.391
0.0875992	515.904
0.0881049	516.419
0.0886135	516.936
0.0891251	517.454
0.0896396	517.974
0.0901571	518.496
0.0906776	519.019
0.0912011	519.543
0.0917276	520.07
0.0922571	520.598
0.0927897	521.127
0.0933254	521.658
0.0938642	522.191
0.0944061	522.726
0.0949511	523.262
0.0954993	523.799
0.0960506	524.339
0.0966051	524.88
0.0971628	525.422
0.0977237	525.966
0.0982879	526.512
0.0988553	527.06
0.099426	527.609
0.1	528.16
0.100577	528.712
0.101158	529.266
0.101742	529.822
0.102329	530.38
0.10292	530.939
0.103514	531.5
0.104112	532.062
0.104713	532.627
0.105317	533.192
0.105925	533.76
0.106537	534.329
0.107152	534.9
0.107771	535.473
0.108393	536.048
0.109018	536.624
0.109648	537.202
0.110281	537.782
0.110917	538.363
0.111558	538.947
0.112202	539.532
0.11285	540.118
0.113501	540.707
0.114156	541.297
0.114815	541.89
0.115478	542.484
0.116145	543.08
0.116815	543.677
0.11749	544.277
0.118168	544.878
0.11885	545.481
0.119536	546.087
0.120226	546.694
0.120921	547.302
0.121619	547.913
0.122321	548.526
0.123027	549.14
0.123737	549.757
0.124451	550.375
0.12517	550.996
0.125893	551.618
0.126619	552.243
0.12735	552.869
0.128086	553.497
0.128825	554.128
0.129569	554.76
0.130317	555.394
0.131069	556.031
0.131826	556.669
0.132587	557.309
0.133352	557.952
0.134122	558.597
0.134896	559.243
0.135675	559.892
0.136458	560.543
0.137246	561.196
0.138038	561.851
0.138835	562.509
0.139637	563.168
0.140443	563.83
0.141254	564.494
0.142069	565.16
0.142889	565.828
0.143714	566.499
0.144544	567.171
0.145378	567.846
0.146218	568.524
0.147062	569.203
0.147911	569.885
0.148765	570.569
0.149624	571.256
0.150487	571.944
0.151356	572.636
0.15223	573.329
0.153109	574.025
0.153993	574.723
0.154882	575.424
0.155776	576.127
0.156675	576.832
0.15758	577.54
0.158489	578.25
0.159404	578.963
0.160325	579.678
0.16125	580.396
0.162181	581.116
0.163117	581.839
0.164059	582.564
0.165006	583.292
0.165959	584.023
0.166917	584.756
0.16788	585.491
0.16885	586.229
0.169824	586.97
0.170805	587.714
0.171791	588.46
0.172783	589.208
0.17378	589.96
0.174783	590.714
0.175792	591.471
0.176807	592.23
0.177828	592.992
0.178855	593.757
0.179887	594.525
0.180926	595.296
0.18197	596.069
0.183021	596.845
0.184077	597.624
0.18514	598.406
0.186209	599.19
0.187284	599.978
0.188365	600.768
0.189452	601.562
0.190546	602.358
0.191646	603.157
0.192752	603.959
0.193865	604.764
0.194984	605.572
0.19611	606.383
0.197242	607.197
0.198381	608.013
0.199526	608.833
0.200678	609.656
0.201837	610.482
0.203002	611.312
0.204174	612.144
0.205353	612.979
0.206538	613.817
0.20773	614.659
0.20893	615.504
0.210136	616.352
0.211349	617.203
0.212569	618.057
0.213796	618.914
0.21503	619.775
0.216272	620.639
0.21752	621.506
0.218776	622.377
0.220039	623.25
0.221309	624.127
0.222587	625.008
0.223872	625.891
0.225165	626.778
0.226464	627.669
0.227772	628.562
0.229087	629.459
0.230409	630.36
0.231739	631.264
0.233077	632.171
0.234423	633.082
0.235776	633.996
0.237137	634.914
0.238506	635.835
0.239883	636.76
0.241268	637.689
0.242661	638.62
0.244062	639.556
0.245471	640.495
0.246888	641.437
0.248313	642.383
0.249747	643.333
0.251189	644.287
0.252639	645.244
0.254097	646.204
0.255564	647.169
0.25704	648.137
0.258523	649.109
0.260016	650.084
0.261517	651.063
0.263027	652.047
0.264545	653.033
0.266073	654.024
0.267609	655.018
0.269153	656.016
0.270707	657.018
0.27227	658.024
0.273842	659.034
0.275423	660.048
0.277013	661.065
0.278612	662.086
0.280221	663.112
0.281838	664.141
0.283465	665.174
0.285102	666.211
0.286748	667.252
0.288403	668.297
0.290068	669.346
0.291743	670.4
0.293427	671.457
0.295121	672.518
0.296825	673.583
0.298538	674.653
0.300262	675.726
0.301995	676.804
0.303739	677.885
0.305492	678.971
0.307256	680.061
0.30903	681.155
0.310814	682.254
0.312608	683.356
0.314413	684.463
0.316228	685.574
0.318053	686.689
0.31989	687.808
0.321736	688.932
0.323594	690.06
0.325462	691.192
0.327341	692.329
0.32923	693.47
0.331131	694.615
0.333043	695.765
0.334965	696.919
0.336899	698.077
0.338844	699.24
0.3408	700.407
0.342768	701.579
0.344747	702.755
0.346737	703.936
0.348739	705.121
0.350752	706.31
0.352777	707.504
0.354813	708.703
0.356862	709.906
0.358922	711.113
0.360994	712.325
0.363078	713.542
0.365174	714.763
0.367282	715.989
0.369403	717.22
0.371535	718.455
0.37368	719.694
0.375837	720.939
0.378007	722.188
0.380189	723.441
0.382384	724.7
0.384592	725.963
0.386812	727.23
0.389045	728.503
0.391291	729.78
0.39355	731.062
0.395822	732.349
0.398107	733.64
0.400405	734.937
0.402717	736.238
0.405042	737.544
0.40738	738.855
0.409732	740.17
0.412098	741.491
0.414477	742.816
0.416869	744.146
0.419276	745.481
0.421697	746.821
0.424131	748.166
0.42658	749.516
0.429042	750.871
0.431519	752.23
0.43401	753.595
0.436516	754.965
0.439036	756.339
0.44157	757.719
0.44412	759.104
0.446684	760.493
0.449262	761.888
0.451856	763.288
0.454465	764.693
0.457088	766.102
0.459727	767.517
0.462381	768.937
0.46505	770.363
0.467735	771.793
0.470435	773.228
0.473151	774.669
0.475883	776.114
0.47863	777.565
0.481393	779.021
0.484172	780.482
0.486968	781.949
0.489779	783.42
0.492606	784.897
0.49545	786.379
0.49831	787.866
0.501187	789.359
0.504081	790.856
0.506991	792.359
0.509918	793.867
0.512861	795.381
0.515822	796.9
0.5188	798.424
0.521795	799.953
0.524807	801.488
0.527837	803.028
0.530884	804.573
0.533949	806.123
0.537032	807.679
0.540132	809.241
0.54325	810.808
0.546387	812.38
0.549541	813.957
0.552713	815.54
0.555904	817.128
0.559114	818.722
0.562341	820.321
0.565588	821.925
0.568853	823.535
0.572137	825.15
0.57544	826.771
0.578762	828.397
0.582103	830.029
0.585464	831.666
0.588844	833.309
0.592243	834.957
0.595662	836.61
0.599101	838.269
0.60256	839.934
0.606038	841.603
0.609537	843.279
0.613056	844.96
0.616595	846.646
0.620155	848.338
0.623735	850.036
0.627336	851.739
0.630957	853.447
0.6346	855.161
0.638263	856.881
0.641948	858.606
0.645654	860.337
0.649382	862.073
0.653131	863.815
0.656901	865.562
0.660693	867.315
0.664508	869.073
0.668344	870.837
0.672202	872.607
0.676083	874.382
0.679986	876.163
0.683912	877.949
0.68786	879.741
0.691831	881.538
0.695825	883.341
0.699842	885.149
0.703882	886.963
0.707946	888.783
0.712033	890.608
0.716143	892.439
0.720278	894.275
0.724436	896.117
0.728618	897.965
0.732825	899.818
0.737055	901.676
0.74131	903.54
0.74559	905.41
0.749894	907.285
0.754223	909.166
0.758578	911.052
0.762957	912.944
0.767361	914.841
0.771792	916.744
0.776247	918.653
0.780728	920.567
0.785236	922.486
0.789769	924.411
0.794328	926.342
0.798914	928.278
0.803526	930.22
0.808165	932.167
0.812831	934.119
0.817523	936.077
0.822243	938.041
0.82699	940.01
0.831764	941.984
0.836566	943.964
0.841395	945.949
0.846253	947.94
0.851138	949.936
0.856052	951.938
0.860994	953.945
0.865964	955.957
0.870964	957.975
0.875992	959.998
0.881049	962.026
0.886135	964.06
0.891251	966.099
0.896396	968.144
0.901571	970.194
0.906776	972.249
0.912011	974.309
0.917276	976.375
0.922571	978.446
0.927897	980.522
0.933254	982.603
0.938642	984.689
0.944061	986.781
0.949511	988.878
0.954993	990.98
0.960506	993.087
0.966051	995.199
0.971628	997.317
0.977237	999.439
0.982879	1001.57
0.988553	1003.7
0.99426	1005.84
1	1007.98
1.00577	1010.13
1.01158	1012.28
1.01742	1014.44
1.02329	1016.6
1.0292	1018.77
1.03514	1020.94
1.04112	1023.12
1.04713	1025.3
1.05317	1027.48
1.05925	1029.68
1.06537	1031.87
1.07152	1034.07
1.07771	1036.28
1.08393	1038.49
1.09018	1040.7
1.09648	1042.92
1.10281	1045.15
1.10917	1047.37
1.11558	1049.61
1.12202	1051.84
1.1285	1054.09
1.13501	1056.33
1.14156	1058.58
1.14815	1060.84
1.15478	1063.1
1.16145	1065.36
1.16815	1067.63
1.1749	1069.9
1.18168	1072.17
1.1885	1074.46
1.19536	1076.74
1.20226	1079.03
1.20921	1081.32
1.21619	1083.62
1.22321	1085.92
1.23027	1088.22
1.23737	1090.53
1.24451	1092.84
1.2517	1095.15
1.25893	1097.47
1.26619	1099.8
1.2735	1102.12
1.28086	1104.45
1.28825	1106.79
1.29569	1109.12
1.30317	1111.46
1.31069	1113.81
1.31826	1116.15
1.32587	1118.5
1.33352	1120.86
1.34122	1123.21
1.34896	1125.57
1.35675	1127.94
1.36458	1130.3
1.37246	1132.67
1.38038	1135.04
1.38835	1137.42
1.39637	1139.8
1.40443	1142.18
1.41254	1144.56
1.42069	1146.94
1.42889	1149.33
1.43714	1151.72
1.44544	1154.11
1.45378	1156.51
1.46218	1158.91
1.47062	1161.31
1.47911	1163.71
1.48765	1166.11
1.49624	1168.52
1.50487	1170.93
1.51356	1173.34
1.5223	1175.75
1.53109	1178.16
1.53993	1180.58
1.54882	1182.99
1.55776	1185.41
1.56675	1187.83
1.5758	1190.25
1.58489	1192.67
1.59404	1195.1
1.60325	1197.52
1.6125	1199.95
1.62181	1202.37
1.63117	1204.8
1.64059	1207.23
1.65006	1209.66
1.65959	1212.09
1.66917	1214.52
1.6788	1216.95
1.6885	1219.38
1.69824	1221.81
1.70805	1224.24
1.71791	1226.68
1.72783	1229.11
1.7378	1231.54
1.74783	1233.97
1.75792	1236.4
1.76807	1238.83
1.77828	1241.26
1.78855	1243.69
1.79887	1246.12
1.80926	1248.55
1.8197	1250.98
1.83021	1253.41
1.84077	1255.83
1.8514	1258.26
1.86209	1260.68
1.87284	1263.11
1.88365	1266.18
1.89452	1272.58
1.90546	1279.01
1.91646	1285.47
1.92752	1291.97
1.93865	1298.5
1.94984	1305.07
1.9611	1311.67
1.97242	1318.31
1.98381	1324.98
1.99526	1331.69
2.00678	1338.43
2.01837	1345.2
2.03002	1352.01
2.04174	1358.86
2.05353	1365.74
2.06538	1372.65
2.0773	1379.61
2.0893	1386.59
2.10136	1393.61
2.11349	1400.67
2.12569	1407.76
2.13796	1414.89
2.1503	1422.05
2.16272	1429.25
2.1752	1436.48
2.18776	1443.75
2.20039	1451.06
2.21309	1458.4
2.22587	1465.77
2.23872	1473.18
2.25165	1480.63
2.26464	1488.12
2.27772	1495.64
2.29087	1503.19
2.30409	1510.78
2.31739	1518.41
2.33077	1526.07
2.34423	1533.77
2.35776	1541.5
2.37137	1549.28
2.38506	1557.08
2.39883	1564.92
2.41268	1572.8
2.42661	1580.72
2.44062	1588.67
2.45471	1596.65
2.46888	1604.67
2.48313	1612.73
2.49747	1620.82
2.51189	1628.95
2.52639	1637.12
2.54097	1645.32
2.55564	1653.56
2.5704	1661.83
2.58523	1670.14
2.60016	1678.48
2.61517	1686.86
2.63027	1695.27
2.64545	1703.72
2.66073	1712.21
2.67609	1720.73
2.69153	1729.29
2.70707	1737.88
2.7227	1746.5
2.73842	1755.17
2.75423	1763.86
2.77013	1772.59
2.78612	1781.36
2.80221	1790.16
2.81838	1799
2.83465	1807.87
2.85102	1816.77
2.86748	1825.71
2.88403	1834.69
2.90068	1843.69
2.91743	1852.73
2.93427	1861.81
2.95121	1870.92
2.96825	1880.06
2.98538	1889.24
3.00262	1898.45
3.01995	1907.69
3.03739	1916.97
3.05492	1926.28
3.07256	1935.62
3.0903	1945
3.10814	1954.4
3.12608	1963.84
3.14413	1973.32
3.16228	1982.82
3.18053	1992.36
3.1989	2001.92
3.21736	2011.52
3.23594	2021.15
3.25462	2030.81
3.27341	2040.51
3.2923	2050.23
3.31131	2059.98
3.33043	2069.77
3.34965	2079.58
3.36899	2089.42
3.38844	2099.3
3.408	2109.2
3.42768	2119.13
3.44747	2129.09
3.46737	2139.08
3.48739	2149.1
3.50752	2159.15
3.52777	2169.22
3.54813	2179.32
3.56862	2189.45
3.58922	2199.6
3.60994	2209.79
3.63078	2220
3.65174	2230.23
3.67282	2240.49
3.69403	2250.78
3.71535	2261.09
3.7368	2271.43
3.75837	2281.79
3.78007	2292.17
3.80189	2302.58
3.82384	2313.02
3.84592	2323.47
3.86812	2333.95
3.89045	2344.46
3.91291	2354.98
3.9355	2365.53
3.95822	2376.1
3.98107	2386.69
4.00405	2397.3
4.02717	2407.93
4.05042	2418.58
4.0738	2429.25
4.09732	2439.94
4.12098	2450.65
4.14477	2461.38
4.16869	2472.13
4.19276	2482.89
4.21697	2493.67
4.24131	2504.47
4.2658	2515.29
4.29042	2526.12
4.31519	2536.96
4.3401	2547.83
4.36516	2558.7
4.39036	2569.59
4.4157	2580.5
4.4412	2591.42
4.46684	2602.35
4.49262	2613.29
4.51856	2624.25
4.54465	2635.22
4.57088	2646.19
4.59727	2657.18
4.62381	2668.18
4.6505	2679.19
4.67735	2690.21
4.70435	2701.24
4.73151	2712.27
4.75883	2723.32
4.7863	2734.37
4.81393	2745.42
4.84172	2756.49
4.86968	2767.55
4.89779	2778.63
4.92606	2789.7
4.9545	2800.79
4.9831	2811.87
5.01187	2822.96
5.04081	2834.05
5.06991	2845.14
5.09918	2856.24
5.12861	2867.33
5.15822	2878.43
5.188	2889.52
5.21795	2900.61
5.24807	2911.71
5.27837	2922.8
5.30884	2933.88
5.33949	2944.97
5.37032	2956.05
5.40132	2967.12
5.4325	2978.19
5.46387	2989.26
5.49541	3000.32
5.52713	3011.37
5.55904	3022.42
5.59114	3033.45
5.62341	3044.48
5.65588	3055.5
5.68853	3066.51
5.72137	3077.51
5.7544	3088.5
5.78762	3099.48
5.82103	3110.44
5.85464	3121.39
5.88844	3132.33
5.92243	3143.26
5.95662	3154.17
5.99101	3165.06
6.0256	3175.94
6.06038	3186.8
6.09537	3197.65
6.13056	3208.48
6.16595	3219.29
6.20155	3230.08
6.23735	3240.85
6.27336	3251.6
6.30957	3262.33
6.346	3273.04
6.38263	3283.73
6.41948	3294.39
6.45654	3305.03
6.49382	3315.65
6.53131	3326.24
6.56901	3336.81
6.60693	3347.36
6.64508	3357.87
6.68344	3368.36
6.72202	3378.82
6.76083	3389.26
6.79986	3399.66
6.83912	3410.04
6.8786	3420.38
6.91831	3430.7
6.95825	3440.98
6.99842	3451.23
7.03882	3461.45
7.07946	3471.64
7.12033	3481.79
7.16143	3491.91
7.20278	3502
7.24436	3512.04
7.28618	3522.06
7.32825	3532.03
7.37055	3541.97
7.4131	3551.88
7.4559	3561.74
7.49894	3571.56
7.54223	3581.35
7.58578	3591.1
7.62957	3600.8
7.67361	3610.47
7.71792	3620.09
7.76247	3629.67
7.80728	3639.21
7.85236	3648.7
7.89769	3658.16
7.94328	3667.56
7.98914	3676.93
8.03526	3686.24
8.08165	3695.51
8.12831	3704.74
8.17523	3713.92
8.22243	3723.05
8.2699	3732.13
8.31764	3741.17
8.36566	3750.16
8.41395	3759.09
8.46253	3767.98
8.51138	3776.82
8.56052	3785.61
8.60994	3794.34
8.65964	3803.03
8.70964	3811.66
8.75992	3820.24
8.81049	3828.77
8.86135	3837.24
8.91251	3845.66
8.96396	3851.89
9.01571	3860.18
9.06776	3868.41
9.12011	3876.59
9.17276	3884.71
9.22571	3892.78
9.27897	3900.79
9.33254	3908.74
9.38642	3916.64
9.44061	3924.48
9.49511	3932.26
9.54993	3939.98
9.60506	3947.65
9.66051	3955.25
9.71628	3962.8
9.77237	3970.29
9.82879	3977.72
9.88553	3985.08
9.9426	3992.39
10	3999.64
10.0577	4006.82
10.1158	4013.95
10.1742	4021.01
10.2329	4028.01
10.292	4034.95
10.3514	4041.83
10.4112	4048.65
10.4713	4055.4
10.5317	4062.09
10.5925	4068.72
10.6537	4075.28
10.7152	4081.78
10.7771	4088.22
10.8393	4094.59
10.9018	4100.91
10.9648	4107.15
11.0281	4113.34
11.0917	4119.45
11.1558	4125.51
11.2202	4131.5
11.285	4137.43
11.3501	4143.29
11.4156	4149.08
11.4815	4154.82
11.5478	4160.48
11.6145	4166.09
11.6815	4171.62
11.749	4177.1
11.8168	4182.5
11.885	4187.85
11.9536	4193.12
12.0226	4198.34
12.0921	4203.48
12.1619	4208.57
12.2321	4213.59
12.3027	4218.54
12.3737	4223.43
12.4451	4228.25
12.517	4233.01
12.5893	4237.7
12.6619	4242.33
12.735	4246.89
12.8086	4251.39
12.8825	4255.82
12.9569	4260.19
13.0317	4264.5
13.1069	4268.74
13.1826	4272.92
13.2587	4277.03
13.3352	4281.08
13.4122	4285.06
13.4896	4288.99
13.5675	4292.84
13.6458	4296.64
13.7246	4300.37
13.8038	4304.04
13.8835	4307.64
13.9637	4311.19
14.0443	4314.67
14.1254	4318.08
14.2069	4321.44
14.2889	4324.73
14.3714	4327.96
14.4544	4331.13
14.5378	4334.24
14.6218	4337.29
14.7062	4340.28
14.7911	4343.21
14.8765	4346.07
14.9624	4348.88
15.0487	4351.62
15.1356	4354.31
15.223	4335.92
15.3109	4338.66
15.3993	4341.34
15.4882	4343.97
15.5776	4346.53
15.6675	4349.04
15.758	4351.48
15.8489	4353.87
15.9404	4356.21
16.0325	4358.48
16.125	4360.7
16.2181	4362.86
16.3117	4364.96
16.4059	4367.01
16.5006	4369
16.5959	4370.94
16.6917	4372.82
16.788	4374.64
16.885	4376.42
16.9824	4378.13
17.0805	4379.8
17.1791	4381.41
17.2783	4382.97
17.378	4384.47
17.4783	4385.93
17.5792	4387.33
17.6807	4388.68
17.7828	4389.98
17.8855	4391.22
17.9887	4392.42
18.0926	4393.57
18.197	4394.67
18.3021	4395.72
18.4077	4396.72
18.514	4397.67
18.6209	4398.57
18.7284	4399.43
18.8365	4400.24
18.9452	4401
19.0546	4401.72
19.1646	4402.39
19.2752	4403.02
19.3865	4403.6
19.4984	4404.14
19.611	4404.63
19.7242	4405.08
19.8381	4405.48
19.9526	4405.84
20.0678	4406.16
20.1837	4406.44
20.3002	4406.68
20.4174	4406.87
20.5353	4407.03
20.6538	4407.14
20.773	4407.21
20.893	4407.25
21.0136	4407.25
21.1349	4407.2
21.2569	4407.12
21.3796	4407
21.503	4406.85
21.6272	4406.65
21.752	4406.43
21.8776	4406.16
22.0039	4405.86
22.1309	4405.53
22.2587	4405.15
22.3872	4404.75
22.5165	4404.31
22.6464	4403.84
22.7772	4403.34
22.9087	4402.8
23.0409	4402.23
23.1739	4401.63
23.3077	4401
23.4423	4400.33
23.5776	4399.64
23.7137	4398.92
23.8506	4398.16
23.9883	4397.38
24.1268	4396.57
24.2661	4395.73
24.4062	4394.86
24.5471	4393.97
24.6888	4393.05
24.8313	4392.1
24.9747	4391.12
25.1189	4390.12
25.2639	4389.1
25.4097	4388.04
25.5564	4386.97
25.704	4385.87
25.8523	4384.74
26.0016	4383.59
26.1517	4382.42
26.3027	4381.22
26.4545	4380.01
26.6073	4378.77
26.7609	4377.51
26.9153	4376.22
27.0707	4374.92
27.227	4373.59
27.3842	4372.25
27.5423	4370.88
27.7013	4369.5
27.8612	4368.09
28.0221	4366.67
28.1838	4365.23
28.3465	4363.77
28.5102	4362.29
28.6748	4360.79
28.8403	4359.28
29.0068	4357.75
29.1743	4356.2
29.3427	4354.64
29.5121	4353.06
29.6825	4351.46
29.8538	4349.85
30.0262	4348.22
30.1995	4346.58
30.3739	4344.92
30.5492	4343.25
30.7256	4341.57
30.903	4339.87
31.0814	4338.15
31.2608	4336.43
31.4413	4334.69
31.6228	4332.94
31.8053	4331.17
31.989	4329.39
32.1736	4327.6
32.3594	4325.8
32.5462	4323.99
32.7341	4322.17
32.923	4320.33
33.1131	4318.48
33.3043	4316.62
33.4965	4314.76
33.6899	4312.88
33.8844	4310.99
34.08	4309.09
34.2768	4307.18
34.4747	4305.26
34.6737	4303.34
34.8739	4301.4
35.0752	4299.45
35.2777	4297.5
35.4813	4295.53
35.6862	4293.56
35.8922	4291.58
36.0994	4289.59
36.3078	4287.6
36.5174	4285.59
36.7282	4283.58
36.9403	4281.56
37.1535	4279.53
37.368	4277.5
37.5837	4275.45
37.8007	4273.4
38.0189	4271.35
38.2384	4269.29
38.4592	4267.22
38.6812	4265.14
38.9045	4263.05
39.1291	4260.97
39.355	4258.87
39.5822	4256.77
39.8107	4254.66
40.0405	4252.54
40.2717	4250.42
40.5042	4248.3
40.738	4246.16
40.9732	4244.03
41.2098	4241.88
41.4477	4239.73
41.6869	4237.58
41.9276	4235.42
42.1697	4233.25
42.4131	4231.08
42.658	4228.9
42.9042	4226.72
43.1519	4224.53
43.401	4222.34
43.6516	4220.14
43.9036	4217.94
44.157	4215.73
44.412	4213.52
44.6684	4211.3
44.9262	4209.08
45.1856	4206.85
45.4465	4204.61
45.7088	4202.38
45.9727	4200.13
46.2381	4197.88
46.505	4195.63
46.7735	4193.37
47.0435	4191.11
47.3151	4188.84
47.5883	4186.57
47.863	4184.29
48.1393	4182.01
48.4172	4179.72
48.6968	4177.43
48.9779	4175.13
49.2606	4172.83
49.545	4170.52
49.831	4168.21
50.1187	4165.89
50.4081	4163.56
50.6991	4161.24
50.9918	4158.9
51.2861	4156.56
51.5822	4154.22
51.88	4151.87
52.1795	4149.52
52.4807	4147.16
52.7837	4144.79
53.0884	4142.42
53.3949	4140.05
53.7032	4137.67
54.0132	4135.28
54.325	4132.89
54.6387	4130.49
54.9541	4128.09
55.2713	4125.68
55.5904	4123.26
55.9114	4120.84
56.2341	4118.41
56.5588	4115.98
56.8853	4113.54
57.2137	4111.1
57.544	4108.65
57.8762	4106.19
58.2103	4103.73
58.5464	4101.26
58.8844	4098.78
59.2243	4096.3
59.5662	4093.81
59.9101	4091.32
60.256	4088.82
60.6038	4086.31
60.9537	4083.79
61.3056	4081.27
61.6595	4078.74
62.0155	4076.21
62.3735	4073.66
62.7336	4071.11
63.0957	4068.56
63.46	4065.99
63.8263	4063.42
64.1948	4060.84
64.5654	4058.26
64.9382	4055.66
65.3131	4053.06
65.6901	4050.45
66.0693	4047.84
66.4508	4045.22
66.8344	4042.58
67.2202	4039.94
67.6083	4037.29
67.9986	4034.64
68.3912	4031.97
68.786	4029.3
69.1831	4026.62
69.5825	4023.93
69.9842	4021.23
70.3882	4018.52
70.7946	4015.81
71.2033	4013.08
71.6143	4010.35
72.0278	4007.61
72.4436	4004.85
72.8618	4002.09
73.2825	3999.32
73.7055	3996.55
74.131	3993.76
74.559	3990.96
74.9894	3988.15
75.4223	3985.34
75.8578	3982.51
76.2957	3979.67
76.7361	3976.83
77.1792	3973.97
77.6247	3971.11
78.0728	3968.23
78.5236	3965.34
78.9769	3962.45
79.4328	3959.54
79.8914	3956.62
80.3526	3953.7
80.8165	3950.76
81.2831	3947.81
81.7523	3944.85
82.2243	3941.88
82.699	3938.9
83.1764	3935.91
83.6566	3932.9
84.1395	3929.89
84.6253	3926.86
85.1138	3923.83
85.6052	3920.78
86.0994	3917.72
86.5964	3914.65
87.0964	3911.56
87.5992	3908.47
88.1049	3905.36
88.6135	3902.24
89.1251	3899.11
89.6396	3895.97
90.1571	3892.82
90.6776	3889.65
91.2011	3886.47
91.7276	3883.28
92.2571	3880.08
92.7897	3876.86
93.3254	3873.63
93.8642	3870.39
94.4061	3867.14
94.9511	3863.87
95.4993	3860.59
96.0506	3857.3
96.6051	3854
97.1628	3850.68
97.7237	3847.35
98.2879	3844
98.8553	3840.64
99.426	3837.27
100	3833.89
100.577	3830.49
101.158	3827.08
101.742	3823.65
102.329	3820.21
102.92	3816.76
103.514	3811.15
104.112	3804.39
104.713	3797.65
105.317	3790.93
105.925	3784.22
106.537	3777.53
107.152	3770.84
107.771	3764.38
108.393	3757.71
109.018	3751.05
109.648	3744.39
110.281	3737.74
110.917	3731.1
111.558	3724.46
112.202	3717.83
112.85	3711.2
113.501	3704.59
114.156	3697.98
114.815	3691.37
115.478	3685.26
116.145	3678.82
116.815	3672.23
117.49	3665.64
118.168	3659.07
118.85	3652.49
119.536	3645.92
120.226	3639.36
120.921	3632.8
121.619	3626.25
122.321	3619.7
123.027	3613.15
123.737	3606.61
124.451	3600.07
125.17	3593.54
125.893	3587
126.619	3582.61
127.35	3576.07
128.086	3569.53
128.825	3562.99
129.569	3549.19
130.317	3542.53
131.069	3536.54
131.826	3529.89
132.587	3523.23
133.352	3516.59
134.122	3509.96
134.896	3503.34
135.675	3496.72
136.458	3490.1
137.246	3483.49
138.038	3476.87
138.835	3470.25
139.637	3463.64
140.443	3457.02
141.254	3450.41
142.069	3443.79
142.889	3437.17
143.714	3430.56
144.544	3423.93
145.378	3417.32
146.218	3410.69
147.062	3404.07
147.911	3397.44
148.765	3390.81
149.624	3384.18
150.487	3377.55
151.356	3370.91
152.23	3364.28
153.109	3357.64
153.993	3353.18
154.882	3346.53
155.776	3339.87
156.675	3333.21
157.58	3326.55
158.489	3319.89
159.404	3318.14
160.325	3311.44
161.25	3304.74
162.181	3298.04
163.117	3291.33
164.059	3284.63
165.006	3277.92
165.959	3271.21
166.917	3264.49
167.88	3257.78
168.85	3251.06
169.824	3244.34
170.805	3237.62
171.791	3230.91
172.783	3224.18
173.78	3217.46
174.783	3210.87
175.792	3204.14
176.807	3197.41
177.828	3190.68
178.855	3183.95
179.887	3177.22
180.926	3170.48
181.97	3164.02
183.021	3157.63
184.077	3151.23
185.14	3144.82
186.209	3138.42
187.284	3132
188.365	3125.59
189.452	3119.17
190.546	3112.75
191.646	3106.32
192.752	3099.89
193.865	3093.46
194.984	3087.02
196.11	3080.58
197.242	3074.14
198.381	3067.69
199.526	3061.25
200.678	3054.8
201.837	3048.35
203.002	3041.89
204.174	3035.44
205.353	3028.98
206.538	3022.52
207.73	3016.06
208.93	3009.59
210.136	3003.13
211.349	2997.53
212.569	2991.05
213.796	2984.57
215.03	2978.09
216.272	2971.6
217.52	2965.12
218.776	2958.64
220.039	2952.15
221.309	2945.67
222.587	2939.19
223.872	2932.7
225.165	2926.22
226.464	2919.74
227.772	2913.26
229.087	2906.79
230.409	2900.31
231.739	2895.9
233.077	2889.41
234.423	2882.92
235.776	2876.44
237.137	2869.95
238.506	2863.47
239.883	2856.99
241.268	2850.51
242.661	2844.04
244.062	2837.57
245.471	2831.1
246.888	2824.63
248.313	2818.17
249.747	2811.71
251.189	2805.25
252.639	2798.79
254.097	2792.34
255.564	2785.9
257.04	2779.45
258.523	2773.01
260.016	2766.58
261.517	2760.14
263.027	2753.71
264.545	2747.29
266.073	2740.86
267.609	2734.44
269.153	2728.02
270.707	2721.61
272.27	2715.2
273.842	2708.8
275.423	2702.4
277.013	2696
278.612	2689.6
280.221	2683.21
281.838	2676.83
283.465	2670.44
285.102	2664.07
286.748	2657.69
288.403	2651.32
290.068	2644.95
291.743	2638.65
293.427	2632.28
295.121	2625.93
296.825	2620.16
298.538	2613.81
300.262	2607.45
301.995	2601.1
303.739	2594.75
305.492	2588.4
307.256	2582.07
309.03	2575.73
310.814	2569.4
312.608	2563.07
314.413	2556.74
316.228	2550.42
318.053	2544.1
319.89	2537.79
321.736	2531.47
323.594	2525.17
325.462	2518.86
327.341	2512.56
329.23	2506.26
331.131	2499.97
333.043	2493.68
334.965	2487.4
336.899	2481.11
338.844	2474.83
340.8	2468.56
342.768	2462.29
344.747	2456.02
346.737	2449.75
348.739	2443.49
350.752	2437.24
352.777	2430.98
354.813	2424.73
356.862	2418.49
358.922	2412.25
360.994	2406.01
363.078	2399.77
365.174	2393.54
367.282	2387.32
369.403	2381.09
371.535	2374.87
373.68	2368.66
375.837	2362.45
378.007	2356.24
380.189	2350.04
382.384	2343.84
384.592	2337.64
386.812	2332.25
389.045	2326.04
391.291	2319.85
393.55	2313.65
395.822	2307.46
398.107	2301.28
400.405	2295.1
402.717	2288.92
405.042	2282.74
407.38	2276.57
409.732	2270.41
412.098	2264.28
414.477	2258.12
416.869	2251.96
419.276	2245.81
421.697	2239.67
424.131	2233.52
426.58	2227.39
429.042	2221.25
431.519	2215.13
434.01	2209
436.516	2202.88
439.036	2196.76
441.57	2190.65
444.12	2184.54
446.684	2178.44
449.262	2172.34
451.856	2166.24
454.465	2160.15
457.088	2154.06
459.727	2147.98
462.381	2141.9
465.05	2135.83
467.735	2129.76
470.435	2123.69
473.151	2117.63
475.883	2111.57
478.63	2105.52
481.393	2099.47
484.172	2093.43
486.968	2087.39
489.779	2081.36
492.606	2075.33
495.45	2069.31
498.31	2063.29
501.187	2057.28
504.081	2051.27
506.991	2045.26
509.918	2039.27
512.861	2033.27
515.822	2027.29
518.8	2021.3
521.795	2015.33
524.807	2009.35
527.837	2003.39
530.884	1997.43
533.949	1991.47
537.032	1985.52
540.132	1979.58
543.25	1973.64
546.387	1968.23
549.541	1962.29
552.713	1956.37
555.904	1950.45
559.114	1944.53
562.341	1938.63
565.588	1932.72
568.853	1926.83
572.137	1920.94
575.44	1915.06
578.762	1909.18
582.103	1903.31
585.464	1897.45
588.844	1891.59
592.243	1885.75
595.662	1879.9
599.101	1874.07
602.56	1868.24
606.038	1862.42
609.537	1856.61
613.056	1850.8
616.595	1845
620.155	1839.21
623.735	1833.43
627.336	1827.65
630.957	1821.88
634.6	1816.12
638.263	1810.37
641.948	1804.63
645.654	1798.89
649.382	1793.16
653.131	1787.44
656.901	1781.73
660.693	1776.02
664.508	1770.33
668.344	1764.64
672.202	1758.96
676.083	1753.28
679.986	1747.62
683.912	1741.96
687.86	1736.32
691.831	1730.68
695.825	1725.05
699.842	1719.43
703.882	1713.81
707.946	1708.21
712.033	1702.61
716.143	1697.03
720.278	1691.45
724.436	1685.88
728.618	1680.32
732.825	1674.77
737.055	1669.23
741.31	1663.7
745.59	1658.17
749.894	1652.66
754.223	1647.16
758.578	1641.66
762.957	1636.17
767.361	1630.7
771.792	1625.23
776.247	1619.77
780.728	1614.32
785.236	1608.89
789.769	1603.46
794.328	1598.04
798.914	1592.64
803.526	1587.24
808.165	1581.85
812.831	1576.47
817.523	1571.11
822.243	1565.75
826.99	1560.4
831.764	1555.06
836.566	1549.73
841.395	1544.41
846.253	1539.11
851.138	1533.81
856.052	1528.52
860.994	1523.24
865.964	1517.98
870.964	1512.72
875.992	1507.48
881.049	1502.24
886.135	1497.02
891.251	1491.8
896.396	1486.6
901.571	1481.4
906.776	1476.22
912.011	1471.05
917.276	1465.89
922.571	1460.73
927.897	1455.59
933.254	1450.46
938.642	1445.34
944.061	1440.23
949.511	1435.13
954.993	1430.04
960.506	1424.97
966.051	1419.9
971.628	1414.84
977.237	1409.8
982.879	1404.77
988.553	1399.74
994.26	1394.73
1000	1389.73
1005.77	1384.74
1011.58	1379.76
1017.42	1374.79
1023.29	1369.83
1029.2	1364.89
1035.14	1359.95
1041.12	1355.03
1047.13	1350.12
1053.17	1345.21
1059.25	1340.32
1065.37	1335.44
1071.52	1330.58
1077.71	1325.72
1083.93	1320.87
1090.18	1316.04
1096.48	1311.22
1102.81	1306.41
1109.17	1301.61
1115.58	1296.82
1122.02	1292.62
1128.5	1287.85
1135.01	1283.09
1141.56	1278.34
1148.15	1273.61
1154.78	1268.88
1161.45	1264.17
1168.15	1259.47
1174.9	1254.78
1181.68	1250.1
1188.5	1245.43
1195.36	1240.78
1202.26	1236.14
1209.21	1231.5
1216.19	1226.88
1223.21	1222.28
1230.27	1217.68
1237.37	1213.1
1244.51	1208.52
1251.7	1203.96
1258.93	1199.42
1266.19	1194.88
1273.5	1190.35
1280.86	1185.84
1288.25	1181.34
1295.69	1176.85
1303.17	1172.38
1310.69	1167.91
1318.26	1163.46
1325.87	1159.02
1333.52	1154.59
1341.22	1150.17
1348.96	1145.77
1356.75	1141.38
1364.58	1137
1372.46	1132.63
1380.38	1128.27
1388.35	1123.93
1396.37	1119.6
1404.43	1115.28
1412.54	1110.97
1420.69	1106.68
1428.89	1102.4
1437.14	1098.13
1445.44	1093.87
1453.78	1089.62
1462.18	1085.39
1470.62	1081.17
1479.11	1076.96
1487.65	1072.76
1496.24	1068.58
1504.87	1064.41
1513.56	1060.25
1522.3	1056.1
1531.09	1051.96
1539.93	1047.84
1548.82	1043.73
1557.76	1039.63
1566.75	1035.54
1575.8	1031.47
1584.89	1027.41
1594.04	1023.36
1603.25	1019.32
1612.5	1015.3
1621.81	1011.29
1631.17	1007.29
1640.59	1003.3
1650.06	999.323
1659.59	995.36
1669.17	991.41
1678.8	987.472
1688.5	983.546
1698.24	979.632
1708.05	975.731
1717.91	971.842
1727.83	967.965
1737.8	964.101
1747.83	960.249
1757.92	956.409
1768.07	952.581
1778.28	948.766
1788.55	944.963
1798.87	941.172
1809.26	937.394
1819.7	933.628
1830.21	929.874
1840.77	926.133
1851.4	922.403
1862.09	918.686
1872.84	914.981
1883.65	911.289
1894.52	907.609
1905.46	903.941
1916.46	900.285
1927.52	896.641
1938.65	893.01
1949.84	889.39
1961.1	885.783
1972.42	882.188
1983.81	878.605
1995.26	875.035
2006.78	871.476
2018.37	867.93
2030.02	864.396
2041.74	860.874
2053.53	857.364
2065.38	853.866
2077.3	850.38
2089.3	846.906
2101.36	843.445
2113.49	839.995
2125.69	836.557
2137.96	833.132
2150.3	829.718
2162.72	826.317
2175.2	822.927
2187.76	819.55
2200.39	816.184
2213.09	812.831
2225.87	809.489
2238.72	806.16
2251.65	802.842
2264.64	799.536
2277.72	796.242
2290.87	792.96
2304.09	789.69
2317.39	786.432
2330.77	783.185
2344.23	779.95
2357.76	776.728
2371.37	773.517
2385.06	770.317
2398.83	767.13
2412.68	763.954
2426.61	760.79
2440.62	757.638
2454.71	754.497
2468.88	751.368
2483.13	748.251
2497.47	745.145
2511.89	742.051
2526.39	738.969
2540.97	735.898
2555.64	732.839
2570.4	729.791
2585.23	726.755
2600.16	723.73
2615.17	720.717
2630.27	717.716
2645.45	714.726
2660.73	711.747
2676.09	708.78
2691.53	705.824
2707.07	702.879
2722.7	699.946
2738.42	697.024
2754.23	694.114
2770.13	691.215
2786.12	688.327
2802.21	685.451
2818.38	682.585
2834.65	679.731
2851.02	676.888
2867.48	674.057
2884.03	671.236
2900.68	668.427
2917.43	665.628
2934.27	662.841
2951.21	660.065
2968.25	657.3
2985.38	654.546
3002.62	651.803
3019.95	649.071
3037.39	646.35
3054.92	643.64
3072.56	640.941
3090.3	638.252
3108.14	635.575
3126.08	632.908
3144.13	630.252
3162.28	627.607
3180.53	624.973
3198.9	622.35
3217.36	619.737
3235.94	617.135
3254.62	614.544
3273.41	611.963
3292.3	609.393
3311.31	606.833
3330.43	604.285
3349.65	601.746
3368.99	599.218
3388.44	596.701
3408	594.194
3427.68	591.698
3447.47	589.212
3467.37	586.737
3487.39	584.272
3507.52	581.817
3527.77	579.372
3548.13	576.938
3568.62	574.514
3589.22	572.101
3609.94	569.697
3630.78	567.304
3651.74	564.921
3672.82	562.548
3694.03	560.186
3715.35	557.833
3736.8	555.49
3758.37	553.158
3780.07	550.835
3801.89	548.523
3823.84	546.22
3845.92	543.927
3868.12	541.644
3890.45	539.372
3912.91	537.109
3935.5	534.855
3958.22	532.612
3981.07	530.378
4004.05	528.154
4027.17	525.94
4050.42	523.735
4073.8	521.54
4097.32	519.355
4120.98	517.179
4144.77	515.013
4168.69	512.857
4192.76	510.71
4216.97	508.572
4241.31	506.444
4265.8	504.325
4290.42	502.216
4315.19	500.116
4340.1	498.025
4365.16	495.944
4390.36	493.872
4415.7	491.809
4441.2	489.756
4466.84	487.711
4492.62	485.676
4518.56	483.65
4544.65	481.633
4570.88	479.625
4597.27	477.627
4623.81	475.637
4650.5	473.656
4677.35	471.684
4704.35	469.722
4731.51	467.768
4758.83	465.823
4786.3	463.887
4813.93	461.959
4841.72	460.041
4869.68	458.131
4897.79	456.23
4926.06	454.337
4954.5	452.454
4983.1	450.579
5011.87	448.713
5040.81	446.855
5069.91	445.006
5099.18	443.165
5128.61	441.333
5158.22	439.509
5188	437.694
5217.95	435.887
5248.07	434.089
5278.37	432.299
5308.84	430.517
5339.49	428.744
5370.32	426.978
5401.32	425.222
5432.5	423.473
5463.87	421.733
5495.41	420
5527.13	418.276
5559.04	416.56
5591.14	414.852
5623.41	413.152
5655.88	411.46
5688.53	409.776
5721.37	408.1
5754.4	406.432
5787.62	404.772
5821.03	403.12
5854.64	401.476
5888.44	399.839
5922.43	398.21
5956.62	396.589
5991.01	394.976
6025.6	393.371
6060.38	391.773
6095.37	390.182
6130.56	388.6
6165.95	387.025
6201.55	385.457
6237.35	383.897
6273.36	382.345
6309.57	380.8
6346	379.262
6382.63	377.732
6419.48	376.21
6456.54	374.694
6493.82	373.186
6531.31	371.686
6569.01	370.192
6606.93	368.706
6645.08	367.227
6683.44	365.756
6722.02	364.291
6760.83	362.834
6799.86	361.383
6839.12	359.94
6878.6	358.504
6918.31	357.075
6958.25	355.653
6998.42	354.238
7038.82	352.83
7079.46	351.428
7120.33	350.034
7161.43	348.646
7202.78	347.266
7244.36	345.892
7286.18	344.525
7328.25	343.165
7370.55	341.811
7413.1	340.464
7455.9	339.124
7498.94	337.79
7542.23	336.464
7585.78	335.143
7629.57	333.83
7673.61	332.522
7717.92	331.222
7762.47	329.928
7807.28	328.64
7852.36	327.359
7897.69	326.084
7943.28	324.815
7989.14	323.553
8035.26	322.297
8081.65	321.048
8128.31	319.805
8175.23	318.568
8222.43	317.337
8269.9	316.113
8317.64	314.894
8365.66	313.682
8413.95	312.476
8462.53	311.276
8511.38	310.082
8560.52	308.895
8609.94	307.713
8659.64	306.537
8709.64	305.367
8759.92	304.204
8810.49	303.046
8861.35	301.894
8912.51	300.748
8963.96	299.607
9015.71	298.473
9067.76	297.344
9120.11	296.221
9172.76	295.104
9225.71	293.993
9278.97	292.887
9332.54	291.787
9386.42	290.693
9440.61	289.604
9495.11	288.521
9549.93	287.444
9605.06	286.372
9660.51	285.306
9716.28	284.245
9772.37	283.189
9828.79	282.14
9885.53	281.095
9942.6	280.056
10000	279.023
10057.7	277.994
10115.8	276.971
10174.2	275.954
10232.9	274.942
10292	273.935
10351.4	272.933
10411.2	271.936
10471.3	270.945
10531.7	269.959
10592.5	268.978
10653.7	268.002
10715.2	267.032
10777.1	266.066
10839.3	265.106
10901.8	264.15
10964.8	263.2
11028.1	262.255
11091.7	261.314
11155.8	260.379
11220.2	259.449
11285	258.523
11350.1	257.603
11415.6	256.687
11481.5	255.776
11547.8	254.87
11614.5	253.969
11681.5	253.073
11749	252.181
11816.8	251.294
11885	250.412
11953.6	249.535
12022.6	248.662
12092.1	247.794
12161.9	246.931
12232.1	246.072
12302.7	245.218
12373.7	244.368
12445.1	243.524
12517	242.683
12589.3	241.847
12661.9	241.016
12735	240.189
12808.6	239.367
12882.5	238.549
12956.9	237.735
13031.7	236.926
13106.9	236.122
13182.6	235.321
13258.7	234.525
13335.2	233.734
13412.2	232.947
13489.6	232.164
13567.5	231.385
13645.8	230.611
13724.6	229.84
13803.8	229.074
13883.5	228.313
13963.7	227.555
14044.3	226.802
14125.4	226.052
14206.9	225.307
14288.9	224.566
14371.4	223.829
14454.4	223.096
14537.8	222.368
14621.8	221.643
14706.2	220.922
14791.1	220.205
14876.5	219.493
14962.4	218.784
15048.7	218.079
15135.6	217.378
15223	216.681
15310.9	215.988
15399.3	215.299
15488.2	214.613
15577.6	213.932
15667.5	213.254
15758	212.58
15848.9	211.91
15940.4	211.244
16032.5	210.581
16125	209.922
16218.1	209.267
16311.7	208.616
16405.9	207.968
16500.6	207.324
16595.9	206.684
16691.7	206.047
16788	205.414
16885	204.785
16982.4	204.159
17080.5	203.537
17179.1	202.918
17278.3	202.303
17378	201.691
17478.3	201.083
17579.2	200.478
17680.7	199.877
17782.8	199.279
17885.5	198.685
17988.7	198.094
18092.6	197.507
18197	196.923
18302.1	196.342
18407.7	195.765
18514	195.191
18620.9	194.621
18728.4	194.053
18836.5	193.49
18945.2	192.929
19054.6	192.372
19164.6	191.818
19275.2	191.267
19386.5	190.719
19498.4	190.175
19611	189.634
19724.2	189.096
19838.1	188.561
19952.6	188.03
20067.8	187.502
20183.7	186.976
20300.2	186.454
20417.4	185.935
20535.3	185.419
20653.8	184.907
20773	184.397
20893	183.89
21013.6	183.386
21134.9	182.886
21256.9	182.388
21379.6	181.894
21503	181.402
21627.2	180.913
21752	180.428
21877.6	179.945
22003.9	179.465
22130.9	178.988
22258.7	178.514
22387.2	178.043
22516.5	177.575
22646.4	177.11
22777.2	176.647
22908.7	176.188
23040.9	175.731
23173.9	175.277
23307.7	174.826
23442.3	174.378
23577.6	173.932
23713.7	173.489
23850.6	173.049
23988.3	172.612
24126.8	172.177
24266.1	171.745
24406.2	171.316
24547.1	170.89
24688.8	170.466
24831.3	170.045
24974.7	169.627
25118.9	169.211
25263.9	168.798
25409.7	168.387
25556.4	167.979
25704	167.574
25852.3	167.171
26001.6	166.771
26151.7	166.374
26302.7	165.979
26454.5	165.586
26607.3	165.196
26760.9	164.809
26915.3	164.424
27070.7	164.041
27227	163.661
27384.2	163.284
27542.3	162.909
27701.3	162.536
27861.2	162.166
28022.1	161.799
28183.8	161.433
28346.5	161.071
28510.2	160.71
28674.8	160.352
28840.3	159.996
29006.8	159.643
29174.3	159.292
29342.7	158.944
29512.1	158.597
29682.5	158.253
29853.8	157.912
30026.2	157.572
30199.5	157.235
30373.9	156.901
30549.2	156.568
30725.6	156.238
30903	155.91
31081.4	155.584
31260.8	155.261
31441.3	154.939
31622.8	154.62
31805.3	154.304
31989	153.989
32173.6	153.676
32359.4	153.366
32546.2	153.058
32734.1	152.752
32923	152.448
33113.1	152.147
33304.3	151.847
33496.5	151.55
33689.9	151.254
33884.4	150.961
34080	150.67
34276.8	150.381
34474.7	150.094
34673.7	149.809
34873.9	149.526
35075.2	149.245
35277.7	148.966
35481.3	148.69
35686.2	148.415
35892.2	148.142
36099.4	147.871
36307.8	147.603
36517.4	147.336
36728.2	147.071
36940.3	146.808
37153.5	146.547
37368	146.288
37583.7	146.031
37800.7	145.776
38018.9	145.523
38238.4	145.272
38459.2	145.022
38681.2	144.775
38904.5	144.529
39129.1	144.286
39355	144.044
39582.2	143.804
39810.7	143.566
40040.5	143.329
40271.7	143.095
40504.2	142.862
40738	142.631
40973.2	142.402
41209.8	142.175
41447.7	141.95
41686.9	141.726
41927.6	141.504
42169.7	141.284
42413.1	141.066
42658	140.85
42904.2	140.635
43151.9	140.422
43401	140.21
43651.6	140.001
43903.6	139.793
44157	139.587
44412	139.382
44668.4	139.179
44926.2	138.978
45185.6	138.779
45446.5	138.581
45708.8	138.385
45972.7	138.191
46238.1	137.998
46505	137.807
46773.5	137.617
47043.5	137.429
47315.1	137.243
47588.3	137.058
47863	136.875
48139.3	136.694
48417.2	136.514
48696.8	136.336
48977.9	136.159
49260.6	135.984
49545	135.81
49831	135.638
50118.7	135.468
50408.1	135.285
50699.1	135.104
50991.8	134.924
51286.1	134.745
51582.2	134.568
51880	134.392
52179.5	134.218
52480.7	134.045
52783.7	133.873
53088.4	133.704
53394.9	133.535
53703.2	133.368
54013.2	133.203
54325	133.038
54638.7	132.876
54954.1	132.714
55271.3	132.555
55590.4	132.396
55911.4	132.239
56234.1	132.083
56558.8	131.929
56885.3	131.776
57213.7	131.624
57544	131.474
57876.2	131.325
58210.3	131.178
58546.4	131.032
58884.4	130.887
59224.3	130.743
59566.2	130.601
59910.1	130.46
60256	130.321
60603.8	130.182
60953.7	130.045
61305.6	129.91
61659.5	129.775
62015.5	129.642
62373.5	129.51
62733.6	129.38
63095.7	129.25
63460	129.122
63826.3	128.996
64194.8	128.87
64565.4	128.746
64938.2	128.623
65313.1	128.501
65690.1	128.38
66069.3	128.26
66450.8	128.142
66834.4	128.025
67220.2	127.909
67608.3	127.794
67998.6	127.681
68391.2	127.569
68786	127.457
69183.1	127.347
69582.5	127.238
69984.2	127.131
70388.2	127.024
70794.6	126.919
71203.3	126.814
71614.3	126.711
72027.8	126.609
72443.6	126.508
72861.8	126.408
73282.5	126.31
73705.5	126.212
74131	126.115
74559	126.02
74989.4	125.926
75422.3	125.832
75857.8	125.74
76295.7	125.649
76736.1	125.559
77179.2	125.47
77624.7	125.382
78072.8	125.295
78523.6	125.209
78976.9	125.124
79432.8	125.04
79891.4	124.957
80352.6	124.875
80816.5	124.794
81283.1	124.715
81752.3	124.636
82224.3	124.558
82699	124.481
83176.4	124.405
83656.6	124.33
84139.5	124.256
84625.3	124.183
85113.8	124.111
85605.2	124.04
86099.4	123.97
86596.4	123.901
87096.4	123.833
87599.2	123.766
88104.9	123.7
88613.5	123.634
89125.1	123.57
89639.6	123.506
90157.1	123.444
90677.6	123.382
91201.1	123.321
91727.6	123.261
92257.1	123.202
92789.7	123.144
93325.4	123.087
93864.2	123.03
94406.1	122.975
94951.1	122.92
95499.3	122.866
96050.6	122.813
96605.1	122.761
97162.8	122.71
97723.7	122.66
98287.9	122.61
98855.3	122.561
99426	122.514
100000	122.467
100577	122.42
101158	122.375
101742	122.33
102329	122.287
102920	122.244
103514	122.201
104112	122.16
104713	122.119
105317	122.08
105925	122.04
106537	122.002
107152	121.965
107771	121.928
108393	121.892
109018	121.857
109648	121.822
110281	121.789
110917	121.756
111558	121.723
112202	121.692
112850	121.661
113501	121.631
114156	121.602
114815	121.573
115478	121.545
116145	121.518
116815	121.492
117490	121.466
118168	121.441
118850	121.417
119536	121.393
120226	121.37
120921	121.348
121619	121.326
122321	121.305
123027	121.285
123737	121.265
124451	121.246
125170	121.228
125893	121.21
126619	121.193
127350	121.177
128086	121.161
128825	121.146
129569	121.131
130317	121.118
131069	121.104
131826	121.092
132587	121.08
133352	121.068
134122	121.058
134896	121.047
135675	121.038
136458	121.029
137246	121.021
138038	121.013
138835	121.006
139637	120.999
140443	120.993
141254	120.988
142069	120.983
142889	120.978
143714	120.975
144544	120.972
145378	120.969
146218	120.967
147062	120.965
147911	120.964
148765	120.964
149624	120.964
150487	120.965
151356	120.966
152230	120.968
153109	120.97
153993	120.973
154882	120.976
155776	120.98
156675	120.984
157580	120.989
158489	120.994
159404	121
160325	121.006
161250	121.013
162181	121.02
163117	121.028
164059	121.036
165006	121.045
165959	121.054
166917	121.064
167880	121.074
168850	121.085
169824	121.096
170805	121.108
171791	121.12
172783	121.132
173780	121.145
174783	121.158
175792	121.172
176807	121.187
177828	121.201
178855	121.216
179887	121.232
180926	121.248
181970	121.264
183021	121.281
184077	121.299
185140	121.316
186209	121.334
187284	121.353
188365	121.372
189452	121.391
190546	121.411
191646	121.431
192752	121.452
193865	121.473
194984	121.494
196110	121.516
197242	121.538
198381	121.56
199526	121.583
200678	121.606
201837	121.63
203002	121.654
204174	121.678
205353	121.703
206538	121.728
207730	121.754
208930	121.779
210136	121.806
211349	121.832
212569	121.859
213796	121.886
215030	121.914
216272	121.942
217520	121.97
218776	121.999
220039	122.028
221309	122.057
222587	122.086
223872	122.116
225165	122.147
226464	122.177
227772	122.208
229087	122.239
230409	122.271
231739	122.302
233077	122.335
234423	122.367
235776	122.4
237137	122.433
238506	122.466
239883	122.5
241268	122.534
242661	122.568
244062	122.602
245471	122.637
246888	122.672
248313	122.708
249747	122.743
251189	122.779
252639	122.816
254097	122.852
255564	122.889
257040	122.926
258523	122.963
260016	123.001
261517	123.038
263027	123.077
264545	123.115
266073	123.153
267609	123.192
269153	123.231
270707	123.271
272270	123.31
273842	123.35
275423	123.39
277013	123.431
278612	123.471
280221	123.512
281838	123.553
283465	123.594
285102	123.636
286748	123.678
288403	123.72
290068	123.762
291743	123.804
293427	123.847
295121	123.89
296825	123.933
298538	123.976
300262	124.02
301995	124.063
303739	124.107
305492	124.151
307256	124.196
309030	124.24
310814	124.285
312608	124.33
314413	124.375
316228	124.42
318053	124.466
319890	124.512
321736	124.558
323594	124.604
325462	124.65
327341	124.697
329230	124.743
331131	124.79
333043	124.837
334965	124.884
336899	124.932
338844	124.979
340800	125.027
342768	125.075
344747	125.123
346737	125.171
348739	125.22
350752	125.268
352777	125.317
354813	125.366
356862	125.415
358922	125.464
360994	125.514
363078	125.563
365174	125.613
367282	125.663
369403	125.713
371535	125.763
373680	125.814
375837	125.864
378007	125.915
380189	125.966
382384	126.016
384592	126.067
386812	126.119
389045	126.17
391291	126.221
393550	126.273
395822	126.325
398107	126.377
400405	126.429
402717	126.481
405042	126.533
407380	126.586
409732	126.638
412098	126.691
414477	126.744
416869	126.796
419276	126.85
421697	126.903
424131	126.956
426580	127.009
429042	127.063
431519	127.116
434010	127.17
436516	127.224
439036	127.278
441570	127.332
444120	127.386
446684	127.441
449262	127.495
451856	127.549
454465	127.604
457088	127.659
459727	127.714
462381	127.768
465050	127.823
467735	127.879
470435	127.934
473151	127.989
475883	128.044
478630	128.1
481393	128.156
484172	128.211
486968	128.267
489779	128.323
492606	128.379
495450	128.435
498310	128.491
501187	128.547
504081	128.603
506991	128.66
509918	128.716
512861	128.773
515822	128.829
518800	128.886
521795	128.943
524807	129
527837	129.057
530884	129.114
533949	129.171
537032	129.228
540132	129.285
543250	129.343
546387	129.4
549541	129.457
552713	129.515
555904	129.573
559114	129.63
562341	129.688
565588	129.746
568853	129.804
572137	129.862
575440	129.92
578762	129.978
582103	130.036
585464	130.094
588844	130.152
592243	130.21
595662	130.269
599101	130.327
602560	130.386
606038	130.444
609537	130.503
613056	130.561
616595	130.62
620155	130.679
623735	130.737
627336	130.796
630957	130.855
634600	130.914
638263	130.973
641948	131.032
645654	131.091
649382	131.15
653131	131.21
656901	131.269
660693	131.328
664508	131.387
668344	131.447
672202	131.506
676083	131.566
679986	131.625
683912	131.685
687860	131.744
691831	131.804
695825	131.863
699842	131.923
703882	131.983
707946	132.043
712033	132.102
716143	132.162
720278	132.222
724436	132.282
728618	132.342
732825	132.402
737055	132.462
741310	132.522
745590	132.582
749894	132.642
754223	132.702
758578	132.762
762957	132.822
767361	132.883
771792	132.943
776247	133.003
780728	133.063
785236	133.124
789769	133.184
794328	133.244
798914	133.305
803526	133.365
808165	133.426
812831	133.486
817523	133.547
822243	133.607
826990	133.668
831764	133.728
836566	133.789
841395	133.849
846253	133.91
851138	133.97
856052	134.031
860994	134.092
865964	134.152
870964	134.213
875992	134.274
881049	134.335
886135	134.395
891251	134.456
896396	134.517
901571	134.578
906776	134.639
912011	134.699
917276	134.76
922571	134.821
927897	134.882
933254	134.943
938642	135.004
944061	135.065
949511	135.125
954993	135.186
960506	135.247
966051	135.308
971628	135.369
977237	135.43
982879	135.491
988553	135.552
994260	135.613
1e+06	135.674
1.00577e+06	135.735
1.01158e+06	135.796
1.01742e+06	135.857
1.02329e+06	135.918
1.0292e+06	135.979
1.03514e+06	136.04
1.04112e+06	136.101
1.04713e+06	136.162
1.05317e+06	136.223
1.05925e+06	136.284
1.06537e+06	136.345
1.07152e+06	136.406
1.07771e+06	136.467
1.08393e+06	136.528
1.09018e+06	136.589
1.09648e+06	136.65
1.10281e+06	136.712
1.10917e+06	136.773
1.11558e+06	136.834
1.12202e+06	136.895
1.1285e+06	136.956
1.13501e+06	137.017
1.14156e+06	137.078
1.14815e+06	137.139
1.15478e+06	137.2
1.16145e+06	137.261
1.16815e+06	137.322
1.1749e+06	137.383
1.18168e+06	137.444
1.1885e+06	137.505
1.19536e+06	137.566
1.20226e+06	137.627
1.20921e+06	137.689
1.21619e+06	137.75
1.22321e+06	137.811
1.23027e+06	137.872
1.23737e+06	137.933
1.24451e+06	137.994
1.2517e+06	138.055
1.25893e+06	138.116
1.26619e+06	138.177
1.2735e+06	138.238
1.28086e+06	138.299
1.28825e+06	138.36
1.29569e+06	138.421
1.30317e+06	138.482
1.31069e+06	138.543
1.31826e+06	138.604
1.32587e+06	138.665
1.33352e+06	138.726
1.34122e+06	138.787
1.34896e+06	138.848
1.35675e+06	138.908
1.36458e+06	138.969
1.37246e+06	139.03
1.38038e+06	139.091
1.38835e+06	139.152
1.39637e+06	139.213
1.40443e+06	139.274
1.41254e+06	139.335
1.42069e+06	139.396
1.42889e+06	139.457
1.43714e+06	139.517
1.44544e+06	139.578
1.45378e+06	139.639
1.46218e+06	139.7
1.47062e+06	139.761
1.47911e+06	139.821
1.48765e+06	139.882
1.49624e+06	139.943
1.50487e+06	140.004
1.51356e+06	140.065
1.5223e+06	140.125
1.53109e+06	140.186
1.53993e+06	140.247
1.54882e+06	140.307
1.55776e+06	140.368
1.56675e+06	140.429
1.5758e+06	140.49
1.58489e+06	140.55
1.59404e+06	140.611
1.60325e+06	140.671
1.6125e+06	140.732
1.62181e+06	140.793
1.63117e+06	140.853
1.64059e+06	140.914
1.65006e+06	140.974
1.65959e+06	141.035
1.66917e+06	141.095
1.6788e+06	141.156
1.6885e+06	141.217
1.69824e+06	141.277
1.70805e+06	141.337
1.71791e+06	141.398
1.72783e+06	141.458
1.7378e+06	141.519
1.74783e+06	141.579
1.75792e+06	141.64
1.76807e+06	141.7
1.77828e+06	141.76
1.78855e+06	141.821
1.79887e+06	141.881
1.80926e+06	141.941
1.8197e+06	142.002
1.83021e+06	142.062
1.84077e+06	142.122
1.8514e+06	142.183
1.86209e+06	142.243
1.87284e+06	142.303
1.88365e+06	142.363
1.89452e+06	142.423
1.90546e+06	142.484
1.91646e+06	142.544
1.92752e+06	142.604
1.93865e+06	142.664
1.94984e+06	142.724
1.9611e+06	142.784
1.97242e+06	142.844
1.98381e+06	142.904
1.99526e+06	142.964
2.00678e+06	143.024
2.01837e+06	143.084
2.03002e+06	143.144
2.04174e+06	143.204
2.05353e+06	143.264
2.06538e+06	143.324
2.0773e+06	143.384
2.0893e+06	143.444
2.10136e+06	143.504
2.11349e+06	143.564
2.12569e+06	143.624
2.13796e+06	143.683
2.1503e+06	143.743
2.16272e+06	143.803
2.1752e+06	143.863
2.18776e+06	143.922
2.20039e+06	143.982
2.21309e+06	144.042
2.22587e+06	144.102
2.23872e+06	144.161
2.25165e+06	144.221
2.26464e+06	144.281
2.27772e+06	144.34
2.29087e+06	144.4
2.30409e+06	144.459
2.31739e+06	144.519
2.33077e+06	144.578
2.34423e+06	144.638
2.35776e+06	144.697
2.37137e+06	144.757
2.38506e+06	144.816
2.39883e+06	144.876
2.41268e+06	144.935
2.42661e+06	144.994
2.44062e+06	145.054
2.45471e+06	145.113
2.46888e+06	145.172
2.48313e+06	145.232
2.49747e+06	145.291
2.51189e+06	145.35
2.52639e+06	145.409
2.54097e+06	145.469
2.55564e+06	145.528
2.5704e+06	145.587
2.58523e+06	145.646
2.60016e+06	145.705
2.61517e+06	145.764
2.63027e+06	145.823
2.64545e+06	145.882
2.66073e+06	145.942
2.67609e+06	146.001
2.69153e+06	146.06
2.70707e+06	146.118
2.7227e+06	146.177
2.73842e+06	146.236
2.75423e+06	146.295
2.77013e+06	146.354
2.78612e+06	146.413
2.80221e+06	146.472
2.81838e+06	146.531
2.83465e+06	146.589
2.85102e+06	146.648
2.86748e+06	146.707
2.88403e+06	146.766
2.90068e+06	146.824
2.91743e+06	146.883
2.93427e+06	146.942
2.95121e+06	147
2.96825e+06	147.059
2.98538e+06	147.118
3.00262e+06	147.176
3.01995e+06	147.235
3.03739e+06	147.293
3.05492e+06	147.352
3.07256e+06	147.41
3.0903e+06	147.469
3.10814e+06	147.527
3.12608e+06	147.585
3.14413e+06	147.644
3.16228e+06	147.702
3.18053e+06	147.761
3.1989e+06	147.819
3.21736e+06	147.877
3.23594e+06	147.935
3.25462e+06	147.994
3.27341e+06	148.052
3.2923e+06	148.11
3.31131e+06	148.168
3.33043e+06	148.226
3.34965e+06	148.285
3.36899e+06	148.343
3.38844e+06	148.401
3.408e+06	148.459
3.42768e+06	148.517
3.44747e+06	148.575
3.46737e+06	148.633
3.48739e+06	148.691
3.50752e+06	148.749
3.52777e+06	148.807
3.54813e+06	148.865
3.56862e+06	148.922
3.58922e+06	148.98
3.60994e+06	149.038
3.63078e+06	149.096
3.65174e+06	149.154
3.67282e+06	149.211
3.69403e+06	149.269
3.71535e+06	149.327
3.7368e+06	149.384
3.75837e+06	149.442
3.78007e+06	149.5
3.80189e+06	149.557
3.82384e+06	149.615
3.84592e+06	149.672
3.86812e+06	149.73
3.89045e+06	149.787
3.91291e+06	149.845
3.9355e+06	149.902
3.95822e+06	149.96
3.98107e+06	150.017
4.00405e+06	150.075
4.02717e+06	150.132
4.05042e+06	150.189
4.0738e+06	150.247
4.09732e+06	150.304
4.12098e+06	150.361
4.14477e+06	150.418
4.16869e+06	150.476
4.19276e+06	150.533
4.21697e+06	150.59
4.24131e+06	150.647
4.2658e+06	150.704
4.29042e+06	150.761
4.31519e+06	150.818
4.3401e+06	150.875
4.36516e+06	150.932
4.39036e+06	150.989
4.4157e+06	151.046
4.4412e+06	151.103
4.46684e+06	151.16
4.49262e+06	151.217
4.51856e+06	151.274
4.54465e+06	151.331
4.57088e+06	151.388
4.59727e+06	151.444
4.62381e+06	151.501
4.6505e+06	151.558
4.67735e+06	151.615
4.70435e+06	151.671
4.73151e+06	151.728
4.75883e+06	151.785
4.7863e+06	151.841
4.81393e+06	151.898
4.84172e+06	151.954
4.86968e+06	152.011
4.89779e+06	152.067
4.92606e+06	152.124
4.9545e+06	152.18
4.9831e+06	152.237
5.01187e+06	152.293
5.04081e+06	152.35
5.06991e+06	152.406
5.09918e+06	152.462
5.12861e+06	152.519
5.15822e+06	152.575
5.188e+06	152.631
5.21795e+06	152.687
5.24807e+06	152.744
5.27837e+06	152.8
5.30884e+06	152.856
5.33949e+06	152.912
5.37032e+06	152.968
5.40132e+06	153.024
5.4325e+06	153.08
5.46387e+06	153.136
5.49541e+06	153.192
5.52713e+06	153.248
5.55904e+06	153.304
5.59114e+06	153.36
5.62341e+06	153.416
5.65588e+06	153.472
5.68853e+06	153.528
5.72137e+06	153.584
5.7544e+06	153.639
5.78762e+06	153.695
5.82103e+06	153.751
5.85464e+06	153.807
5.88844e+06	153.862
5.92243e+06	153.918
5.95662e+06	153.974
5.99101e+06	154.029
6.0256e+06	154.085
6.06038e+06	154.14
6.09537e+06	154.196
6.13056e+06	154.251
6.16595e+06	154.307
6.20155e+06	154.362
6.23735e+06	154.418
6.27336e+06	154.473
6.30957e+06	154.529
6.346e+06	154.584
6.38263e+06	154.639
6.41948e+06	154.695
6.45654e+06	154.75
6.49382e+06	154.805
6.53131e+06	154.86
6.56901e+06	154.916
6.60693e+06	154.971
6.64508e+06	155.026
6.68344e+06	155.081
6.72202e+06	155.136
6.76083e+06	155.191
6.79986e+06	155.246
6.83912e+06	155.301
6.8786e+06	155.356
6.91831e+06	155.411
6.95825e+06	155.466
6.99842e+06	155.521
7.03882e+06	155.576
7.07946e+06	155.631
7.12033e+06	155.686
7.16143e+06	155.74
7.20278e+06	155.795
7.24436e+06	155.85
7.28618e+06	155.905
7.32825e+06	155.959
7.37055e+06	156.014
7.4131e+06	156.069
7.4559e+06	156.123
7.49894e+06	156.178
7.54223e+06	156.232
7.58578e+06	156.287
7.62957e+06	156.341
7.67361e+06	156.396
7.71792e+06	156.45
7.76247e+06	156.505
7.80728e+06	156.559
7.85236e+06	156.614
7.89769e+06	156.668
7.94328e+06	156.722
7.98914e+06	156.777
8.03526e+06	156.831
8.08165e+06	156.885
8.12831e+06	156.939
8.17523e+06	156.993
8.22243e+06	157.048
8.2699e+06	157.102
8.31764e+06	157.156
8.36566e+06	157.21
8.41395e+06	157.264
8.46253e+06	157.318
8.51138e+06	157.372
8.56052e+06	157.426
8.60994e+06	157.48
8.65964e+06	157.534
8.70964e+06	157.588
8.75992e+06	157.642
8.81049e+06	157.695
8.86135e+06	157.749
8.91251e+06	157.803
8.96396e+06	157.857
9.01571e+06	157.91
9.06776e+06	157.964
9.12011e+06	158.018
9.17276e+06	158.072
9.22571e+06	158.125
9.27897e+06	158.179
9.33254e+06	158.232
9.38642e+06	158.286
9.44061e+06	158.339
9.49511e+06	158.393
9.54993e+06	158.446
9.60506e+06	158.5
9.66051e+06	158.553
9.71628e+06	158.606
9.77237e+06	158.66
9.82879e+06	158.713
9.88553e+06	158.766
9.9426e+06	158.82
1e+07	158.873
