Stopping power dEdx from Ionisation for deuteron Z = 1 in G4_Si, process name: hIoni
E [MeV]	dEdx [MeV/mm]
0.001	17.3037
0.00100577	17.3535
0.00101158	17.4036
0.00101742	17.4537
0.00102329	17.504
0.0010292	17.5545
0.00103514	17.6051
0.00104112	17.6558
0.00104713	17.7067
0.00105317	17.7578
0.00105925	17.8089
0.00106537	17.8603
0.00107152	17.9117
0.00107771	17.9634
0.00108393	18.0152
0.00109018	18.0671
0.00109648	18.1192
0.00110281	18.1714
0.00110917	18.2238
0.00111558	18.2763
0.00112202	18.329
0.0011285	18.3818
0.00113501	18.4348
0.00114156	18.4879
0.00114815	18.5412
0.00115478	18.5946
0.00116145	18.6482
0.00116815	18.702
0.0011749	18.7559
0.00118168	18.81
0.0011885	18.8642
0.00119536	18.9186
0.00120226	18.9731
0.00120921	19.0278
0.00121619	19.0826
0.00122321	19.1376
0.00123027	19.1928
0.00123737	19.2481
0.00124451	19.3036
0.0012517	19.3592
0.00125893	19.415
0.00126619	19.471
0.0012735	19.5271
0.00128086	19.5834
0.00128825	19.6398
0.00129569	19.6965
0.00130317	19.7532
0.00131069	19.8102
0.00131826	19.8673
0.00132587	19.9245
0.00133352	19.982
0.00134122	20.0396
0.00134896	20.0973
0.00135675	20.1552
0.00136458	20.2133
0.00137246	20.2716
0.00138038	20.33
0.00138835	20.3886
0.00139637	20.4474
0.00140443	20.5063
0.00141254	20.5654
0.00142069	20.6247
0.00142889	20.6842
0.00143714	20.7438
0.00144544	20.8036
0.00145378	20.8635
0.00146218	20.9237
0.00147062	20.984
0.00147911	21.0445
0.00148765	21.1051
0.00149624	21.166
0.00150487	21.227
0.00151356	21.2882
0.0015223	21.3495
0.00153109	21.4111
0.00153993	21.4728
0.00154882	21.5347
0.00155776	21.5967
0.00156675	21.659
0.0015758	21.7214
0.00158489	21.784
0.00159404	21.8468
0.00160325	21.9098
0.0016125	21.9729
0.00162181	22.0363
0.00163117	22.0998
0.00164059	22.1635
0.00165006	22.2274
0.00165959	22.2914
0.00166917	22.3557
0.0016788	22.4201
0.0016885	22.4847
0.00169824	22.5496
0.00170805	22.6146
0.00171791	22.6797
0.00172783	22.7451
0.0017378	22.8107
0.00174783	22.8764
0.00175792	22.9424
0.00176807	23.0085
0.00177828	23.0748
0.00178855	23.1413
0.00179887	23.208
0.00180926	23.2749
0.0018197	23.342
0.00183021	23.4093
0.00184077	23.4768
0.0018514	23.5444
0.00186209	23.6123
0.00187284	23.6803
0.00188365	23.7486
0.00189452	23.8171
0.00190546	23.8857
0.00191646	23.9545
0.00192752	24.0236
0.00193865	24.0928
0.00194984	24.1623
0.0019611	24.2319
0.00197242	24.3018
0.00198381	24.3718
0.00199526	24.4421
0.00200678	24.5063
0.00201837	24.5678
0.00203002	24.6298
0.00204174	24.6923
0.00205353	24.7551
0.00206538	24.8185
0.0020773	24.8822
0.0020893	24.9464
0.00210136	25.0111
0.00211349	25.0762
0.00212569	25.1417
0.00213796	25.2077
0.0021503	25.2742
0.00216272	25.3411
0.0021752	25.4085
0.00218776	25.4764
0.00220039	25.5447
0.00221309	25.6135
0.00222587	25.6828
0.00223872	25.7525
0.00225165	25.8227
0.00226464	25.8934
0.00227772	25.9646
0.00229087	26.0362
0.00230409	26.1084
0.00231739	26.181
0.00233077	26.2541
0.00234423	26.3278
0.00235776	26.4019
0.00237137	26.4765
0.00238506	26.5516
0.00239883	26.6272
0.00241268	26.7033
0.00242661	26.7799
0.00244062	26.8571
0.00245471	26.9347
0.00246888	27.0129
0.00248313	27.0915
0.00249747	27.1707
0.00251189	27.2504
0.00252639	27.3306
0.00254097	27.4114
0.00255564	27.4926
0.0025704	27.5744
0.00258523	27.6567
0.00260016	27.7396
0.00261517	27.8229
0.00263027	27.9068
0.00264545	27.9913
0.00266073	28.0763
0.00267609	28.1618
0.00269153	28.2478
0.00270707	28.3344
0.0027227	28.4216
0.00273842	28.5092
0.00275423	28.5975
0.00277013	28.6862
0.00278612	28.7755
0.00280221	28.8654
0.00281838	28.9558
0.00283465	29.0468
0.00285102	29.1383
0.00286748	29.2303
0.00288403	29.323
0.00290068	29.4161
0.00291743	29.5099
0.00293427	29.6041
0.00295121	29.699
0.00296825	29.7943
0.00298538	29.8903
0.00300262	29.9832
0.00301995	30.0654
0.00303739	30.1479
0.00305492	30.231
0.00307256	30.3145
0.0030903	30.3985
0.00310814	30.4829
0.00312608	30.5678
0.00314413	30.6532
0.00316228	30.7391
0.00318053	30.8254
0.0031989	30.9121
0.00321736	30.9994
0.00323594	31.0871
0.00325462	31.1752
0.00327341	31.2638
0.0032923	31.3529
0.00331131	31.4424
0.00333043	31.5324
0.00334965	31.6228
0.00336899	31.7136
0.00338844	31.8049
0.003408	31.8967
0.00342768	31.9889
0.00344747	32.0815
0.00346737	32.1745
0.00348739	32.268
0.00350752	32.3619
0.00352777	32.4562
0.00354813	32.5509
0.00356862	32.646
0.00358922	32.7416
0.00360994	32.8375
0.00363078	32.9339
0.00365174	33.0306
0.00367282	33.1278
0.00369403	33.2253
0.00371535	33.3232
0.0037368	33.4215
0.00375837	33.5201
0.00378007	33.6191
0.00380189	33.7184
0.00382384	33.8181
0.00384592	33.9182
0.00386812	34.0185
0.00389045	34.1192
0.00391291	34.2202
0.0039355	34.3216
0.00395822	34.4232
0.00398107	34.5251
0.00400405	34.6267
0.00402717	34.7267
0.00405042	34.8269
0.0040738	34.9275
0.00409732	35.0282
0.00412098	35.1293
0.00414477	35.2306
0.00416869	35.3322
0.00419276	35.4341
0.00421697	35.5362
0.00424131	35.6386
0.0042658	35.7413
0.00429042	35.8443
0.00431519	35.9475
0.0043401	36.051
0.00436516	36.1548
0.00439036	36.2588
0.0044157	36.3632
0.0044412	36.4678
0.00446684	36.5727
0.00449262	36.6779
0.00451856	36.7834
0.00454465	36.8891
0.00457088	36.9952
0.00459727	37.1015
0.00462381	37.2082
0.0046505	37.3151
0.00467735	37.4224
0.00470435	37.5299
0.00473151	37.6377
0.00475883	37.7459
0.0047863	37.8543
0.00481393	37.9631
0.00484172	38.0722
0.00486968	38.1815
0.00489779	38.2913
0.00492606	38.4013
0.0049545	38.5116
0.0049831	38.6223
0.00501187	38.7332
0.00504081	38.8444
0.00506991	38.9558
0.00509918	39.0676
0.00512861	39.1798
0.00515822	39.2923
0.005188	39.4051
0.00521795	39.5182
0.00524807	39.6317
0.00527837	39.7455
0.00530884	39.8597
0.00533949	39.9742
0.00537032	40.0891
0.00540132	40.2043
0.0054325	40.3198
0.00546387	40.4357
0.00549541	40.5519
0.00552713	40.6685
0.00555904	40.7854
0.00559114	40.9027
0.00562341	41.0204
0.00565588	41.1383
0.00568853	41.2567
0.00572137	41.3754
0.0057544	41.4945
0.00578762	41.6139
0.00582103	41.7337
0.00585464	41.8538
0.00588844	41.9744
0.00592243	42.0953
0.00595662	42.2165
0.00599101	42.3382
0.0060256	42.4602
0.00606038	42.5827
0.00609537	42.7055
0.00613056	42.8287
0.00616595	42.9522
0.00620155	43.0762
0.00623735	43.2005
0.00627336	43.3252
0.00630957	43.4503
0.006346	43.5757
0.00638263	43.7016
0.00641948	43.8278
0.00645654	43.9544
0.00649382	44.0814
0.00653131	44.2087
0.00656901	44.3365
0.00660693	44.4646
0.00664508	44.5931
0.00668344	44.7219
0.00672202	44.8512
0.00676083	44.9808
0.00679986	45.1108
0.00683912	45.2412
0.0068786	45.372
0.00691831	45.5032
0.00695825	45.6347
0.00699842	45.7667
0.00703882	45.899
0.00707946	46.0317
0.00712033	46.1648
0.00716143	46.2982
0.00720278	46.4321
0.00724436	46.5663
0.00728618	46.701
0.00732825	46.836
0.00737055	46.9714
0.0074131	47.1072
0.0074559	47.2434
0.00749894	47.38
0.00754223	47.517
0.00758578	47.6544
0.00762957	47.7922
0.00767361	47.9304
0.00771792	48.0689
0.00776247	48.2079
0.00780728	48.3473
0.00785236	48.4871
0.00789769	48.6273
0.00794328	48.7678
0.00798914	48.9088
0.00803526	49.05
0.00808165	49.1916
0.00812831	49.3336
0.00817523	49.476
0.00822243	49.6188
0.0082699	49.762
0.00831764	49.9056
0.00836566	50.0496
0.00841395	50.1941
0.00846253	50.3389
0.00851138	50.4842
0.00856052	50.6299
0.00860994	50.7759
0.00865964	50.9224
0.00870964	51.0694
0.00875992	51.2167
0.00881049	51.3644
0.00886135	51.5126
0.00891251	51.6612
0.00896396	51.8102
0.00901571	51.9596
0.00906776	52.1094
0.00912011	52.2597
0.00917276	52.4103
0.00922571	52.5614
0.00927897	52.713
0.00933254	52.8649
0.00938642	53.0173
0.00944061	53.1701
0.00949511	53.3233
0.00954993	53.477
0.00960506	53.6311
0.00966051	53.7856
0.00971628	53.9406
0.00977237	54.096
0.00982879	54.2518
0.00988553	54.4081
0.0099426	54.5648
0.01	54.722
0.0100577	54.8797
0.0101158	55.0378
0.0101742	55.1964
0.0102329	55.3555
0.010292	55.515
0.0103514	55.675
0.0104112	55.8354
0.0104713	55.9963
0.0105317	56.1576
0.0105925	56.3194
0.0106537	56.4816
0.0107152	56.6443
0.0107771	56.8075
0.0108393	56.9712
0.0109018	57.1353
0.0109648	57.2999
0.0110281	57.4649
0.0110917	57.6304
0.0111558	57.7964
0.0112202	57.9629
0.011285	58.1299
0.0113501	58.2973
0.0114156	58.4653
0.0114815	58.6337
0.0115478	58.8026
0.0116145	58.972
0.0116815	59.1419
0.011749	59.3123
0.0118168	59.4832
0.011885	59.6546
0.0119536	59.8266
0.0120226	59.999
0.0120921	60.172
0.0121619	60.3455
0.0122321	60.5194
0.0123027	60.694
0.0123737	60.869
0.0124451	61.0445
0.012517	61.2205
0.0125893	61.3971
0.0126619	61.5741
0.012735	61.7517
0.0128086	61.9297
0.0128825	62.1083
0.0129569	62.2874
0.0130317	62.4669
0.0131069	62.647
0.0131826	62.8275
0.0132587	63.0085
0.0133352	63.19
0.0134122	63.3721
0.0134896	63.5546
0.0135675	63.7375
0.0136458	63.921
0.0137246	64.1049
0.0138038	64.2894
0.0138835	64.4743
0.0139637	64.6596
0.0140443	64.8455
0.0141254	65.0318
0.0142069	65.2186
0.0142889	65.4059
0.0143714	65.5936
0.0144544	65.7819
0.0145378	65.9707
0.0146218	66.16
0.0147062	66.3498
0.0147911	66.5401
0.0148765	66.731
0.0149624	66.9224
0.0150487	67.1143
0.0151356	67.3068
0.015223	67.4999
0.0153109	67.6936
0.0153993	67.8878
0.0154882	68.0827
0.0155776	68.2781
0.0156675	68.4742
0.015758	68.6709
0.0158489	68.8682
0.0159404	69.0662
0.0160325	69.2648
0.016125	69.4642
0.0162181	69.6642
0.0163117	69.8648
0.0164059	70.0662
0.0165006	70.2683
0.0165959	70.4711
0.0166917	70.6746
0.016788	70.8789
0.016885	71.0839
0.0169824	71.2896
0.0170805	71.4961
0.0171791	71.7033
0.0172783	71.9114
0.017378	72.1202
0.0174783	72.3298
0.0175792	72.5402
0.0176807	72.7514
0.0177828	72.9635
0.0178855	73.1764
0.0179887	73.3901
0.0180926	73.6047
0.018197	73.8201
0.0183021	74.0362
0.0184077	74.2528
0.018514	74.47
0.0186209	74.6875
0.0187284	74.9054
0.0188365	75.1234
0.0189452	75.3415
0.0190546	75.5595
0.0191646	75.7774
0.0192752	75.9949
0.0193865	76.2121
0.0194984	76.4287
0.019611	76.6446
0.0197242	76.8597
0.0198381	77.0739
0.0199526	77.2869
0.0200678	77.4987
0.0201837	77.7092
0.0203002	77.9185
0.0204174	78.1265
0.0205353	78.3332
0.0206538	78.5388
0.020773	78.7431
0.020893	78.9463
0.0210136	79.1484
0.0211349	79.3494
0.0212569	79.5494
0.0213796	79.7483
0.021503	79.9463
0.0216272	80.1433
0.021752	80.3395
0.0218776	80.5348
0.0220039	80.7293
0.0221309	80.923
0.0222587	81.1161
0.0223872	81.3085
0.0225165	81.5004
0.0226464	81.6917
0.0227772	81.8826
0.0229087	82.073
0.0230409	82.2632
0.0231739	82.453
0.0233077	82.6427
0.0234423	82.8323
0.0235776	83.0218
0.0237137	83.2113
0.0238506	83.401
0.0239883	83.5909
0.0241268	83.7812
0.0242661	83.9718
0.0244062	84.1629
0.0245471	84.3546
0.0246888	84.547
0.0248313	84.7402
0.0249747	84.9343
0.0251189	85.1282
0.0252639	85.323
0.0254097	85.5187
0.0255564	85.7155
0.025704	85.9131
0.0258523	86.1118
0.0260016	86.3113
0.0261517	86.5117
0.0263027	86.713
0.0264545	86.9151
0.0266073	87.118
0.0267609	87.3216
0.0269153	87.526
0.0270707	87.7312
0.027227	87.937
0.0273842	88.1434
0.0275423	88.3505
0.0277013	88.5581
0.0278612	88.7663
0.0280221	88.975
0.0281838	89.1842
0.0283465	89.3937
0.0285102	89.6037
0.0286748	89.814
0.0288403	90.0246
0.0290068	90.2354
0.0291743	90.4464
0.0293427	90.6576
0.0295121	90.8688
0.0296825	91.0802
0.0298538	91.2915
0.0300262	91.5027
0.0301995	91.7139
0.0303739	91.925
0.0305492	92.136
0.0307256	92.3469
0.030903	92.5577
0.0310814	92.7685
0.0312608	92.9791
0.0314413	93.1897
0.0316228	93.4002
0.0318053	93.6106
0.031989	93.821
0.0321736	94.0314
0.0323594	94.2417
0.0325462	94.4519
0.0327341	94.6622
0.032923	94.8724
0.0331131	95.0827
0.0333043	95.2929
0.0334965	95.5032
0.0336899	95.7135
0.0338844	95.9239
0.03408	96.1343
0.0342768	96.3448
0.0344747	96.5554
0.0346737	96.7661
0.0348739	96.977
0.0350752	97.188
0.0352777	97.3991
0.0354813	97.6104
0.0356862	97.8218
0.0358922	98.0334
0.0360994	98.245
0.0363078	98.4568
0.0365174	98.6686
0.0367282	98.8806
0.0369403	99.0926
0.0371535	99.3047
0.037368	99.5168
0.0375837	99.729
0.0378007	99.9412
0.0380189	100.153
0.0382384	100.366
0.0384592	100.578
0.0386812	100.79
0.0389045	101.002
0.0391291	101.215
0.039355	101.427
0.0395822	101.639
0.0398107	101.851
0.0400405	102.063
0.0402717	102.275
0.0405042	102.487
0.040738	102.698
0.0409732	102.91
0.0412098	103.121
0.0414477	103.333
0.0416869	103.544
0.0419276	103.755
0.0421697	103.966
0.0424131	104.177
0.042658	104.388
0.0429042	104.598
0.0431519	104.809
0.043401	105.019
0.0436516	105.229
0.0439036	105.439
0.044157	105.648
0.044412	105.858
0.0446684	106.067
0.0449262	106.276
0.0451856	106.485
0.0454465	106.694
0.0457088	106.902
0.0459727	107.111
0.0462381	107.319
0.046505	107.526
0.0467735	107.734
0.0470435	107.941
0.0473151	108.147
0.0475883	108.354
0.047863	108.56
0.0481393	108.766
0.0484172	108.971
0.0486968	109.176
0.0489779	109.38
0.0492606	109.584
0.049545	109.788
0.049831	109.991
0.0501187	110.193
0.0504081	110.395
0.0506991	110.597
0.0509918	110.798
0.0512861	110.999
0.0515822	111.199
0.05188	111.398
0.0521795	111.597
0.0524807	111.796
0.0527837	111.994
0.0530884	112.191
0.0533949	112.388
0.0537032	112.585
0.0540132	112.781
0.054325	112.977
0.0546387	113.172
0.0549541	113.366
0.0552713	113.56
0.0555904	113.754
0.0559114	113.947
0.0562341	114.14
0.0565588	114.332
0.0568853	114.523
0.0572137	114.714
0.057544	114.904
0.0578762	115.093
0.0582103	115.282
0.0585464	115.469
0.0588844	115.656
0.0592243	115.842
0.0595662	116.027
0.0599101	116.212
0.060256	116.395
0.0606038	116.577
0.0609537	116.759
0.0613056	116.939
0.0616595	117.119
0.0620155	117.297
0.0623735	117.474
0.0627336	117.651
0.0630957	117.826
0.06346	118
0.0638263	118.173
0.0641948	118.345
0.0645654	118.516
0.0649382	118.686
0.0653131	118.855
0.0656901	119.023
0.0660693	119.189
0.0664508	119.355
0.0668344	119.519
0.0672202	119.682
0.0676083	119.845
0.0679986	120.006
0.0683912	120.166
0.068786	120.325
0.0691831	120.482
0.0695825	120.639
0.0699842	120.794
0.0703882	120.948
0.0707946	121.101
0.0712033	121.252
0.0716143	121.402
0.0720278	121.552
0.0724436	121.699
0.0728618	121.846
0.0732825	121.991
0.0737055	122.135
0.074131	122.278
0.074559	122.42
0.0749894	122.56
0.0754223	122.699
0.0758578	122.836
0.0762957	122.972
0.0767361	123.107
0.0771792	123.24
0.0776247	123.372
0.0780728	123.502
0.0785236	123.63
0.0789769	123.758
0.0794328	123.883
0.0798914	124.007
0.0803526	124.13
0.0808165	124.251
0.0812831	124.371
0.0817523	124.489
0.0822243	124.605
0.082699	124.72
0.0831764	124.833
0.0836566	124.944
0.0841395	125.053
0.0846253	125.161
0.0851138	125.267
0.0856052	125.371
0.0860994	125.474
0.0865964	125.574
0.0870964	125.673
0.0875992	125.77
0.0881049	125.865
0.0886135	125.958
0.0891251	126.05
0.0896396	126.139
0.0901571	126.227
0.0906776	126.312
0.0912011	126.396
0.0917276	126.478
0.0922571	126.557
0.0927897	126.635
0.0933254	126.711
0.0938642	126.785
0.0944061	126.856
0.0949511	126.926
0.0954993	126.993
0.0960506	127.058
0.0966051	127.122
0.0971628	127.183
0.0977237	127.242
0.0982879	127.298
0.0988553	127.353
0.099426	127.405
0.1	127.455
0.100577	127.503
0.101158	127.549
0.101742	127.592
0.102329	127.633
0.10292	127.672
0.103514	127.709
0.104112	127.744
0.104713	127.776
0.105317	127.806
0.105925	127.834
0.106537	127.86
0.107152	127.884
0.107771	127.905
0.108393	127.925
0.109018	127.942
0.109648	127.957
0.110281	127.97
0.110917	127.981
0.111558	127.99
0.112202	127.997
0.11285	128.002
0.113501	128.005
0.114156	128.005
0.114815	128.004
0.115478	128
0.116145	127.994
0.116815	127.985
0.11749	127.974
0.118168	127.961
0.11885	127.946
0.119536	127.928
0.120226	127.908
0.120921	127.886
0.121619	127.861
0.122321	127.834
0.123027	127.804
0.123737	127.772
0.124451	127.738
0.12517	127.701
0.125893	127.662
0.126619	127.621
0.12735	127.577
0.128086	127.53
0.128825	127.482
0.129569	127.43
0.130317	127.377
0.131069	127.321
0.131826	127.263
0.132587	127.202
0.133352	127.139
0.134122	127.074
0.134896	127.006
0.135675	126.936
0.136458	126.863
0.137246	126.788
0.138038	126.711
0.138835	126.631
0.139637	126.55
0.140443	126.465
0.141254	126.379
0.142069	126.29
0.142889	126.198
0.143714	126.105
0.144544	126.009
0.145378	125.912
0.146218	125.812
0.147062	125.71
0.147911	125.606
0.148765	125.5
0.149624	125.392
0.150487	125.283
0.151356	125.171
0.15223	125.058
0.153109	124.942
0.153993	124.825
0.154882	124.705
0.155776	124.584
0.156675	124.46
0.15758	124.335
0.158489	124.207
0.159404	124.077
0.160325	123.944
0.16125	123.81
0.162181	123.673
0.163117	123.533
0.164059	123.392
0.165006	123.249
0.165959	123.103
0.166917	122.956
0.16788	122.807
0.16885	122.655
0.169824	122.502
0.170805	122.348
0.171791	122.191
0.172783	122.033
0.17378	121.874
0.174783	121.713
0.175792	121.55
0.176807	121.386
0.177828	121.22
0.178855	121.053
0.179887	120.884
0.180926	120.714
0.18197	120.543
0.183021	120.371
0.184077	120.196
0.18514	120.021
0.186209	119.844
0.187284	119.665
0.188365	119.484
0.189452	119.302
0.190546	119.118
0.191646	118.933
0.192752	118.745
0.193865	118.556
0.194984	118.365
0.19611	118.173
0.197242	117.98
0.198381	117.785
0.199526	117.589
0.200678	117.392
0.201837	117.194
0.203002	116.995
0.204174	116.795
0.205353	116.594
0.206538	116.391
0.20773	116.188
0.20893	115.984
0.210136	115.778
0.211349	115.572
0.212569	115.365
0.213796	115.156
0.21503	114.947
0.216272	114.737
0.21752	114.526
0.218776	114.314
0.220039	114.101
0.221309	113.887
0.222587	113.672
0.223872	113.456
0.225165	113.24
0.226464	113.023
0.227772	112.805
0.229087	112.586
0.230409	112.366
0.231739	112.146
0.233077	111.925
0.234423	111.704
0.235776	111.481
0.237137	111.258
0.238506	111.035
0.239883	110.811
0.241268	110.586
0.242661	110.361
0.244062	110.135
0.245471	109.909
0.246888	109.682
0.248313	109.455
0.249747	109.228
0.251189	109
0.252639	108.772
0.254097	108.544
0.255564	108.316
0.25704	108.087
0.258523	107.858
0.260016	107.629
0.261517	107.399
0.263027	107.169
0.264545	106.939
0.266073	106.709
0.267609	106.478
0.269153	106.247
0.270707	106.016
0.27227	105.785
0.273842	105.554
0.275423	105.322
0.277013	105.091
0.278612	104.859
0.280221	104.627
0.281838	104.395
0.283465	104.162
0.285102	103.93
0.286748	103.697
0.288403	103.465
0.290068	103.232
0.291743	102.999
0.293427	102.767
0.295121	102.534
0.296825	102.301
0.298538	102.068
0.300262	101.835
0.301995	101.602
0.303739	101.369
0.305492	101.136
0.307256	100.903
0.30903	100.67
0.310814	100.438
0.312608	100.205
0.314413	99.9721
0.316228	99.7396
0.318053	99.5072
0.31989	99.2749
0.321736	99.0428
0.323594	98.8109
0.325462	98.5791
0.327341	98.3476
0.32923	98.1162
0.331131	97.885
0.333043	97.6541
0.334965	97.4234
0.336899	97.193
0.338844	96.9628
0.3408	96.733
0.342768	96.5034
0.344747	96.2741
0.346737	96.0452
0.348739	95.8166
0.350752	95.5884
0.352777	95.3605
0.354813	95.1329
0.356862	94.9058
0.358922	94.679
0.360994	94.4525
0.363078	94.2265
0.365174	94.0008
0.367282	93.7755
0.369403	93.5506
0.371535	93.326
0.37368	93.1018
0.375837	92.878
0.378007	92.6545
0.380189	92.4315
0.382384	92.2087
0.384592	91.9864
0.386812	91.7644
0.389045	91.5427
0.391291	91.3214
0.39355	91.1004
0.395822	90.8798
0.398107	90.6595
0.400405	90.4396
0.402717	90.2199
0.405042	90.0006
0.40738	89.7816
0.409732	89.5629
0.412098	89.3446
0.414477	89.1266
0.416869	88.9089
0.419276	88.6916
0.421697	88.4747
0.424131	88.2581
0.42658	88.0419
0.429042	87.826
0.431519	87.6105
0.43401	87.3954
0.436516	87.1807
0.439036	86.9663
0.44157	86.7523
0.44412	86.5386
0.446684	86.3254
0.449262	86.1125
0.451856	85.9
0.454465	85.6878
0.457088	85.4761
0.459727	85.2647
0.462381	85.0538
0.46505	84.8433
0.467735	84.6332
0.470435	84.4235
0.473151	84.2142
0.475883	84.0054
0.47863	83.7971
0.481393	83.5892
0.484172	83.3817
0.486968	83.1748
0.489779	82.9683
0.492606	82.7623
0.49545	82.5567
0.49831	82.3517
0.501187	82.1472
0.504081	81.9431
0.506991	81.7395
0.509918	81.5364
0.512861	81.3338
0.515822	81.1315
0.5188	80.9297
0.521795	80.7283
0.524807	80.5272
0.527837	80.3264
0.530884	80.126
0.533949	79.9259
0.537032	79.7261
0.540132	79.5265
0.54325	79.3271
0.546387	79.1279
0.549541	78.9288
0.552713	78.7299
0.555904	78.5311
0.559114	78.3325
0.562341	78.134
0.565588	77.9358
0.568853	77.7377
0.572137	77.5399
0.57544	77.3424
0.578762	77.1451
0.582103	76.9482
0.585464	76.7515
0.588844	76.5552
0.592243	76.3593
0.595662	76.1638
0.599101	75.9687
0.60256	75.7739
0.606038	75.5796
0.609537	75.3857
0.613056	75.1922
0.616595	74.9992
0.620155	74.8066
0.623735	74.6144
0.627336	74.4227
0.630957	74.2314
0.6346	74.0404
0.638263	73.8499
0.641948	73.6597
0.645654	73.47
0.649382	73.2806
0.653131	73.0916
0.656901	72.9029
0.660693	72.7145
0.664508	72.5265
0.668344	72.3388
0.672202	72.1514
0.676083	71.9643
0.679986	71.7774
0.683912	71.5908
0.68786	71.4045
0.691831	71.2183
0.695825	71.0323
0.699842	70.8466
0.703882	70.6615
0.707946	70.4765
0.712033	70.2917
0.716143	70.1071
0.720278	69.9227
0.724436	69.7385
0.728618	69.5545
0.732825	69.3707
0.737055	69.1871
0.74131	69.0037
0.74559	68.8205
0.749894	68.6375
0.754223	68.4548
0.758578	68.2724
0.762957	68.0901
0.767361	67.9081
0.771792	67.7264
0.776247	67.5449
0.780728	67.3637
0.785236	67.1828
0.789769	67.0021
0.794328	66.8218
0.798914	66.6417
0.803526	66.4617
0.808165	66.282
0.812831	66.1026
0.817523	65.9235
0.822243	65.7446
0.82699	65.566
0.831764	65.3877
0.836566	65.2096
0.841395	65.0317
0.846253	64.854
0.851138	64.6766
0.856052	64.4993
0.860994	64.3223
0.865964	64.1454
0.870964	63.9688
0.875992	63.7922
0.881049	63.6158
0.886135	63.4396
0.891251	63.2634
0.896396	63.0874
0.901571	62.9114
0.906776	62.7355
0.912011	62.5598
0.917276	62.3841
0.922571	62.2087
0.927897	62.0335
0.933254	61.8586
0.938642	61.684
0.944061	61.5097
0.949511	61.3359
0.954993	61.1625
0.960506	60.9895
0.966051	60.8171
0.971628	60.6453
0.977237	60.4741
0.982879	60.3036
0.988553	60.1338
0.99426	59.9648
1	59.7966
1.00577	59.6293
1.01158	59.4629
1.01742	59.2973
1.02329	59.1325
1.0292	58.9685
1.03514	58.8053
1.04112	58.6427
1.04713	58.4808
1.05317	58.3196
1.05925	58.159
1.06537	57.999
1.07152	57.8395
1.07771	57.6804
1.08393	57.5218
1.09018	57.3637
1.09648	57.2058
1.10281	57.0483
1.10917	56.891
1.11558	56.734
1.12202	56.5773
1.1285	56.4208
1.13501	56.2646
1.14156	56.1086
1.14815	55.9528
1.15478	55.7973
1.16145	55.642
1.16815	55.487
1.1749	55.3321
1.18168	55.1774
1.1885	55.023
1.19536	54.8687
1.20226	54.7146
1.20921	54.5606
1.21619	54.4067
1.22321	54.2529
1.23027	54.0992
1.23737	53.9455
1.24451	53.7917
1.2517	53.6379
1.25893	53.4839
1.26619	53.3299
1.2735	53.1756
1.28086	53.021
1.28825	52.8662
1.29569	52.711
1.30317	52.5555
1.31069	52.3995
1.31826	52.2432
1.32587	52.0865
1.33352	51.9295
1.34122	51.7722
1.34896	51.6146
1.35675	51.4568
1.36458	51.2988
1.37246	51.1406
1.38038	50.9823
1.38835	50.8239
1.39637	50.6654
1.40443	50.507
1.41254	50.3485
1.42069	50.1899
1.42889	50.0312
1.43714	49.8724
1.44544	49.7134
1.45378	49.5542
1.46218	49.3948
1.47062	49.235
1.47911	49.0749
1.48765	48.9144
1.49624	48.7535
1.50487	48.5921
1.51356	48.4301
1.5223	48.2677
1.53109	48.1047
1.53993	47.9413
1.54882	47.7773
1.55776	47.6129
1.56675	47.4479
1.5758	47.2825
1.58489	47.1165
1.59404	46.95
1.60325	46.7831
1.6125	46.6157
1.62181	46.4481
1.63117	46.2805
1.64059	46.113
1.65006	45.946
1.65959	45.7794
1.66917	45.6138
1.6788	45.4491
1.6885	45.2857
1.69824	45.1238
1.70805	44.9637
1.71791	44.8051
1.72783	44.6481
1.7378	44.4923
1.74783	44.3377
1.75792	44.184
1.76807	44.031
1.77828	43.8786
1.78855	43.7265
1.79887	43.5745
1.80926	43.4224
1.8197	43.2703
1.83021	43.1182
1.84077	42.9662
1.8514	42.8145
1.86209	42.6631
1.87284	42.5121
1.88365	42.3616
1.89452	42.2117
1.90546	42.0626
1.91646	41.9142
1.92752	41.7665
1.93865	41.6194
1.94984	41.473
1.9611	41.3271
1.97242	41.1816
1.98381	41.0366
1.99526	40.892
2.00678	40.7475
2.01837	40.6033
2.03002	40.4593
2.04174	40.3157
2.05353	40.1723
2.06538	40.0293
2.0773	39.8865
2.0893	39.744
2.10136	39.6019
2.11349	39.4601
2.12569	39.3185
2.13796	39.1773
2.1503	39.0365
2.16272	38.8959
2.1752	38.7557
2.18776	38.6159
2.20039	38.4764
2.21309	38.3372
2.22587	38.1983
2.23872	38.0599
2.25165	37.9217
2.26464	37.784
2.27772	37.6466
2.29087	37.5095
2.30409	37.3728
2.31739	37.2365
2.33077	37.1005
2.34423	36.965
2.35776	36.8297
2.37137	36.6949
2.38506	36.5604
2.39883	36.4263
2.41268	36.2925
2.42661	36.1591
2.44062	36.0261
2.45471	35.8935
2.46888	35.7612
2.48313	35.6293
2.49747	35.4977
2.51189	35.3676
2.52639	35.238
2.54097	35.1087
2.55564	34.9798
2.5704	34.8513
2.58523	34.7231
2.60016	34.5954
2.61517	34.468
2.63027	34.3409
2.64545	34.2143
2.66073	34.088
2.67609	33.9621
2.69153	33.8366
2.70707	33.7115
2.7227	33.5867
2.73842	33.4623
2.75423	33.3383
2.77013	33.2146
2.78612	33.0913
2.80221	32.9684
2.81838	32.8458
2.83465	32.7236
2.85102	32.6018
2.86748	32.4803
2.88403	32.3591
2.90068	32.2382
2.91743	32.1177
2.93427	31.9976
2.95121	31.8777
2.96825	31.7582
2.98538	31.6389
3.00262	31.5199
3.01995	31.4008
3.03739	31.2821
3.05492	31.1637
3.07256	31.0456
3.0903	30.9277
3.10814	30.8102
3.12608	30.693
3.14413	30.5762
3.16228	30.4596
3.18053	30.3434
3.1989	30.2275
3.21736	30.112
3.23594	29.9968
3.25462	29.8819
3.27341	29.7674
3.2923	29.6533
3.31131	29.5395
3.33043	29.4261
3.34965	29.3131
3.36899	29.2004
3.38844	29.0881
3.408	28.9761
3.42768	28.8646
3.44747	28.7534
3.46737	28.6426
3.48739	28.5322
3.50752	28.4221
3.52777	28.3125
3.54813	28.2033
3.56862	28.0944
3.58922	27.986
3.60994	27.8779
3.63078	27.7702
3.65174	27.663
3.67282	27.5561
3.69403	27.4496
3.71535	27.3435
3.7368	27.2378
3.75837	27.1325
3.78007	27.0276
3.80189	26.9231
3.82384	26.819
3.84592	26.7152
3.86812	26.6119
3.89045	26.5089
3.91291	26.4063
3.9355	26.3041
3.95822	26.2022
3.98107	26.1007
4.00405	26.0261
4.02717	26.0261
4.05042	26.0261
4.0738	26.0261
4.09732	26.0261
4.12098	26.0261
4.14477	26.0261
4.16869	26.0261
4.19276	26.0261
4.21697	26.0261
4.24131	26.0261
4.2658	26.0261
4.29042	26.0261
4.31519	26.0261
4.3401	26.0261
4.36516	26.0261
4.39036	26.0261
4.4157	26.0261
4.4412	26.0261
4.46684	26.0261
4.49262	26.0261
4.51856	26.0261
4.54465	26.0261
4.57088	26.0261
4.59727	26.0261
4.62381	26.0261
4.6505	26.0261
4.67735	26.0261
4.70435	26.0261
4.73151	26.0261
4.75883	26.0261
4.7863	26.0261
4.81393	26.0261
4.84172	26.0261
4.86968	26.0261
4.89779	26.0261
4.92606	26.0261
4.9545	26.0261
4.9831	26.0261
5.01187	26.0261
5.04081	26.0261
5.06991	26.0261
5.09918	26.0261
5.12861	26.0261
5.15822	26.0261
5.188	26.0261
5.21795	26.0261
5.24807	26.0261
5.27837	26.0261
5.30884	26.0261
5.33949	26.0261
5.37032	26.0261
5.40132	26.0261
5.4325	26.0261
5.46387	26.0261
5.49541	26.0261
5.52713	26.0261
5.55904	26.0261
5.59114	26.0261
5.62341	26.0261
5.65588	26.0261
5.68853	26.0261
5.72137	26.0261
5.7544	26.0261
5.78762	26.0261
5.82103	26.0261
5.85464	26.0261
5.88844	26.0261
5.92243	26.0261
5.95662	26.0261
5.99101	26.0261
6.0256	26.0261
6.06038	26.0261
6.09537	26.0261
6.13056	26.0261
6.16595	26.0261
6.20155	26.0261
6.23735	26.0261
6.27336	26.0261
6.30957	26.0261
6.346	26.0261
6.38263	26.0261
6.41948	26.0261
6.45654	26.0261
6.49382	26.0261
6.53131	26.0261
6.56901	26.0261
6.60693	26.0261
6.64508	26.0261
6.68344	26.0261
6.72202	26.0261
6.76083	26.0261
6.79986	26.0261
6.83912	26.0261
6.8786	26.0261
6.91831	26.0261
6.95825	26.0261
6.99842	26.0261
7.03882	26.0261
7.07946	26.0261
7.12033	26.0261
7.16143	26.0261
7.20278	26.0261
7.24436	26.0261
7.28618	26.0261
7.32825	26.0261
7.37055	26.0261
7.4131	26.0261
7.4559	26.0261
7.49894	26.0261
7.54223	26.0261
7.58578	26.0261
7.62957	26.0261
7.67361	26.0261
7.71792	26.0261
7.76247	26.0261
7.80728	26.0261
7.85236	26.0261
7.89769	26.0261
7.94328	26.0261
7.98914	26.0261
8.03526	25.8698
8.08165	25.7041
8.12831	25.5396
8.17523	25.3763
8.22243	25.2142
8.2699	25.0532
8.31764	24.9401
8.36566	24.7807
8.41395	24.6224
8.46253	24.4653
8.51138	24.3093
8.56052	24.1545
8.60994	24.0008
8.65964	23.8482
8.70964	23.6967
8.75992	23.5462
8.81049	23.3969
8.86135	23.2487
8.91251	23.1015
8.96396	22.9554
9.01571	22.8104
9.06776	22.6664
9.12011	22.5235
9.17276	22.3816
9.22571	22.2407
9.27897	22.1008
9.33254	21.962
9.38642	21.8241
9.44061	21.6873
9.49511	21.5464
9.54993	21.4118
9.60506	21.2782
9.66051	21.1456
9.71628	21.0139
9.77237	20.9584
9.82879	20.8275
9.88553	20.6975
9.9426	20.5684
10	20.4403
10.0577	20.313
10.1158	20.1867
10.1742	20.0613
10.2329	19.9369
10.292	19.8133
10.3514	19.6905
10.4112	19.5687
10.4713	19.4477
10.5317	19.3276
10.5925	19.2084
10.6537	19.09
10.7152	18.9725
10.7771	18.8558
10.8393	18.7399
10.9018	18.6248
10.9648	18.5106
11.0281	18.3972
11.0917	18.2846
11.1558	18.1728
11.2202	18.0618
11.285	17.9515
11.3501	17.844
11.4156	17.7354
11.4815	17.6276
11.5478	17.5206
11.6145	17.4143
11.6815	17.3088
11.749	17.204
11.8168	17.1
11.885	16.9967
11.9536	16.8941
12.0226	16.7922
12.0921	16.691
12.1619	16.5906
12.2321	16.4908
12.3027	16.3918
12.3737	16.2934
12.4451	16.1958
12.517	16.0988
12.5893	16.0025
12.6619	15.9068
12.735	15.8118
12.8086	15.7175
12.8825	15.6238
12.9569	15.5308
13.0317	15.4384
13.1069	15.3467
13.1826	15.2556
13.2587	15.1651
13.3352	15.0787
13.4122	14.9895
13.4896	14.9008
13.5675	14.8128
13.6458	14.7254
13.7246	14.6385
13.8038	14.5523
13.8835	14.4667
13.9637	14.3816
14.0443	14.2972
14.1254	14.2133
14.2069	14.1299
14.2889	14.0504
14.3714	13.9683
14.4544	13.8867
14.5378	13.8057
14.6218	13.7252
14.7062	13.6452
14.7911	13.5965
14.8765	13.517
14.9624	13.4379
15.0487	13.3594
15.1356	13.2815
15.223	13.204
15.3109	13.1271
15.3993	13.0507
15.4882	12.9748
15.5776	12.8994
15.6675	12.8245
15.758	12.7501
15.8489	12.6762
15.9404	12.6029
16.0325	12.53
16.125	12.4575
16.2181	12.3901
16.3117	12.3187
16.4059	12.2477
16.5006	12.1771
16.5959	12.1071
16.6917	12.0375
16.788	11.9683
16.885	11.8997
16.9824	11.8314
17.0805	11.7636
17.1791	11.6963
17.2783	11.6294
17.378	11.563
17.4783	11.497
17.5792	11.4314
17.6807	11.3662
17.7828	11.3015
17.8855	11.2372
17.9887	11.1733
18.0926	11.1098
18.197	11.0468
18.3021	10.9841
18.4077	10.9219
18.514	10.8601
18.6209	10.7986
18.7284	10.7376
18.8365	10.677
18.9452	10.6167
19.0546	10.5643
19.1646	10.5048
19.2752	10.4457
19.3865	10.387
19.4984	10.3286
19.611	10.2707
19.7242	10.2131
19.8381	10.1558
19.9526	10.099
20.0678	10.0425
20.1837	9.98636
20.3002	9.93058
20.4174	9.87516
20.5353	9.8201
20.6538	9.76538
20.773	9.71101
20.893	9.65699
21.0136	9.60332
21.1349	9.54998
21.2569	9.49698
21.3796	9.44432
21.503	9.39199
21.6272	9.33999
21.752	9.28832
21.8776	9.23698
22.0039	9.18596
22.1309	9.13526
22.2587	9.08489
22.3872	9.03483
22.5165	8.98508
22.6464	8.93565
22.7772	8.88652
22.9087	8.83771
23.0409	8.7892
23.1739	8.74099
23.3077	8.69308
23.4423	8.64548
23.5776	8.59817
23.7137	8.55115
23.8506	8.50443
23.9883	8.458
24.1268	8.41186
24.2661	8.366
24.4062	8.32043
24.5471	8.27515
24.6888	8.23014
24.8313	8.13774
24.9747	8.0927
25.1189	8.04795
25.2639	8.00347
25.4097	7.95926
25.5564	7.91533
25.704	7.87167
25.8523	7.82828
26.0016	7.78516
26.1517	7.7423
26.3027	7.69971
26.4545	7.65738
26.6073	7.61531
26.7609	7.57349
26.9153	7.53194
27.0707	7.49064
27.227	7.44959
27.3842	7.40879
27.5423	7.36824
27.7013	7.32794
27.8612	7.28789
28.0221	7.24808
28.1838	7.20851
28.3465	7.16919
28.5102	7.1301
28.6748	7.09125
28.8403	7.06274
29.0068	7.02424
29.1743	6.98597
29.3427	6.94793
29.5121	6.91012
29.6825	6.87254
29.8538	6.83519
30.0262	6.79806
30.1995	6.76116
30.3739	6.72448
30.5492	6.68802
30.7256	6.65178
30.903	6.61575
31.0814	6.57995
31.2608	6.54436
31.4413	6.50898
31.6228	6.47382
31.8053	6.43886
31.989	6.40412
32.1736	6.36958
32.3594	6.33525
32.5462	6.30113
32.7341	6.2672
32.923	6.23348
33.1131	6.19996
33.3043	6.16665
33.4965	6.13352
33.6899	6.1006
33.8844	6.06787
34.08	6.03534
34.2768	6.003
34.4747	5.97085
34.6737	5.93889
34.8739	5.90719
35.0752	5.87737
35.2777	5.8477
35.4813	5.8182
35.6862	5.78884
35.8922	5.75964
36.0994	5.73059
36.3078	5.7017
36.5174	5.67295
36.7282	5.64436
36.9403	5.61592
37.1535	5.58762
37.368	5.55948
37.5837	5.53148
37.8007	5.50363
38.0189	5.47592
38.2384	5.44836
38.4592	5.42095
38.6812	5.39368
38.9045	5.36656
39.1291	5.33958
39.355	5.31274
39.5822	5.28604
39.8107	5.25948
40.0405	5.23306
40.2717	5.20679
40.5042	5.18065
40.738	5.15465
40.9732	5.12879
41.2098	5.10306
41.4477	5.07747
41.6869	5.05202
41.9276	5.0267
42.1697	5.00151
42.4131	4.97646
42.658	4.95155
42.9042	4.92676
43.1519	4.9021
43.401	4.87758
43.6516	4.85319
43.9036	4.82892
44.157	4.80479
44.412	4.78078
44.6684	4.7569
44.9262	4.73315
45.1856	4.70952
45.4465	4.68602
45.7088	4.66265
45.9727	4.63939
46.2381	4.61627
46.505	4.59326
46.7735	4.57038
47.0435	4.54762
47.3151	4.52498
47.5883	4.50246
47.863	4.48006
48.1393	4.45778
48.4172	4.43562
48.6968	4.41357
48.9779	4.39727
49.2606	4.37539
49.545	4.35362
49.831	4.33197
50.1187	4.31043
50.4081	4.28901
50.6991	4.26771
50.9918	4.24651
51.2861	4.22543
51.5822	4.20447
51.88	4.18361
52.1795	4.16286
52.4807	4.14223
52.7837	4.12171
53.0884	4.10129
53.3949	4.08098
53.7032	4.06079
54.0132	4.0407
54.325	4.02071
54.6387	4.00084
54.9541	3.98106
55.2713	3.9614
55.5904	3.94184
55.9114	3.92238
56.2341	3.90303
56.5588	3.88378
56.8853	3.86463
57.2137	3.84559
57.544	3.82665
57.8762	3.8078
58.2103	3.78906
58.5464	3.77042
58.8844	3.75188
59.2243	3.73343
59.5662	3.71509
59.9101	3.69684
60.256	3.67869
60.6038	3.66063
60.9537	3.64267
61.3056	3.62481
61.6595	3.60704
62.0155	3.58937
62.3735	3.57179
62.7336	3.5543
63.0957	3.53691
63.46	3.51961
63.8263	3.5024
64.1948	3.48529
64.5654	3.46826
64.9382	3.45133
65.3131	3.43448
65.6901	3.41773
66.0693	3.40106
66.4508	3.38448
66.8344	3.36799
67.2202	3.35159
67.6083	3.33528
67.9986	3.31905
68.3912	3.30291
68.786	3.28685
69.1831	3.27088
69.5825	3.25727
69.9842	3.24144
70.3882	3.22568
70.7946	3.21002
71.2033	3.19443
71.6143	3.17893
72.0278	3.16352
72.4436	3.14818
72.8618	3.13292
73.2825	3.11775
73.7055	3.10266
74.131	3.08764
74.559	3.07271
74.9894	3.05785
75.4223	3.04308
75.8578	3.02838
76.2957	3.01376
76.7361	2.99922
77.1792	2.98475
77.6247	2.97036
78.0728	2.95605
78.5236	2.94182
78.9769	2.92765
79.4328	2.91357
79.8914	2.89956
80.3526	2.88562
80.8165	2.87176
81.2831	2.85797
81.7523	2.84425
82.2243	2.8306
82.699	2.81703
83.1764	2.80353
83.6566	2.7901
84.1395	2.77674
84.6253	2.76346
85.1138	2.75024
85.6052	2.73709
86.0994	2.72401
86.5964	2.711
87.0964	2.69806
87.5992	2.68519
88.1049	2.67239
88.6135	2.65965
89.1251	2.64698
89.6396	2.63438
90.1571	2.62185
90.6776	2.60938
91.2011	2.59697
91.7276	2.58464
92.2571	2.57236
92.7897	2.56016
93.3254	2.54801
93.8642	2.53593
94.4061	2.52392
94.9511	2.51196
95.4993	2.50007
96.0506	2.48825
96.6051	2.47648
97.1628	2.46478
97.7237	2.45314
98.2879	2.44156
98.8553	2.43004
99.426	2.41858
100	2.40719
100.577	2.39585
101.158	2.38457
101.742	2.37437
102.329	2.36321
102.92	2.35211
103.514	2.34107
104.112	2.33009
104.713	2.31917
105.317	2.3083
105.925	2.29749
106.537	2.28673
107.152	2.27604
107.771	2.26539
108.393	2.25481
109.018	2.24428
109.648	2.2338
110.281	2.22338
110.917	2.21301
111.558	2.2027
112.202	2.19245
112.85	2.18224
113.501	2.17209
114.156	2.16199
114.815	2.15195
115.478	2.14196
116.145	2.13202
116.815	2.12213
117.49	2.11229
118.168	2.10251
118.85	2.09277
119.536	2.08309
120.226	2.07346
120.921	2.06388
121.619	2.05435
122.321	2.04487
123.027	2.03543
123.737	2.02605
124.451	2.01672
125.17	2.00743
125.893	1.9982
126.619	1.98901
127.35	1.97987
128.086	1.97078
128.825	1.96173
129.569	1.95274
130.317	1.94378
131.069	1.93488
131.826	1.92602
132.587	1.91721
133.352	1.90845
134.122	1.89973
134.896	1.89106
135.675	1.88243
136.458	1.87385
137.246	1.86531
138.038	1.85681
138.835	1.84837
139.637	1.83996
140.443	1.8316
141.254	1.82328
142.069	1.81501
142.889	1.80678
143.714	1.79859
144.544	1.79044
145.378	1.78234
146.218	1.77428
147.062	1.76626
147.911	1.75829
148.765	1.75035
149.624	1.74246
150.487	1.73461
151.356	1.7268
152.23	1.71903
153.109	1.7113
153.993	1.70361
154.882	1.69596
155.776	1.68835
156.675	1.68078
157.58	1.67325
158.489	1.66576
159.404	1.65831
160.325	1.6509
161.25	1.64353
162.181	1.63619
163.117	1.6289
164.059	1.62164
165.006	1.61442
165.959	1.60724
166.917	1.60009
167.88	1.59298
168.85	1.58591
169.824	1.57888
170.805	1.57188
171.791	1.56492
172.783	1.558
173.78	1.55111
174.783	1.54426
175.792	1.53744
176.807	1.53066
177.828	1.52392
178.855	1.51721
179.887	1.51053
180.926	1.5039
181.97	1.49729
183.021	1.49072
184.077	1.48419
185.14	1.47768
186.209	1.47122
187.284	1.46478
188.365	1.45838
189.452	1.45202
190.546	1.44568
191.646	1.43938
192.752	1.43312
193.865	1.42688
194.984	1.42068
196.11	1.41451
197.242	1.40838
198.381	1.40227
199.526	1.3962
200.678	1.39016
201.837	1.38415
203.002	1.37817
204.174	1.37223
205.353	1.36631
206.538	1.36043
207.73	1.35457
208.93	1.34875
210.136	1.34296
211.349	1.3372
212.569	1.33147
213.796	1.32577
215.03	1.3201
216.272	1.31445
217.52	1.30884
218.776	1.30326
220.039	1.29771
221.309	1.29218
222.587	1.28669
223.872	1.28122
225.165	1.27579
226.464	1.27038
227.772	1.265
229.087	1.25965
230.409	1.25432
231.739	1.24903
233.077	1.24376
234.423	1.23852
235.776	1.23331
237.137	1.22813
238.506	1.22297
239.883	1.21784
241.268	1.21273
242.661	1.20766
244.062	1.20261
245.471	1.19759
246.888	1.19259
248.313	1.18762
249.747	1.18268
251.189	1.17776
252.639	1.17287
254.097	1.168
255.564	1.16316
257.04	1.15835
258.523	1.15356
260.016	1.14879
261.517	1.14406
263.027	1.13934
264.545	1.13465
266.073	1.12999
267.609	1.12535
269.153	1.12074
270.707	1.11615
272.27	1.11158
273.842	1.10704
275.423	1.10252
277.013	1.09803
278.612	1.09356
280.221	1.08911
281.838	1.08469
283.465	1.08029
285.102	1.07592
286.748	1.07157
288.403	1.06724
290.068	1.06293
291.743	1.05865
293.427	1.05439
295.121	1.05015
296.825	1.04593
298.538	1.04174
300.262	1.03757
301.995	1.03342
303.739	1.0293
305.492	1.02519
307.256	1.02111
309.03	1.01705
310.814	1.01301
312.608	1.009
314.413	1.005
316.228	1.00103
318.053	0.997073
319.89	0.993141
321.736	0.989231
323.594	0.985341
325.462	0.981472
327.341	0.977624
329.23	0.973796
331.131	0.969989
333.043	0.966202
334.965	0.962436
336.899	0.95869
338.844	0.954964
340.8	0.951257
342.768	0.947571
344.747	0.943905
346.737	0.940258
348.739	0.936632
350.752	0.933024
352.777	0.929436
354.813	0.925867
356.862	0.922318
358.922	0.918788
360.994	0.915276
363.078	0.911784
365.174	0.908311
367.282	0.904856
369.403	0.90142
371.535	0.898003
373.68	0.894604
375.837	0.891223
378.007	0.887861
380.189	0.884517
382.384	0.881191
384.592	0.877883
386.812	0.874594
389.045	0.871322
391.291	0.868067
393.55	0.864831
395.822	0.861612
398.107	0.85841
400.405	0.855226
402.717	0.85206
405.042	0.84891
407.38	0.845778
409.732	0.842663
412.098	0.839565
414.477	0.836484
416.869	0.833419
419.276	0.830372
421.697	0.827341
424.131	0.824326
426.58	0.821329
429.042	0.818347
431.519	0.815382
434.01	0.812433
436.516	0.809501
439.036	0.806584
441.57	0.803684
444.12	0.800799
446.684	0.797931
449.262	0.795078
451.856	0.792241
454.465	0.789419
457.088	0.786613
459.727	0.783823
462.381	0.781048
465.05	0.778289
467.735	0.775544
470.435	0.772815
473.151	0.770101
475.883	0.767402
478.63	0.764718
481.393	0.762049
484.172	0.759395
486.968	0.756755
489.779	0.75413
492.606	0.75152
495.45	0.748925
498.31	0.746343
501.187	0.743777
504.081	0.741224
506.991	0.738686
509.918	0.736162
512.861	0.733652
515.822	0.731156
518.8	0.728675
521.795	0.726207
524.807	0.723753
527.837	0.721313
530.884	0.718886
533.949	0.716473
537.032	0.714074
540.132	0.711688
543.25	0.709316
546.387	0.706957
549.541	0.704612
552.713	0.702279
555.904	0.69996
559.114	0.697655
562.341	0.695362
565.588	0.693082
568.853	0.690815
572.137	0.688561
575.44	0.68632
578.762	0.684092
582.103	0.681876
585.464	0.679673
588.844	0.677483
592.243	0.675305
595.662	0.673139
599.101	0.670986
602.56	0.668845
606.038	0.666717
609.537	0.664601
613.056	0.662497
616.595	0.660405
620.155	0.658325
623.735	0.656257
627.336	0.654201
630.957	0.652157
634.6	0.650125
638.263	0.648105
641.948	0.646096
645.654	0.644099
649.382	0.642114
653.131	0.64014
656.901	0.638177
660.693	0.636226
664.508	0.634287
668.344	0.632359
672.202	0.630442
676.083	0.628536
679.986	0.626641
683.912	0.624758
687.86	0.622885
691.831	0.621024
695.825	0.619174
699.842	0.617334
703.882	0.615505
707.946	0.613688
712.033	0.61188
716.143	0.610084
720.278	0.608298
724.436	0.606523
728.618	0.604758
732.825	0.603004
737.055	0.601261
741.31	0.599527
745.59	0.597804
749.894	0.596092
754.223	0.59439
758.578	0.592697
762.957	0.591015
767.361	0.589343
771.792	0.587682
776.247	0.58603
780.728	0.584388
785.236	0.582756
789.769	0.581134
794.328	0.579522
798.914	0.577919
803.526	0.576327
808.165	0.574744
812.831	0.57317
817.523	0.571607
822.243	0.570052
826.99	0.568508
831.764	0.566972
836.566	0.565447
841.395	0.56393
846.253	0.562423
851.138	0.560925
856.052	0.559437
860.994	0.557957
865.964	0.556487
870.964	0.555026
875.992	0.553574
881.049	0.552131
886.135	0.550697
891.251	0.549272
896.396	0.547856
901.571	0.546448
906.776	0.54505
912.011	0.54366
917.276	0.542279
922.571	0.540907
927.897	0.539543
933.254	0.538188
938.642	0.536842
944.061	0.535504
949.511	0.534174
954.993	0.532854
960.506	0.531541
966.051	0.530237
971.628	0.528941
977.237	0.527654
982.879	0.526374
988.553	0.525103
994.26	0.52384
1000	0.522586
1005.77	0.521339
1011.58	0.520101
1017.42	0.51887
1023.29	0.517647
1029.2	0.516433
1035.14	0.515226
1041.12	0.514028
1047.13	0.512837
1053.17	0.511654
1059.25	0.510478
1065.37	0.509311
1071.52	0.508151
1077.71	0.506998
1083.93	0.505854
1090.18	0.504717
1096.48	0.503587
1102.81	0.502466
1109.17	0.501351
1115.58	0.500244
1122.02	0.499144
1128.5	0.498052
1135.01	0.496967
1141.56	0.49589
1148.15	0.49482
1154.78	0.493757
1161.45	0.492701
1168.15	0.491652
1174.9	0.490611
1181.68	0.489576
1188.5	0.488549
1195.36	0.487529
1202.26	0.486516
1209.21	0.485509
1216.19	0.48451
1223.21	0.483518
1230.27	0.482532
1237.37	0.481554
1244.51	0.480582
1251.7	0.479617
1258.93	0.478658
1266.19	0.477707
1273.5	0.476762
1280.86	0.475824
1288.25	0.474892
1295.69	0.473967
1303.17	0.473049
1310.69	0.472137
1318.26	0.471231
1325.87	0.470332
1333.52	0.46944
1341.22	0.468554
1348.96	0.467674
1356.75	0.466801
1364.58	0.465934
1372.46	0.465073
1380.38	0.464218
1388.35	0.46337
1396.37	0.462528
1404.43	0.461692
1412.54	0.460863
1420.69	0.460039
1428.89	0.459222
1437.14	0.45841
1445.44	0.457605
1453.78	0.456805
1462.18	0.456012
1470.62	0.455224
1479.11	0.454443
1487.65	0.453667
1496.24	0.452897
1504.87	0.452133
1513.56	0.451375
1522.3	0.450623
1531.09	0.449876
1539.93	0.449135
1548.82	0.4484
1557.76	0.44767
1566.75	0.446946
1575.8	0.446228
1584.89	0.445515
1594.04	0.444808
1603.25	0.444106
1612.5	0.44341
1621.81	0.442719
1631.17	0.442034
1640.59	0.441354
1650.06	0.440693
1659.59	0.440043
1669.17	0.439399
1678.8	0.43876
1688.5	0.438126
1698.24	0.437498
1708.05	0.436874
1717.91	0.436256
1727.83	0.435643
1737.8	0.435035
1747.83	0.434431
1757.92	0.433833
1768.07	0.43324
1778.28	0.432652
1788.55	0.432069
1798.87	0.431491
1809.26	0.430917
1819.7	0.430349
1830.21	0.429785
1840.77	0.429227
1851.4	0.428673
1862.09	0.428124
1872.84	0.427579
1883.65	0.42704
1894.52	0.426505
1905.46	0.425975
1916.46	0.425449
1927.52	0.424929
1938.65	0.424413
1949.84	0.423901
1961.1	0.423394
1972.42	0.422892
1983.81	0.422394
1995.26	0.421901
2006.78	0.421413
2018.37	0.420929
2030.02	0.420449
2041.74	0.419974
2053.53	0.419503
2065.38	0.419037
2077.3	0.418575
2089.3	0.418117
2101.36	0.417664
2113.49	0.417215
2125.69	0.416771
2137.96	0.416331
2150.3	0.415895
2162.72	0.415463
2175.2	0.415036
2187.76	0.414613
2200.39	0.414194
2213.09	0.413779
2225.87	0.413368
2238.72	0.412962
2251.65	0.412559
2264.64	0.412161
2277.72	0.411767
2290.87	0.411377
2304.09	0.410991
2317.39	0.410609
2330.77	0.410231
2344.23	0.409857
2357.76	0.409487
2371.37	0.409121
2385.06	0.408759
2398.83	0.4084
2412.68	0.408046
2426.61	0.407696
2440.62	0.407349
2454.71	0.407006
2468.88	0.406667
2483.13	0.406332
2497.47	0.406001
2511.89	0.405673
2526.39	0.40535
2540.97	0.40503
2555.64	0.404713
2570.4	0.4044
2585.23	0.404092
2600.16	0.403786
2615.17	0.403485
2630.27	0.403186
2645.45	0.402892
2660.73	0.402601
2676.09	0.402314
2691.53	0.40203
2707.07	0.40175
2722.7	0.401473
2738.42	0.4012
2754.23	0.400931
2770.13	0.400664
2786.12	0.400402
2802.21	0.400142
2818.38	0.399886
2834.65	0.399634
2851.02	0.399385
2867.48	0.399139
2884.03	0.398897
2900.68	0.398658
2917.43	0.398422
2934.27	0.39819
2951.21	0.39796
2968.25	0.397735
2985.38	0.397512
3002.62	0.397293
3019.95	0.397077
3037.39	0.396864
3054.92	0.396654
3072.56	0.396447
3090.3	0.396244
3108.14	0.396044
3126.08	0.395846
3144.13	0.395652
3162.28	0.395461
3180.53	0.395273
3198.9	0.395089
3217.36	0.394907
3235.94	0.394728
3254.62	0.394552
3273.41	0.39438
3292.3	0.39421
3311.31	0.394043
3330.43	0.393879
3349.65	0.393718
3368.99	0.39356
3388.44	0.393405
3408	0.393253
3427.68	0.393104
3447.47	0.392957
3467.37	0.392814
3487.39	0.392673
3507.52	0.392535
3527.77	0.3924
3548.13	0.392267
3568.62	0.392138
3589.22	0.392011
3609.94	0.391887
3630.78	0.391765
3651.74	0.391647
3672.82	0.391531
3694.03	0.391417
3715.35	0.391307
3736.8	0.391199
3758.37	0.391093
3780.07	0.390991
3801.89	0.390891
3823.84	0.390793
3845.92	0.390698
3868.12	0.390606
3890.45	0.390516
3912.91	0.390429
3935.5	0.390344
3958.22	0.390262
3981.07	0.390182
4004.05	0.390105
4027.17	0.39003
4050.42	0.389958
4073.8	0.389888
4097.32	0.38982
4120.98	0.389755
4144.77	0.389693
4168.69	0.389632
4192.76	0.389575
4216.97	0.389519
4241.31	0.389466
4265.8	0.389415
4290.42	0.389366
4315.19	0.38932
4340.1	0.389276
4365.16	0.389235
4390.36	0.389195
4415.7	0.389158
4441.2	0.389123
4466.84	0.389091
4492.62	0.38906
4518.56	0.389032
4544.65	0.389006
4570.88	0.388982
4597.27	0.38896
4623.81	0.388941
4650.5	0.388924
4677.35	0.388908
4704.35	0.388895
4731.51	0.388884
4758.83	0.388875
4786.3	0.388868
4813.93	0.388863
4841.72	0.388861
4869.68	0.38886
4897.79	0.388861
4926.06	0.388864
4954.5	0.38887
4983.1	0.388877
5011.87	0.388886
5040.81	0.388897
5069.91	0.388911
5099.18	0.388926
5128.61	0.388943
5158.22	0.388962
5188	0.388983
5217.95	0.389005
5248.07	0.38903
5278.37	0.389056
5308.84	0.389085
5339.49	0.389115
5370.32	0.389147
5401.32	0.389181
5432.5	0.389217
5463.87	0.389254
5495.41	0.389293
5527.13	0.389335
5559.04	0.389377
5591.14	0.389422
5623.41	0.389468
5655.88	0.389516
5688.53	0.389566
5721.37	0.389618
5754.4	0.389671
5787.62	0.389726
5821.03	0.389782
5854.64	0.38984
5888.44	0.3899
5922.43	0.389962
5956.62	0.390025
5991.01	0.39009
6025.6	0.390156
6060.38	0.390224
6095.37	0.390294
6130.56	0.390365
6165.95	0.390437
6201.55	0.390512
6237.35	0.390588
6273.36	0.390665
6309.57	0.390744
6346	0.390824
6382.63	0.390906
6419.48	0.39099
6456.54	0.391074
6493.82	0.391161
6531.31	0.391249
6569.01	0.391338
6606.93	0.391429
6645.08	0.391521
6683.44	0.391614
6722.02	0.391709
6760.83	0.391806
6799.86	0.391904
6839.12	0.392003
6878.6	0.392103
6918.31	0.392205
6958.25	0.392309
6998.42	0.392413
7038.82	0.392519
7079.46	0.392627
7120.33	0.392735
7161.43	0.392845
7202.78	0.392956
7244.36	0.393069
7286.18	0.393183
7328.25	0.393298
7370.55	0.393414
7413.1	0.393532
7455.9	0.393651
7498.94	0.393771
7542.23	0.393892
7585.78	0.394015
7629.57	0.394138
7673.61	0.394263
7717.92	0.394389
7762.47	0.394517
7807.28	0.394645
7852.36	0.394775
7897.69	0.394905
7943.28	0.395037
7989.14	0.39517
8035.26	0.395305
8081.65	0.39544
8128.31	0.395576
8175.23	0.395714
8222.43	0.395852
8269.9	0.395992
8317.64	0.396133
8365.66	0.396275
8413.95	0.396418
8462.53	0.396561
8511.38	0.396706
8560.52	0.396852
8609.94	0.397
8659.64	0.397148
8709.64	0.397297
8759.92	0.397447
8810.49	0.397598
8861.35	0.39775
8912.51	0.397903
8963.96	0.398057
9015.71	0.398212
9067.76	0.398368
9120.11	0.398525
9172.76	0.398683
9225.71	0.398841
9278.97	0.399001
9332.54	0.399162
9386.42	0.399323
9440.61	0.399485
9495.11	0.399649
9549.93	0.399813
9605.06	0.399978
9660.51	0.400144
9716.28	0.400311
9772.37	0.400478
9828.79	0.400647
9885.53	0.400816
9942.6	0.400986
10000	0.401157
10057.7	0.401329
10115.8	0.401502
10174.2	0.401675
10232.9	0.401849
10292	0.402024
10351.4	0.4022
10411.2	0.402377
10471.3	0.402554
10531.7	0.402732
10592.5	0.402911
10653.7	0.403091
10715.2	0.403271
10777.1	0.403452
10839.3	0.403634
10901.8	0.403817
10964.8	0.404
11028.1	0.404184
11091.7	0.404369
11155.8	0.404554
11220.2	0.40474
11285	0.404927
11350.1	0.405115
11415.6	0.405303
11481.5	0.405491
11547.8	0.405681
11614.5	0.405871
11681.5	0.406062
11749	0.406253
11816.8	0.406445
11885	0.406638
11953.6	0.406831
12022.6	0.407025
12092.1	0.40722
12161.9	0.407415
12232.1	0.407611
12302.7	0.407807
12373.7	0.408004
12445.1	0.408201
12517	0.408399
12589.3	0.408598
12661.9	0.408797
12735	0.408997
12808.6	0.409197
12882.5	0.409398
12956.9	0.4096
13031.7	0.409802
13106.9	0.410004
13182.6	0.410207
13258.7	0.410411
13335.2	0.410615
13412.2	0.41082
13489.6	0.411025
13567.5	0.41123
13645.8	0.411436
13724.6	0.411643
13803.8	0.41185
13883.5	0.412057
13963.7	0.412265
14044.3	0.412474
14125.4	0.412683
14206.9	0.412892
14288.9	0.413102
14371.4	0.413312
14454.4	0.413523
14537.8	0.413734
14621.8	0.413946
14706.2	0.414158
14791.1	0.414371
14876.5	0.414584
14962.4	0.414797
15048.7	0.415011
15135.6	0.415225
15223	0.415439
15310.9	0.415654
15399.3	0.41587
15488.2	0.416085
15577.6	0.416301
15667.5	0.416518
15758	0.416735
15848.9	0.416952
15940.4	0.41717
16032.5	0.417388
16125	0.417606
16218.1	0.417825
16311.7	0.418044
16405.9	0.418263
16500.6	0.418483
16595.9	0.418703
16691.7	0.418923
16788	0.419144
16885	0.419365
16982.4	0.419586
17080.5	0.419808
17179.1	0.42003
17278.3	0.420252
17378	0.420475
17478.3	0.420698
17579.2	0.420921
17680.7	0.421144
17782.8	0.421368
17885.5	0.421592
17988.7	0.421816
18092.6	0.422041
18197	0.422266
18302.1	0.422491
18407.7	0.422717
18514	0.422942
18620.9	0.423168
18728.4	0.423394
18836.5	0.423621
18945.2	0.423848
19054.6	0.424074
19164.6	0.424302
19275.2	0.424529
19386.5	0.424757
19498.4	0.424985
19611	0.425213
19724.2	0.425441
19838.1	0.42567
19952.6	0.425898
20067.8	0.426127
20183.7	0.426357
20300.2	0.426586
20417.4	0.426816
20535.3	0.427046
20653.8	0.427276
20773	0.427506
20893	0.427736
21013.6	0.427967
21134.9	0.428198
21256.9	0.428429
21379.6	0.42866
21503	0.428891
21627.2	0.429123
21752	0.429354
21877.6	0.429586
22003.9	0.429818
22130.9	0.43005
22258.7	0.430283
22387.2	0.430515
22516.5	0.430748
22646.4	0.43098
22777.2	0.431213
22908.7	0.431446
23040.9	0.43168
23173.9	0.431913
23307.7	0.432147
23442.3	0.43238
23577.6	0.432614
23713.7	0.432848
23850.6	0.433082
23988.3	0.433316
24126.8	0.43355
24266.1	0.433785
24406.2	0.434019
24547.1	0.434254
24688.8	0.434489
24831.3	0.434723
24974.7	0.434958
25118.9	0.435193
25263.9	0.435429
25409.7	0.435664
25556.4	0.435899
25704	0.436135
25852.3	0.43637
26001.6	0.436606
26151.7	0.436841
26302.7	0.437077
26454.5	0.437313
26607.3	0.437549
26760.9	0.437785
26915.3	0.438021
27070.7	0.438257
27227	0.438494
27384.2	0.43873
27542.3	0.438966
27701.3	0.439203
27861.2	0.439439
28022.1	0.439676
28183.8	0.439913
28346.5	0.440149
28510.2	0.440386
28674.8	0.440623
28840.3	0.44086
29006.8	0.441097
29174.3	0.441334
29342.7	0.441571
29512.1	0.441808
29682.5	0.442045
29853.8	0.442282
30026.2	0.442519
30199.5	0.442757
30373.9	0.442994
30549.2	0.443231
30725.6	0.443469
30903	0.443706
31081.4	0.443943
31260.8	0.444181
31441.3	0.444418
31622.8	0.444656
31805.3	0.444893
31989	0.445131
32173.6	0.445368
32359.4	0.445606
32546.2	0.445843
32734.1	0.446081
32923	0.446318
33113.1	0.446556
33304.3	0.446793
33496.5	0.447031
33689.9	0.447269
33884.4	0.447506
34080	0.447744
34276.8	0.447981
34474.7	0.448219
34673.7	0.448457
34873.9	0.448694
35075.2	0.448932
35277.7	0.449169
35481.3	0.449407
35686.2	0.449645
35892.2	0.449882
36099.4	0.45012
36307.8	0.450357
36517.4	0.450595
36728.2	0.450832
36940.3	0.45107
37153.5	0.451307
37368	0.451545
37583.7	0.451782
37800.7	0.452019
38018.9	0.452257
38238.4	0.452494
38459.2	0.452731
38681.2	0.452969
38904.5	0.453206
39129.1	0.453443
39355	0.45368
39582.2	0.453918
39810.7	0.454155
40040.5	0.454392
40271.7	0.454629
40504.2	0.454866
40738	0.455103
40973.2	0.45534
41209.8	0.455577
41447.7	0.455814
41686.9	0.45605
41927.6	0.456287
42169.7	0.456524
42413.1	0.456761
42658	0.456997
42904.2	0.457234
43151.9	0.45747
43401	0.457707
43651.6	0.457943
43903.6	0.45818
44157	0.458416
44412	0.458652
44668.4	0.458888
44926.2	0.459125
45185.6	0.459361
45446.5	0.459597
45708.8	0.459833
45972.7	0.460069
46238.1	0.460304
46505	0.46054
46773.5	0.460776
47043.5	0.461012
47315.1	0.461247
47588.3	0.461483
47863	0.461718
48139.3	0.461954
48417.2	0.462189
48696.8	0.462424
48977.9	0.46266
49260.6	0.462895
49545	0.46313
49831	0.463365
50118.7	0.4636
50408.1	0.463834
50699.1	0.464069
50991.8	0.464304
51286.1	0.464539
51582.2	0.464773
51880	0.465008
52179.5	0.465242
52480.7	0.465476
52783.7	0.46571
53088.4	0.465945
53394.9	0.466179
53703.2	0.466413
54013.2	0.466647
54325	0.46688
54638.7	0.467114
54954.1	0.467348
55271.3	0.467581
55590.4	0.467815
55911.4	0.468048
56234.1	0.468282
56558.8	0.468515
56885.3	0.468748
57213.7	0.468981
57544	0.469214
57876.2	0.469447
58210.3	0.46968
58546.4	0.469912
58884.4	0.470145
59224.3	0.470377
59566.2	0.47061
59910.1	0.470842
60256	0.471074
60603.8	0.471306
60953.7	0.471539
61305.6	0.47177
61659.5	0.472002
62015.5	0.472234
62373.5	0.472466
62733.6	0.472697
63095.7	0.472929
63460	0.47316
63826.3	0.473391
64194.8	0.473622
64565.4	0.473854
64938.2	0.474085
65313.1	0.474315
65690.1	0.474546
66069.3	0.474777
66450.8	0.475007
66834.4	0.475238
67220.2	0.475468
67608.3	0.475698
67998.6	0.475929
68391.2	0.476159
68786	0.476389
69183.1	0.476618
69582.5	0.476848
69984.2	0.477078
70388.2	0.477307
70794.6	0.477537
71203.3	0.477766
71614.3	0.477995
72027.8	0.478224
72443.6	0.478453
72861.8	0.478682
73282.5	0.478911
73705.5	0.479139
74131	0.479368
74559	0.479596
74989.4	0.479825
75422.3	0.480053
75857.8	0.480281
76295.7	0.480509
76736.1	0.480737
77179.2	0.480965
77624.7	0.481192
78072.8	0.48142
78523.6	0.481647
78976.9	0.481875
79432.8	0.482102
79891.4	0.482329
80352.6	0.482556
80816.5	0.482783
81283.1	0.48301
81752.3	0.483236
82224.3	0.483463
82699	0.483689
83176.4	0.483915
83656.6	0.484142
84139.5	0.484368
84625.3	0.484594
85113.8	0.484819
85605.2	0.485045
86099.4	0.485271
86596.4	0.485496
87096.4	0.485722
87599.2	0.485947
88104.9	0.486172
88613.5	0.486397
89125.1	0.486622
89639.6	0.486847
90157.1	0.487071
90677.6	0.487296
91201.1	0.48752
91727.6	0.487744
92257.1	0.487969
92789.7	0.488193
93325.4	0.488417
93864.2	0.48864
94406.1	0.488864
94951.1	0.489088
95499.3	0.489311
96050.6	0.489534
96605.1	0.489758
97162.8	0.489981
97723.7	0.490204
98287.9	0.490427
98855.3	0.490649
99426	0.490872
100000	0.491094
100577	0.491317
101158	0.491539
101742	0.491761
102329	0.491983
102920	0.492205
103514	0.492427
104112	0.492648
104713	0.49287
105317	0.493091
105925	0.493312
106537	0.493534
107152	0.493755
107771	0.493975
108393	0.494196
109018	0.494417
109648	0.494637
110281	0.494858
110917	0.495078
111558	0.495298
112202	0.495518
112850	0.495738
113501	0.495958
114156	0.496177
114815	0.496397
115478	0.496616
116145	0.496835
116815	0.497055
117490	0.497274
118168	0.497492
118850	0.497711
119536	0.49793
120226	0.498148
120921	0.498367
121619	0.498585
122321	0.498803
123027	0.499021
123737	0.499239
124451	0.499457
125170	0.499674
125893	0.499892
126619	0.500109
127350	0.500326
128086	0.500544
128825	0.500761
129569	0.500977
130317	0.501194
131069	0.501411
131826	0.501627
132587	0.501844
133352	0.50206
134122	0.502276
134896	0.502492
135675	0.502708
136458	0.502923
137246	0.503139
138038	0.503354
138835	0.50357
139637	0.503785
140443	0.504
141254	0.504215
142069	0.50443
142889	0.504644
143714	0.504859
144544	0.505073
145378	0.505288
146218	0.505502
147062	0.505716
147911	0.50593
148765	0.506144
149624	0.506357
150487	0.506571
151356	0.506784
152230	0.506998
153109	0.507211
153993	0.507424
154882	0.507637
155776	0.507849
156675	0.508062
157580	0.508275
158489	0.508487
159404	0.508699
160325	0.508911
161250	0.509123
162181	0.509335
163117	0.509547
164059	0.509759
165006	0.50997
165959	0.510181
166917	0.510393
167880	0.510604
168850	0.510815
169824	0.511025
170805	0.511236
171791	0.511447
172783	0.511657
173780	0.511868
174783	0.512078
175792	0.512288
176807	0.512498
177828	0.512708
178855	0.512917
179887	0.513127
180926	0.513336
181970	0.513545
183021	0.513755
184077	0.513964
185140	0.514173
186209	0.514381
187284	0.51459
188365	0.514799
189452	0.515007
190546	0.515215
191646	0.515423
192752	0.515631
193865	0.515839
194984	0.516047
196110	0.516255
197242	0.516462
198381	0.516669
199526	0.516877
200678	0.517084
201837	0.517291
203002	0.517498
204174	0.517704
205353	0.517911
206538	0.518117
207730	0.518324
208930	0.51853
210136	0.518736
211349	0.518942
212569	0.519148
213796	0.519353
215030	0.519559
216272	0.519764
217520	0.51997
218776	0.520175
220039	0.52038
221309	0.520585
222587	0.520789
223872	0.520994
225165	0.521199
226464	0.521403
227772	0.521607
229087	0.521811
230409	0.522015
231739	0.522219
233077	0.522423
234423	0.522627
235776	0.52283
237137	0.523034
238506	0.523237
239883	0.52344
241268	0.523643
242661	0.523846
244062	0.524049
245471	0.524251
246888	0.524454
248313	0.524656
249747	0.524858
251189	0.52506
252639	0.525262
254097	0.525464
255564	0.525666
257040	0.525867
258523	0.526069
260016	0.52627
261517	0.526471
263027	0.526672
264545	0.526873
266073	0.527074
267609	0.527275
269153	0.527475
270707	0.527676
272270	0.527876
273842	0.528076
275423	0.528276
277013	0.528476
278612	0.528676
280221	0.528875
281838	0.529075
283465	0.529274
285102	0.529474
286748	0.529673
288403	0.529872
290068	0.530071
291743	0.530269
293427	0.530468
295121	0.530667
296825	0.530865
298538	0.531063
300262	0.531261
301995	0.531459
303739	0.531657
305492	0.531855
307256	0.532052
309030	0.53225
310814	0.532447
312608	0.532644
314413	0.532842
316228	0.533039
318053	0.533235
319890	0.533432
321736	0.533629
323594	0.533825
325462	0.534021
327341	0.534218
329230	0.534414
331131	0.53461
333043	0.534805
334965	0.535001
336899	0.535197
338844	0.535392
340800	0.535587
342768	0.535783
344747	0.535978
346737	0.536173
348739	0.536367
350752	0.536562
352777	0.536757
354813	0.536951
356862	0.537145
358922	0.537339
360994	0.537533
363078	0.537727
365174	0.537921
367282	0.538115
369403	0.538308
371535	0.538502
373680	0.538695
375837	0.538888
378007	0.539081
380189	0.539274
382384	0.539467
384592	0.539659
386812	0.539852
389045	0.540044
391291	0.540237
393550	0.540429
395822	0.540621
398107	0.540813
400405	0.541004
402717	0.541196
405042	0.541388
407380	0.541579
409732	0.54177
412098	0.541961
414477	0.542152
416869	0.542343
419276	0.542534
421697	0.542724
424131	0.542915
426580	0.543105
429042	0.543296
431519	0.543486
434010	0.543676
436516	0.543865
439036	0.544055
441570	0.544245
444120	0.544434
446684	0.544624
449262	0.544813
451856	0.545002
454465	0.545191
457088	0.54538
459727	0.545568
462381	0.545757
465050	0.545946
467735	0.546134
470435	0.546322
473151	0.54651
475883	0.546698
478630	0.546886
481393	0.547074
484172	0.547261
486968	0.547449
489779	0.547636
492606	0.547823
495450	0.54801
498310	0.548197
501187	0.548384
504081	0.548571
506991	0.548757
509918	0.548944
512861	0.54913
515822	0.549316
518800	0.549502
521795	0.549688
524807	0.549874
527837	0.55006
530884	0.550245
533949	0.550431
537032	0.550616
540132	0.550801
543250	0.550987
546387	0.551171
549541	0.551356
552713	0.551541
555904	0.551726
559114	0.55191
562341	0.552094
565588	0.552278
568853	0.552463
572137	0.552646
575440	0.55283
578762	0.553014
582103	0.553198
585464	0.553381
588844	0.553564
592243	0.553748
595662	0.553931
599101	0.554114
602560	0.554296
606038	0.554479
609537	0.554662
613056	0.554844
616595	0.555026
620155	0.555209
623735	0.555391
627336	0.555573
630957	0.555754
634600	0.555936
638263	0.556118
641948	0.556299
645654	0.55648
649382	0.556662
653131	0.556843
656901	0.557024
660693	0.557204
664508	0.557385
668344	0.557566
672202	0.557746
676083	0.557926
679986	0.558107
683912	0.558287
687860	0.558467
691831	0.558646
695825	0.558826
699842	0.559006
703882	0.559185
707946	0.559364
712033	0.559544
716143	0.559723
720278	0.559902
724436	0.560081
728618	0.560259
732825	0.560438
737055	0.560616
741310	0.560795
745590	0.560973
749894	0.561151
754223	0.561329
758578	0.561507
762957	0.561684
767361	0.561862
771792	0.562039
776247	0.562217
780728	0.562394
785236	0.562571
789769	0.562748
794328	0.562925
798914	0.563102
803526	0.563278
808165	0.563455
812831	0.563631
817523	0.563807
822243	0.563983
826990	0.564159
831764	0.564335
836566	0.564511
841395	0.564687
846253	0.564862
851138	0.565037
856052	0.565213
860994	0.565388
865964	0.565563
870964	0.565738
875992	0.565912
881049	0.566087
886135	0.566261
891251	0.566436
896396	0.56661
901571	0.566784
906776	0.566958
912011	0.567132
917276	0.567306
922571	0.56748
927897	0.567653
933254	0.567826
938642	0.568
944061	0.568173
949511	0.568346
954993	0.568519
960506	0.568691
966051	0.568864
971628	0.569037
977237	0.569209
982879	0.569381
988553	0.569554
994260	0.569726
1e+06	0.569897
1.00577e+06	0.570069
1.01158e+06	0.570241
1.01742e+06	0.570412
1.02329e+06	0.570584
1.0292e+06	0.570755
1.03514e+06	0.570926
1.04112e+06	0.571097
1.04713e+06	0.571268
1.05317e+06	0.571439
1.05925e+06	0.57161
1.06537e+06	0.57178
1.07152e+06	0.571951
1.07771e+06	0.572121
1.08393e+06	0.572291
1.09018e+06	0.572461
1.09648e+06	0.572631
1.10281e+06	0.572801
1.10917e+06	0.572971
1.11558e+06	0.57314
1.12202e+06	0.57331
1.1285e+06	0.573479
1.13501e+06	0.573649
1.14156e+06	0.573818
1.14815e+06	0.573987
1.15478e+06	0.574155
1.16145e+06	0.574324
1.16815e+06	0.574493
1.1749e+06	0.574661
1.18168e+06	0.57483
1.1885e+06	0.574998
1.19536e+06	0.575166
1.20226e+06	0.575334
1.20921e+06	0.575502
1.21619e+06	0.57567
1.22321e+06	0.575837
1.23027e+06	0.576005
1.23737e+06	0.576172
1.24451e+06	0.576339
1.2517e+06	0.576506
1.25893e+06	0.576673
1.26619e+06	0.57684
1.2735e+06	0.577007
1.28086e+06	0.577174
1.28825e+06	0.57734
1.29569e+06	0.577507
1.30317e+06	0.577673
1.31069e+06	0.577839
1.31826e+06	0.578005
1.32587e+06	0.578171
1.33352e+06	0.578337
1.34122e+06	0.578503
1.34896e+06	0.578668
1.35675e+06	0.578834
1.36458e+06	0.578999
1.37246e+06	0.579164
1.38038e+06	0.579329
1.38835e+06	0.579494
1.39637e+06	0.579659
1.40443e+06	0.579823
1.41254e+06	0.579988
1.42069e+06	0.580152
1.42889e+06	0.580317
1.43714e+06	0.580481
1.44544e+06	0.580645
1.45378e+06	0.580809
1.46218e+06	0.580973
1.47062e+06	0.581137
1.47911e+06	0.5813
1.48765e+06	0.581464
1.49624e+06	0.581627
1.50487e+06	0.58179
1.51356e+06	0.581953
1.5223e+06	0.582116
1.53109e+06	0.582279
1.53993e+06	0.582442
1.54882e+06	0.582604
1.55776e+06	0.582767
1.56675e+06	0.582929
1.5758e+06	0.583091
1.58489e+06	0.583253
1.59404e+06	0.583415
1.60325e+06	0.583577
1.6125e+06	0.583739
1.62181e+06	0.5839
1.63117e+06	0.584062
1.64059e+06	0.584223
1.65006e+06	0.584384
1.65959e+06	0.584545
1.66917e+06	0.584706
1.6788e+06	0.584867
1.6885e+06	0.585028
1.69824e+06	0.585188
1.70805e+06	0.585349
1.71791e+06	0.585509
1.72783e+06	0.585669
1.7378e+06	0.585829
1.74783e+06	0.585989
1.75792e+06	0.586149
1.76807e+06	0.586309
1.77828e+06	0.586468
1.78855e+06	0.586627
1.79887e+06	0.586787
1.80926e+06	0.586946
1.8197e+06	0.587105
1.83021e+06	0.587264
1.84077e+06	0.587423
1.8514e+06	0.587581
1.86209e+06	0.58774
1.87284e+06	0.587898
1.88365e+06	0.588056
1.89452e+06	0.588214
1.90546e+06	0.588372
1.91646e+06	0.58853
1.92752e+06	0.588688
1.93865e+06	0.588846
1.94984e+06	0.589003
1.9611e+06	0.58916
1.97242e+06	0.589317
1.98381e+06	0.589475
1.99526e+06	0.589632
2.00678e+06	0.589788
2.01837e+06	0.589945
2.03002e+06	0.590102
2.04174e+06	0.590258
2.05353e+06	0.590414
2.06538e+06	0.59057
2.0773e+06	0.590726
2.0893e+06	0.590882
2.10136e+06	0.591038
2.11349e+06	0.591194
2.12569e+06	0.591349
2.13796e+06	0.591505
2.1503e+06	0.59166
2.16272e+06	0.591815
2.1752e+06	0.59197
2.18776e+06	0.592125
2.20039e+06	0.592279
2.21309e+06	0.592434
2.22587e+06	0.592588
2.23872e+06	0.592743
2.25165e+06	0.592897
2.26464e+06	0.593051
2.27772e+06	0.593205
2.29087e+06	0.593359
2.30409e+06	0.593512
2.31739e+06	0.593666
2.33077e+06	0.593819
2.34423e+06	0.593973
2.35776e+06	0.594126
2.37137e+06	0.594279
2.38506e+06	0.594432
2.39883e+06	0.594584
2.41268e+06	0.594737
2.42661e+06	0.594889
2.44062e+06	0.595042
2.45471e+06	0.595194
2.46888e+06	0.595346
2.48313e+06	0.595498
2.49747e+06	0.59565
2.51189e+06	0.595801
2.52639e+06	0.595953
2.54097e+06	0.596104
2.55564e+06	0.596256
2.5704e+06	0.596407
2.58523e+06	0.596558
2.60016e+06	0.596709
2.61517e+06	0.596859
2.63027e+06	0.59701
2.64545e+06	0.597161
2.66073e+06	0.597311
2.67609e+06	0.597461
2.69153e+06	0.597611
2.70707e+06	0.597761
2.7227e+06	0.597911
2.73842e+06	0.598061
2.75423e+06	0.59821
2.77013e+06	0.59836
2.78612e+06	0.598509
2.80221e+06	0.598658
2.81838e+06	0.598807
2.83465e+06	0.598956
2.85102e+06	0.599105
2.86748e+06	0.599253
2.88403e+06	0.599402
2.90068e+06	0.59955
2.91743e+06	0.599699
2.93427e+06	0.599847
2.95121e+06	0.599995
2.96825e+06	0.600143
2.98538e+06	0.60029
3.00262e+06	0.600438
3.01995e+06	0.600585
3.03739e+06	0.600733
3.05492e+06	0.60088
3.07256e+06	0.601027
3.0903e+06	0.601174
3.10814e+06	0.60132
3.12608e+06	0.601467
3.14413e+06	0.601614
3.16228e+06	0.60176
3.18053e+06	0.601906
3.1989e+06	0.602052
3.21736e+06	0.602198
3.23594e+06	0.602344
3.25462e+06	0.60249
3.27341e+06	0.602636
3.2923e+06	0.602781
3.31131e+06	0.602926
3.33043e+06	0.603072
3.34965e+06	0.603217
3.36899e+06	0.603362
3.38844e+06	0.603506
3.408e+06	0.603651
3.42768e+06	0.603796
3.44747e+06	0.60394
3.46737e+06	0.604084
3.48739e+06	0.604229
3.50752e+06	0.604373
3.52777e+06	0.604516
3.54813e+06	0.60466
3.56862e+06	0.604804
3.58922e+06	0.604947
3.60994e+06	0.605091
3.63078e+06	0.605234
3.65174e+06	0.605377
3.67282e+06	0.60552
3.69403e+06	0.605663
3.71535e+06	0.605806
3.7368e+06	0.605948
3.75837e+06	0.606091
3.78007e+06	0.606233
3.80189e+06	0.606375
3.82384e+06	0.606517
3.84592e+06	0.606659
3.86812e+06	0.606801
3.89045e+06	0.606943
3.91291e+06	0.607084
3.9355e+06	0.607226
3.95822e+06	0.607367
3.98107e+06	0.607482
4.00405e+06	0.607457
4.02717e+06	0.607432
4.05042e+06	0.607408
4.0738e+06	0.607384
4.09732e+06	0.60736
4.12098e+06	0.607337
4.14477e+06	0.607314
4.16869e+06	0.607291
4.19276e+06	0.607268
4.21697e+06	0.607246
4.24131e+06	0.607224
4.2658e+06	0.607202
4.29042e+06	0.60718
4.31519e+06	0.607159
4.3401e+06	0.607138
4.36516e+06	0.607117
4.39036e+06	0.607096
4.4157e+06	0.607076
4.4412e+06	0.607056
4.46684e+06	0.607036
4.49262e+06	0.607016
4.51856e+06	0.606997
4.54465e+06	0.606977
4.57088e+06	0.606958
4.59727e+06	0.606939
4.62381e+06	0.606921
4.6505e+06	0.606902
4.67735e+06	0.606884
4.70435e+06	0.606866
4.73151e+06	0.606849
4.75883e+06	0.606831
4.7863e+06	0.606814
4.81393e+06	0.606796
4.84172e+06	0.606779
4.86968e+06	0.606763
4.89779e+06	0.606746
4.92606e+06	0.60673
4.9545e+06	0.606714
4.9831e+06	0.606697
5.01187e+06	0.606682
5.04081e+06	0.606666
5.06991e+06	0.606651
5.09918e+06	0.606635
5.12861e+06	0.60662
5.15822e+06	0.606605
5.188e+06	0.60659
5.21795e+06	0.606576
5.24807e+06	0.606561
5.27837e+06	0.606547
5.30884e+06	0.606533
5.33949e+06	0.606519
5.37032e+06	0.606505
5.40132e+06	0.606491
5.4325e+06	0.606478
5.46387e+06	0.606465
5.49541e+06	0.606451
5.52713e+06	0.606438
5.55904e+06	0.606426
5.59114e+06	0.606413
5.62341e+06	0.6064
5.65588e+06	0.606388
5.68853e+06	0.606376
5.72137e+06	0.606363
5.7544e+06	0.606351
5.78762e+06	0.606339
5.82103e+06	0.606328
5.85464e+06	0.606316
5.88844e+06	0.606305
5.92243e+06	0.606293
5.95662e+06	0.606282
5.99101e+06	0.606271
6.0256e+06	0.60626
6.06038e+06	0.606249
6.09537e+06	0.606238
6.13056e+06	0.606228
6.16595e+06	0.606217
6.20155e+06	0.606207
6.23735e+06	0.606197
6.27336e+06	0.606187
6.30957e+06	0.606177
6.346e+06	0.606167
6.38263e+06	0.606157
6.41948e+06	0.606147
6.45654e+06	0.606138
6.49382e+06	0.606128
6.53131e+06	0.606119
6.56901e+06	0.60611
6.60693e+06	0.606101
6.64508e+06	0.606092
6.68344e+06	0.606083
6.72202e+06	0.606074
6.76083e+06	0.606065
6.79986e+06	0.606057
6.83912e+06	0.606048
6.8786e+06	0.60604
6.91831e+06	0.606031
6.95825e+06	0.606023
6.99842e+06	0.606015
7.03882e+06	0.606007
7.07946e+06	0.605999
7.12033e+06	0.605991
7.16143e+06	0.605984
7.20278e+06	0.605976
7.24436e+06	0.605968
7.28618e+06	0.605961
7.32825e+06	0.605953
7.37055e+06	0.605946
7.4131e+06	0.605939
7.4559e+06	0.605932
7.49894e+06	0.605925
7.54223e+06	0.605918
7.58578e+06	0.605911
7.62957e+06	0.605904
7.67361e+06	0.605897
7.71792e+06	0.60589
7.76247e+06	0.605884
7.80728e+06	0.605877
7.85236e+06	0.605871
7.89769e+06	0.605864
7.94328e+06	0.605858
7.98914e+06	0.605852
8.03526e+06	0.605846
8.08165e+06	0.60584
8.12831e+06	0.605834
8.17523e+06	0.605828
8.22243e+06	0.605822
8.2699e+06	0.605816
8.31764e+06	0.60581
8.36566e+06	0.605804
8.41395e+06	0.605799
8.46253e+06	0.605793
8.51138e+06	0.605788
8.56052e+06	0.605782
8.60994e+06	0.605777
8.65964e+06	0.605772
8.70964e+06	0.605766
8.75992e+06	0.605761
8.81049e+06	0.605756
8.86135e+06	0.605751
8.91251e+06	0.605746
8.96396e+06	0.605741
9.01571e+06	0.605736
9.06776e+06	0.605731
9.12011e+06	0.605727
9.17276e+06	0.605722
9.22571e+06	0.605717
9.27897e+06	0.605712
9.33254e+06	0.605708
9.38642e+06	0.605703
9.44061e+06	0.605699
9.49511e+06	0.605695
9.54993e+06	0.60569
9.60506e+06	0.605686
9.66051e+06	0.605682
9.71628e+06	0.605677
9.77237e+06	0.605673
9.82879e+06	0.605669
9.88553e+06	0.605665
9.9426e+06	0.605661
1e+07	0.605657
