Stopping power dEdx from Ionisation for F19[0.0] Z = 9 in G4_TISSUE_SOFT_ICRP, process name: ionIoni
E [MeV]	dEdx [MeV/mm]
0.001	47.5836
0.00100577	47.7207
0.00101158	47.8583
0.00101742	47.9962
0.00102329	48.1345
0.0010292	48.2733
0.00103514	48.4124
0.00104112	48.552
0.00104713	48.6919
0.00105317	48.8323
0.00105925	48.973
0.00106537	49.1142
0.00107152	49.2557
0.00107771	49.3977
0.00108393	49.5401
0.00109018	49.6829
0.00109648	49.8261
0.00110281	49.9697
0.00110917	50.1137
0.00111558	50.2582
0.00112202	50.4031
0.0011285	50.5483
0.00113501	50.694
0.00114156	50.8402
0.00114815	50.9867
0.00115478	51.1337
0.00116145	51.281
0.00116815	51.4289
0.0011749	51.5771
0.00118168	51.7258
0.0011885	51.8749
0.00119536	52.0244
0.00120226	52.1743
0.00120921	52.3247
0.00121619	52.4755
0.00122321	52.6268
0.00123027	52.7785
0.00123737	52.9306
0.00124451	53.0832
0.0012517	53.2362
0.00125893	53.3896
0.00126619	53.5435
0.0012735	53.6978
0.00128086	53.8526
0.00128825	54.0078
0.00129569	54.1635
0.00130317	54.3196
0.00131069	54.4762
0.00131826	54.6332
0.00132587	54.7907
0.00133352	54.9486
0.00134122	55.107
0.00134896	55.2659
0.00135675	55.4251
0.00136458	55.5849
0.00137246	55.7451
0.00138038	55.9058
0.00138835	56.0669
0.00139637	56.2285
0.00140443	56.3906
0.00141254	56.5532
0.00142069	56.7162
0.00142889	56.8796
0.00143714	57.0436
0.00144544	57.208
0.00145378	57.3729
0.00146218	57.5383
0.00147062	57.7041
0.00147911	57.8705
0.00148765	58.0373
0.00149624	58.2045
0.00150487	58.3723
0.00151356	58.5406
0.0015223	58.7093
0.00153109	58.8785
0.00153993	59.0482
0.00154882	59.2184
0.00155776	59.3891
0.00156675	59.5603
0.0015758	59.732
0.00158489	59.9041
0.00159404	60.0768
0.00160325	60.25
0.0016125	60.4236
0.00162181	60.5978
0.00163117	60.7725
0.00164059	60.9476
0.00165006	61.1233
0.00165959	61.2995
0.00166917	61.4762
0.0016788	61.6534
0.0016885	61.8311
0.00169824	62.0093
0.00170805	62.188
0.00171791	62.3673
0.00172783	62.5471
0.0017378	62.7273
0.00174783	62.9081
0.00175792	63.0895
0.00176807	63.2713
0.00177828	63.4537
0.00178855	63.6366
0.00179887	63.82
0.00180926	64.004
0.0018197	64.1884
0.00183021	64.3735
0.00184077	64.559
0.0018514	64.7451
0.00186209	64.9317
0.00187284	65.1189
0.00188365	65.3066
0.00189452	65.4948
0.00190546	65.6836
0.00191646	65.8729
0.00192752	66.0628
0.00193865	66.2532
0.00194984	66.4442
0.0019611	66.6357
0.00197242	66.8278
0.00198381	67.0204
0.00199526	67.2136
0.00200678	67.4073
0.00201837	67.6016
0.00203002	67.7964
0.00204174	67.9919
0.00205353	68.1878
0.00206538	68.3844
0.0020773	68.5815
0.0020893	68.7792
0.00210136	68.9774
0.00211349	69.1762
0.00212569	69.3756
0.00213796	69.5756
0.0021503	69.7761
0.00216272	69.9772
0.0021752	70.1789
0.00218776	70.3812
0.00220039	70.5841
0.00221309	70.7875
0.00222587	70.9916
0.00223872	71.1962
0.00225165	71.4014
0.00226464	71.6072
0.00227772	71.8136
0.00229087	72.0206
0.00230409	72.2282
0.00231739	72.4364
0.00233077	72.6452
0.00234423	72.8546
0.00235776	73.0646
0.00237137	73.2752
0.00238506	73.4864
0.00239883	73.6982
0.00241268	73.9106
0.00242661	74.1237
0.00244062	74.3373
0.00245471	74.5516
0.00246888	74.7665
0.00248313	74.982
0.00249747	75.1981
0.00251189	75.4148
0.00252639	75.6322
0.00254097	75.8502
0.00255564	76.0689
0.0025704	76.2881
0.00258523	76.508
0.00260016	76.7285
0.00261517	76.9497
0.00263027	77.1715
0.00264545	77.3939
0.00266073	77.617
0.00267609	77.8407
0.00269153	78.0651
0.00270707	78.2901
0.0027227	78.5158
0.00273842	78.7421
0.00275423	78.969
0.00277013	79.1967
0.00278612	79.4249
0.00280221	79.6539
0.00281838	79.8835
0.00283465	80.1137
0.00285102	80.3446
0.00286748	80.5762
0.00288403	80.8085
0.00290068	81.0414
0.00291743	81.275
0.00293427	81.5092
0.00295121	81.7442
0.00296825	81.9798
0.00298538	82.2161
0.00300262	82.4531
0.00301995	82.6907
0.00303739	82.9291
0.00305492	83.1681
0.00307256	83.4078
0.0030903	83.6483
0.00310814	83.8894
0.00312608	84.1312
0.00314413	84.3737
0.00316228	84.6169
0.00318053	84.8608
0.0031989	85.1054
0.00321736	85.3507
0.00323594	85.5967
0.00325462	85.8434
0.00327341	86.0908
0.0032923	86.339
0.00331131	86.5878
0.00333043	86.8374
0.00334965	87.0877
0.00336899	87.3387
0.00338844	87.5905
0.003408	87.8429
0.00342768	88.0961
0.00344747	88.3501
0.00346737	88.6047
0.00348739	88.8601
0.00350752	89.1162
0.00352777	89.3731
0.00354813	89.6307
0.00356862	89.8891
0.00358922	90.1482
0.00360994	90.408
0.00363078	90.6686
0.00365174	90.9299
0.00367282	91.192
0.00369403	91.4549
0.00371535	91.7185
0.0037368	91.9829
0.00375837	92.248
0.00378007	92.5139
0.00380189	92.7805
0.00382384	93.048
0.00384592	93.3162
0.00386812	93.5851
0.00389045	93.8549
0.00391291	94.1254
0.0039355	94.3967
0.00395822	94.6688
0.00398107	94.9417
0.00400405	95.2153
0.00402717	95.4898
0.00405042	95.765
0.0040738	96.041
0.00409732	96.3179
0.00412098	96.5955
0.00414477	96.8739
0.00416869	97.1531
0.00419276	97.4332
0.00421697	97.714
0.00424131	97.9957
0.0042658	98.2781
0.00429042	98.5614
0.00431519	98.8455
0.0043401	99.1304
0.00436516	99.4161
0.00439036	99.7027
0.0044157	99.9901
0.0044412	100.278
0.00446684	100.567
0.00449262	100.857
0.00451856	101.148
0.00454465	101.439
0.00457088	101.732
0.00459727	102.025
0.00462381	102.319
0.0046505	102.614
0.00467735	102.91
0.00470435	103.206
0.00473151	103.504
0.00475883	103.799
0.0047863	104.091
0.00481393	104.384
0.00484172	104.677
0.00486968	104.972
0.00489779	105.267
0.00492606	105.563
0.0049545	105.86
0.0049831	106.158
0.00501187	106.457
0.00504081	106.757
0.00506991	107.057
0.00509918	107.358
0.00512861	107.661
0.00515822	107.964
0.005188	108.268
0.00521795	108.573
0.00524807	108.878
0.00527837	109.185
0.00530884	109.492
0.00533949	109.801
0.00537032	110.11
0.00540132	110.42
0.0054325	110.731
0.00546387	111.043
0.00549541	111.356
0.00552713	111.669
0.00555904	111.984
0.00559114	112.3
0.00562341	112.616
0.00565588	112.933
0.00568853	113.252
0.00572137	113.571
0.0057544	113.891
0.00578762	114.212
0.00582103	114.534
0.00585464	114.857
0.00588844	115.181
0.00592243	115.505
0.00595662	115.831
0.00599101	116.158
0.0060256	116.485
0.00606038	116.814
0.00609537	117.143
0.00613056	117.474
0.00616595	117.805
0.00620155	118.137
0.00623735	118.471
0.00627336	118.805
0.00630957	119.14
0.006346	119.476
0.00638263	119.813
0.00641948	120.152
0.00645654	120.491
0.00649382	120.831
0.00653131	121.172
0.00656901	121.514
0.00660693	121.857
0.00664508	122.201
0.00668344	122.546
0.00672202	122.892
0.00676083	123.239
0.00679986	123.587
0.00683912	123.936
0.0068786	124.286
0.00691831	124.637
0.00695825	124.989
0.00699842	125.342
0.00703882	125.696
0.00707946	126.051
0.00712033	126.408
0.00716143	126.765
0.00720278	127.123
0.00724436	127.482
0.00728618	127.842
0.00732825	128.204
0.00737055	128.566
0.0074131	128.93
0.0074559	129.294
0.00749894	129.66
0.00754223	130.026
0.00758578	130.394
0.00762957	130.763
0.00767361	131.132
0.00771792	131.503
0.00776247	131.875
0.00780728	132.248
0.00785236	132.622
0.00789769	132.997
0.00794328	133.374
0.00798914	133.751
0.00803526	134.129
0.00808165	134.509
0.00812831	134.89
0.00817523	135.271
0.00822243	135.654
0.0082699	136.038
0.00831764	136.423
0.00836566	136.809
0.00841395	137.197
0.00846253	137.585
0.00851138	137.975
0.00856052	138.365
0.00860994	138.757
0.00865964	139.15
0.00870964	139.544
0.00875992	139.939
0.00881049	140.336
0.00886135	140.733
0.00891251	141.132
0.00896396	141.532
0.00901571	141.933
0.00906776	142.335
0.00912011	142.738
0.00917276	143.143
0.00922571	143.548
0.00927897	143.955
0.00933254	144.363
0.00938642	144.772
0.00944061	145.183
0.00949511	145.594
0.00954993	146.007
0.00960506	146.421
0.00966051	146.836
0.00971628	147.253
0.00977237	147.67
0.00982879	148.089
0.00988553	148.509
0.0099426	148.93
0.01	149.353
0.0100577	149.776
0.0101158	150.201
0.0101742	150.627
0.0102329	151.055
0.010292	151.483
0.0103514	151.913
0.0104112	152.345
0.0104713	152.777
0.0105317	153.211
0.0105925	153.645
0.0106537	154.082
0.0107152	154.519
0.0107771	154.958
0.0108393	155.398
0.0109018	155.839
0.0109648	156.282
0.0110281	156.725
0.0110917	157.17
0.0111558	157.617
0.0112202	158.065
0.011285	158.514
0.0113501	158.964
0.0114156	159.416
0.0114815	159.869
0.0115478	160.323
0.0116145	160.778
0.0116815	161.235
0.011749	161.694
0.0118168	162.153
0.011885	162.614
0.0119536	163.076
0.0120226	163.54
0.0120921	164.005
0.0121619	164.471
0.0122321	164.939
0.0123027	165.408
0.0123737	165.878
0.0124451	166.35
0.012517	166.823
0.0125893	167.298
0.0126619	167.774
0.012735	168.251
0.0128086	168.73
0.0128825	169.21
0.0129569	169.691
0.0130317	170.174
0.0131069	170.658
0.0131826	171.144
0.0132587	171.631
0.0133352	172.12
0.0134122	172.61
0.0134896	173.101
0.0135675	173.594
0.0136458	174.088
0.0137246	174.584
0.0138038	175.081
0.0138835	175.579
0.0139637	176.079
0.0140443	176.581
0.0141254	177.084
0.0142069	177.588
0.0142889	178.094
0.0143714	178.602
0.0144544	179.111
0.0145378	179.621
0.0146218	180.133
0.0147062	180.646
0.0147911	181.161
0.0148765	181.677
0.0149624	182.195
0.0150487	182.714
0.0151356	183.235
0.015223	183.758
0.0153109	184.282
0.0153993	184.807
0.0154882	185.334
0.0155776	185.863
0.0156675	186.393
0.015758	186.924
0.0158489	187.457
0.0159404	187.992
0.0160325	188.528
0.016125	189.066
0.0162181	189.606
0.0163117	190.147
0.0164059	190.689
0.0165006	191.233
0.0165959	191.779
0.0166917	192.327
0.016788	192.876
0.016885	193.426
0.0169824	193.978
0.0170805	194.532
0.0171791	195.087
0.0172783	195.644
0.017378	196.203
0.0174783	196.763
0.0175792	197.325
0.0176807	197.889
0.0177828	198.454
0.0178855	199.021
0.0179887	199.59
0.0180926	200.16
0.018197	200.732
0.0183021	201.305
0.0184077	201.88
0.018514	202.457
0.0186209	203.036
0.0187284	203.616
0.0188365	204.198
0.0189452	204.782
0.0190546	205.116
0.0191646	205.252
0.0192752	205.39
0.0193865	205.53
0.0194984	205.671
0.019611	205.813
0.0197242	205.956
0.0198381	206.101
0.0199526	206.248
0.0200678	206.396
0.0201837	206.545
0.0203002	206.695
0.0204174	206.847
0.0205353	206.999
0.0206538	207.154
0.020773	207.309
0.020893	207.465
0.0210136	207.623
0.0211349	207.782
0.0212569	207.942
0.0213796	208.104
0.021503	208.266
0.0216272	208.43
0.021752	208.594
0.0218776	208.76
0.0220039	208.927
0.0221309	209.095
0.0222587	209.264
0.0223872	209.434
0.0225165	209.605
0.0226464	209.777
0.0227772	209.951
0.0229087	210.125
0.0230409	210.3
0.0231739	210.476
0.0233077	210.653
0.0234423	210.831
0.0235776	211.01
0.0237137	211.19
0.0238506	211.371
0.0239883	211.553
0.0241268	211.736
0.0242661	211.919
0.0244062	212.104
0.0245471	212.289
0.0246888	212.476
0.0248313	212.663
0.0249747	212.851
0.0251189	213.04
0.0252639	213.23
0.0254097	213.42
0.0255564	213.612
0.025704	213.804
0.0258523	213.997
0.0260016	214.191
0.0261517	214.386
0.0263027	214.581
0.0264545	214.777
0.0266073	214.974
0.0267609	215.172
0.0269153	215.371
0.0270707	215.57
0.027227	215.771
0.0273842	215.972
0.0275423	216.173
0.0277013	216.376
0.0278612	216.579
0.0280221	216.783
0.0281838	216.988
0.0283465	217.193
0.0285102	217.4
0.0286748	217.606
0.0288403	217.814
0.0290068	218.023
0.0291743	218.232
0.0293427	218.442
0.0295121	218.652
0.0296825	218.863
0.0298538	219.075
0.0300262	219.288
0.0301995	219.502
0.0303739	219.716
0.0305492	219.931
0.0307256	220.146
0.030903	220.362
0.0310814	220.579
0.0312608	220.797
0.0314413	221.015
0.0316228	221.235
0.0318053	221.454
0.031989	221.675
0.0321736	221.896
0.0323594	222.118
0.0325462	222.34
0.0327341	222.564
0.032923	222.787
0.0331131	223.012
0.0333043	223.237
0.0334965	223.463
0.0336899	223.69
0.0338844	223.918
0.03408	224.146
0.0342768	224.374
0.0344747	224.604
0.0346737	224.834
0.0348739	225.065
0.0350752	225.297
0.0352777	225.529
0.0354813	225.762
0.0356862	225.996
0.0358922	226.23
0.0360994	226.465
0.0363078	226.701
0.0365174	226.938
0.0367282	227.175
0.0369403	227.413
0.0371535	227.652
0.037368	227.891
0.0375837	228.131
0.0378007	228.372
0.0380189	228.614
0.0382384	228.856
0.0384592	229.099
0.0386812	229.343
0.0389045	229.587
0.0391291	229.832
0.039355	230.078
0.0395822	230.325
0.0398107	230.572
0.0400405	230.821
0.0402717	231.07
0.0405042	231.319
0.040738	231.57
0.0409732	231.821
0.0412098	232.073
0.0414477	232.326
0.0416869	232.579
0.0419276	232.834
0.0421697	233.089
0.0424131	233.345
0.042658	233.601
0.0429042	233.859
0.0431519	234.117
0.043401	234.376
0.0436516	234.636
0.0439036	234.897
0.044157	235.158
0.044412	235.42
0.0446684	235.684
0.0449262	235.947
0.0451856	236.212
0.0454465	236.478
0.0457088	236.744
0.0459727	237.011
0.0462381	237.28
0.046505	237.548
0.0467735	237.818
0.0470435	238.089
0.0473151	238.36
0.0475883	238.633
0.047863	238.906
0.0481393	239.18
0.0484172	239.455
0.0486968	239.731
0.0489779	240.008
0.0492606	240.286
0.049545	240.564
0.049831	240.844
0.0501187	241.124
0.0504081	241.406
0.0506991	241.688
0.0509918	241.971
0.0512861	242.255
0.0515822	242.54
0.05188	242.826
0.0521795	243.113
0.0524807	243.401
0.0527837	243.69
0.0530884	243.98
0.0533949	244.271
0.0537032	244.563
0.0540132	244.855
0.054325	245.149
0.0546387	245.444
0.0549541	245.74
0.0552713	246.036
0.0555904	246.334
0.0559114	246.633
0.0562341	246.933
0.0565588	247.234
0.0568853	247.535
0.0572137	247.838
0.057544	248.142
0.0578762	248.447
0.0582103	248.753
0.0585464	249.06
0.0588844	249.369
0.0592243	249.678
0.0595662	249.988
0.0599101	250.3
0.060256	250.612
0.0606038	250.926
0.0609537	251.241
0.0613056	251.556
0.0616595	251.873
0.0620155	252.191
0.0623735	252.511
0.0627336	252.831
0.0630957	253.152
0.06346	253.475
0.0638263	253.799
0.0641948	254.124
0.0645654	254.45
0.0649382	254.777
0.0653131	255.106
0.0656901	255.435
0.0660693	255.766
0.0664508	256.098
0.0668344	256.431
0.0672202	256.766
0.0676083	257.101
0.0679986	257.438
0.0683912	257.776
0.068786	258.116
0.0691831	258.456
0.0695825	258.798
0.0699842	259.141
0.0703882	259.486
0.0707946	259.831
0.0712033	260.178
0.0716143	260.526
0.0720278	260.876
0.0724436	261.227
0.0728618	261.579
0.0732825	261.932
0.0737055	262.287
0.074131	262.643
0.074559	263
0.0749894	263.359
0.0754223	263.719
0.0758578	264.08
0.0762957	264.443
0.0767361	264.807
0.0771792	265.172
0.0776247	265.539
0.0780728	265.907
0.0785236	266.276
0.0789769	266.647
0.0794328	267.02
0.0798914	267.393
0.0803526	267.768
0.0808165	268.145
0.0812831	268.523
0.0817523	268.902
0.0822243	269.283
0.082699	269.665
0.0831764	270.049
0.0836566	270.434
0.0841395	270.821
0.0846253	271.209
0.0851138	271.599
0.0856052	271.99
0.0860994	272.382
0.0865964	272.776
0.0870964	273.172
0.0875992	273.569
0.0881049	273.967
0.0886135	274.367
0.0891251	274.769
0.0896396	275.172
0.0901571	275.577
0.0906776	275.983
0.0912011	276.391
0.0917276	276.8
0.0922571	277.211
0.0927897	277.624
0.0933254	278.038
0.0938642	278.453
0.0944061	278.871
0.0949511	279.289
0.0954993	279.71
0.0960506	280.132
0.0966051	280.556
0.0971628	280.981
0.0977237	281.408
0.0982879	281.836
0.0988553	282.266
0.099426	282.698
0.1	283.132
0.100577	283.567
0.101158	284.004
0.101742	284.442
0.102329	284.883
0.10292	285.324
0.103514	285.768
0.104112	286.213
0.104713	286.66
0.105317	287.109
0.105925	287.559
0.106537	288.011
0.107152	288.465
0.107771	288.921
0.108393	289.378
0.109018	289.837
0.109648	290.298
0.110281	290.761
0.110917	291.225
0.111558	291.692
0.112202	292.16
0.11285	292.629
0.113501	293.101
0.114156	293.574
0.114815	294.049
0.115478	294.526
0.116145	295.005
0.116815	295.486
0.11749	295.968
0.118168	296.453
0.11885	296.939
0.119536	297.427
0.120226	297.917
0.120921	298.408
0.121619	298.902
0.122321	299.397
0.123027	299.895
0.123737	300.394
0.124451	300.895
0.12517	301.398
0.125893	301.903
0.126619	302.41
0.12735	302.919
0.128086	303.429
0.128825	303.942
0.129569	304.457
0.130317	304.973
0.131069	305.492
0.131826	306.012
0.132587	306.534
0.133352	307.059
0.134122	307.585
0.134896	308.113
0.135675	308.644
0.136458	309.176
0.137246	309.71
0.138038	310.246
0.138835	310.785
0.139637	311.325
0.140443	311.867
0.141254	312.411
0.142069	312.958
0.142889	313.506
0.143714	314.057
0.144544	314.609
0.145378	315.164
0.146218	315.72
0.147062	316.279
0.147911	316.839
0.148765	317.402
0.149624	317.967
0.150487	318.534
0.151356	319.103
0.15223	319.674
0.153109	320.247
0.153993	320.823
0.154882	321.4
0.155776	321.98
0.156675	322.561
0.15758	323.145
0.158489	323.731
0.159404	324.319
0.160325	324.91
0.16125	325.502
0.162181	326.096
0.163117	326.693
0.164059	327.292
0.165006	327.893
0.165959	328.496
0.166917	329.101
0.16788	329.709
0.16885	330.319
0.169824	330.931
0.170805	331.545
0.171791	332.161
0.172783	332.78
0.17378	333.4
0.174783	334.023
0.175792	334.648
0.176807	335.276
0.177828	335.905
0.178855	336.537
0.179887	337.171
0.180926	337.808
0.18197	338.446
0.183021	339.087
0.184077	339.73
0.18514	340.375
0.186209	341.023
0.187284	341.673
0.188365	342.325
0.189452	342.979
0.190546	343.636
0.191646	344.295
0.192752	344.956
0.193865	345.62
0.194984	346.285
0.19611	346.954
0.197242	347.624
0.198381	348.297
0.199526	348.972
0.200678	349.649
0.201837	350.329
0.203002	351.011
0.204174	351.695
0.205353	352.382
0.206538	353.071
0.20773	353.762
0.20893	354.455
0.210136	355.151
0.211349	355.85
0.212569	356.55
0.213796	357.253
0.21503	357.959
0.216272	358.666
0.21752	359.376
0.218776	360.089
0.220039	360.803
0.221309	361.52
0.222587	362.24
0.223872	362.962
0.225165	363.686
0.226464	364.412
0.227772	365.141
0.229087	365.873
0.230409	366.606
0.231739	367.342
0.233077	368.081
0.234423	368.821
0.235776	369.565
0.237137	370.31
0.238506	371.058
0.239883	371.808
0.241268	372.561
0.242661	373.316
0.244062	374.074
0.245471	374.834
0.246888	375.596
0.248313	376.36
0.249747	377.128
0.251189	377.897
0.252639	378.669
0.254097	379.443
0.255564	380.22
0.25704	380.999
0.258523	381.78
0.260016	382.564
0.261517	383.35
0.263027	384.139
0.264545	384.93
0.266073	385.723
0.267609	386.519
0.269153	387.317
0.270707	388.117
0.27227	388.92
0.273842	389.726
0.275423	390.533
0.277013	391.343
0.278612	392.156
0.280221	392.971
0.281838	393.788
0.283465	394.607
0.285102	395.429
0.286748	396.254
0.288403	397.08
0.290068	397.91
0.291743	398.741
0.293427	399.589
0.295121	401.012
0.296825	402.444
0.298538	403.886
0.300262	405.336
0.301995	406.796
0.303739	408.265
0.305492	409.744
0.307256	411.232
0.30903	412.729
0.310814	414.236
0.312608	415.752
0.314413	417.279
0.316228	418.815
0.318053	420.361
0.31989	421.917
0.321736	423.482
0.323594	425.058
0.325462	426.644
0.327341	428.241
0.32923	429.847
0.331131	431.465
0.333043	433.092
0.334965	434.73
0.336899	436.379
0.338844	438.038
0.3408	439.709
0.342768	441.39
0.344747	443.082
0.346737	444.785
0.348739	446.499
0.350752	448.225
0.352777	449.962
0.354813	451.71
0.356862	453.47
0.358922	455.241
0.360994	457.024
0.363078	458.819
0.365174	460.625
0.367282	462.444
0.369403	464.274
0.371535	466.117
0.37368	467.972
0.375837	469.839
0.378007	471.719
0.380189	473.611
0.382384	475.516
0.384592	477.433
0.386812	479.364
0.389045	481.307
0.391291	483.263
0.39355	485.232
0.395822	487.215
0.398107	489.211
0.400405	491.22
0.402717	493.243
0.405042	495.279
0.40738	497.329
0.409732	499.393
0.412098	501.471
0.414477	503.563
0.416869	505.67
0.419276	507.79
0.421697	509.925
0.424131	512.075
0.42658	514.239
0.429042	516.418
0.431519	518.612
0.43401	520.82
0.436516	523.044
0.439036	525.283
0.44157	527.538
0.44412	529.808
0.446684	532.093
0.449262	534.395
0.451856	536.712
0.454465	539.045
0.457088	541.394
0.459727	543.76
0.462381	546.141
0.46505	548.54
0.467735	550.955
0.470435	553.387
0.473151	555.835
0.475883	558.301
0.47863	560.597
0.481393	562.728
0.484172	564.87
0.486968	567.022
0.489779	569.184
0.492606	571.357
0.49545	573.541
0.49831	575.735
0.501187	577.94
0.504081	580.155
0.506991	582.381
0.509918	584.618
0.512861	586.866
0.515822	589.124
0.5188	591.393
0.521795	593.673
0.524807	595.964
0.527837	598.265
0.530884	600.578
0.533949	602.901
0.537032	605.235
0.540132	607.58
0.54325	609.936
0.546387	612.303
0.549541	614.681
0.552713	617.07
0.555904	619.471
0.559114	621.882
0.562341	624.304
0.565588	626.737
0.568853	629.182
0.572137	631.637
0.57544	634.104
0.578762	636.582
0.582103	639.071
0.585464	641.572
0.588844	644.083
0.592243	646.606
0.595662	649.14
0.599101	651.685
0.60256	654.242
0.606038	656.81
0.609537	659.389
0.613056	661.979
0.616595	664.581
0.620155	667.194
0.623735	669.819
0.627336	672.454
0.630957	675.102
0.6346	677.76
0.638263	680.43
0.641948	683.111
0.645654	685.804
0.649382	688.508
0.653131	691.223
0.656901	693.95
0.660693	696.689
0.664508	699.438
0.668344	702.199
0.672202	704.972
0.676083	707.756
0.679986	710.551
0.683912	713.357
0.68786	716.175
0.691831	719.005
0.695825	721.846
0.699842	724.698
0.703882	727.562
0.707946	730.436
0.712033	733.323
0.716143	736.22
0.720278	739.129
0.724436	742.05
0.728618	744.981
0.732825	747.373
0.737055	750.321
0.74131	753.28
0.74559	756.25
0.749894	759.231
0.754223	762.224
0.758578	765.227
0.762957	768.242
0.767361	771.268
0.771792	774.305
0.776247	777.353
0.780728	780.412
0.785236	783.482
0.789769	786.563
0.794328	789.655
0.798914	792.758
0.803526	795.872
0.808165	798.996
0.812831	802.132
0.817523	805.278
0.822243	808.435
0.82699	811.603
0.831764	814.781
0.836566	817.97
0.841395	821.17
0.846253	824.38
0.851138	827.601
0.856052	830.832
0.860994	834.074
0.865964	837.326
0.870964	840.588
0.875992	843.861
0.881049	847.144
0.886135	850.437
0.891251	853.74
0.896396	857.054
0.901571	860.377
0.906776	863.711
0.912011	867.054
0.917276	870.407
0.922571	873.77
0.927897	877.143
0.933254	880.526
0.938642	883.918
0.944061	887.319
0.949511	890.73
0.954993	894.151
0.960506	897.581
0.966051	901.02
0.971628	904.468
0.977237	907.926
0.982879	911.392
0.988553	914.868
0.99426	918.352
1	921.845
1.00577	925.347
1.01158	928.858
1.01742	932.377
1.02329	935.904
1.0292	939.44
1.03514	942.984
1.04112	946.537
1.04713	950.097
1.05317	953.666
1.05925	957.242
1.06537	960.826
1.07152	964.418
1.07771	968.018
1.08393	971.625
1.09018	975.239
1.09648	978.861
1.10281	982.49
1.10917	986.126
1.11558	989.769
1.12202	993.419
1.1285	997.075
1.13501	1000.74
1.14156	1004.41
1.14815	1008.08
1.15478	1011.77
1.16145	1015.46
1.16815	1019.15
1.1749	1022.85
1.18168	1026.56
1.1885	1030.27
1.19536	1033.99
1.20226	1037.71
1.20921	1041.44
1.21619	1045.17
1.22321	1048.91
1.23027	1052.65
1.23737	1056.4
1.24451	1060.15
1.2517	1063.9
1.25893	1067.66
1.26619	1071.43
1.2735	1075.2
1.28086	1078.97
1.28825	1082.75
1.29569	1086.53
1.30317	1090.31
1.31069	1094.09
1.31826	1097.88
1.32587	1101.67
1.33352	1105.47
1.34122	1109.27
1.34896	1113.06
1.35675	1116.87
1.36458	1120.67
1.37246	1124.47
1.38038	1128.28
1.38835	1132.09
1.39637	1135.9
1.40443	1139.71
1.41254	1143.52
1.42069	1147.33
1.42889	1151.15
1.43714	1154.96
1.44544	1158.77
1.45378	1162.59
1.46218	1166.4
1.47062	1170.21
1.47911	1174.02
1.48765	1177.84
1.49624	1181.65
1.50487	1185.46
1.51356	1189.26
1.5223	1193.07
1.53109	1196.88
1.53993	1200.68
1.54882	1204.48
1.55776	1208.28
1.56675	1212.07
1.5758	1215.87
1.58489	1219.66
1.59404	1223.45
1.60325	1227.23
1.6125	1231.01
1.62181	1234.78
1.63117	1238.56
1.64059	1242.32
1.65006	1246.09
1.65959	1249.85
1.66917	1253.6
1.6788	1257.35
1.6885	1261.09
1.69824	1264.83
1.70805	1268.56
1.71791	1272.29
1.72783	1276.01
1.7378	1279.72
1.74783	1283.43
1.75792	1287.13
1.76807	1290.82
1.77828	1294.51
1.78855	1298.18
1.79887	1301.85
1.80926	1305.52
1.8197	1309.17
1.83021	1312.81
1.84077	1316.45
1.8514	1320.08
1.86209	1323.69
1.87284	1327.3
1.88365	1330.9
1.89452	1334.49
1.90546	1338.07
1.91646	1341.64
1.92752	1345.2
1.93865	1348.74
1.94984	1352.28
1.9611	1355.8
1.97242	1359.31
1.98381	1362.82
1.99526	1366.3
2.00678	1369.78
2.01837	1373.25
2.03002	1376.7
2.04174	1380.13
2.05353	1383.56
2.06538	1386.97
2.0773	1390.37
2.0893	1393.75
2.10136	1397.12
2.11349	1400.48
2.12569	1403.82
2.13796	1407.15
2.1503	1410.46
2.16272	1413.75
2.1752	1417.03
2.18776	1420.3
2.20039	1423.54
2.21309	1426.78
2.22587	1429.99
2.23872	1433.19
2.25165	1436.37
2.26464	1439.54
2.27772	1442.68
2.29087	1445.81
2.30409	1448.92
2.31739	1452.02
2.33077	1455.09
2.34423	1458.15
2.35776	1461.19
2.37137	1464.21
2.38506	1467.21
2.39883	1470.19
2.41268	1473.15
2.42661	1476.09
2.44062	1479.01
2.45471	1481.91
2.46888	1484.79
2.48313	1487.65
2.49747	1490.49
2.51189	1493.31
2.52639	1496.1
2.54097	1498.88
2.55564	1501.63
2.5704	1504.36
2.58523	1507.07
2.60016	1509.76
2.61517	1512.43
2.63027	1515.07
2.64545	1517.69
2.66073	1520.28
2.67609	1522.86
2.69153	1525.41
2.70707	1527.93
2.7227	1530.44
2.73842	1532.92
2.75423	1535.37
2.77013	1537.8
2.78612	1540.21
2.80221	1542.59
2.81838	1544.95
2.83465	1547.28
2.85102	1549.59
2.86748	1551.87
2.88403	1554.13
2.90068	1556.36
2.91743	1558.56
2.93427	1560.74
2.95121	1562.9
2.96825	1565.03
2.98538	1567.13
3.00262	1569.2
3.01995	1571.25
3.03739	1573.28
3.05492	1575.27
3.07256	1577.24
3.0903	1579.18
3.10814	1581.1
3.12608	1582.99
3.14413	1584.85
3.16228	1586.68
3.18053	1588.49
3.1989	1590.27
3.21736	1592.02
3.23594	1593.74
3.25462	1595.44
3.27341	1597.11
3.2923	1598.74
3.31131	1600.36
3.33043	1601.94
3.34965	1603.5
3.36899	1605.02
3.38844	1606.52
3.408	1607.99
3.42768	1609.43
3.44747	1610.85
3.46737	1612.23
3.48739	1613.59
3.50752	1614.92
3.52777	1616.22
3.54813	1617.49
3.56862	1618.73
3.58922	1619.94
3.60994	1621.12
3.63078	1622.28
3.65174	1623.4
3.67282	1624.5
3.69403	1625.57
3.71535	1626.61
3.7368	1627.62
3.75837	1628.6
3.78007	1629.55
3.80189	1630.48
3.82384	1631.37
3.84592	1632.24
3.86812	1633.07
3.89045	1633.88
3.91291	1634.66
3.9355	1635.41
3.95822	1636.13
3.98107	1636.82
4.00405	1637.49
4.02717	1638.12
4.05042	1638.73
4.0738	1639.3
4.09732	1639.85
4.12098	1640.37
4.14477	1640.86
4.16869	1641.33
4.19276	1641.76
4.21697	1642.17
4.24131	1642.54
4.2658	1642.89
4.29042	1643.21
4.31519	1643.51
4.3401	1643.77
4.36516	1644.01
4.39036	1644.22
4.4157	1644.4
4.4412	1644.55
4.46684	1644.68
4.49262	1644.78
4.51856	1644.85
4.54465	1644.89
4.57088	1644.91
4.59727	1644.89
4.62381	1644.86
4.6505	1644.79
4.67735	1644.7
4.70435	1644.58
4.73151	1644.44
4.75883	1644.26
4.7863	1644.06
4.81393	1643.84
4.84172	1643.59
4.86968	1643.31
4.89779	1643.01
4.92606	1642.68
4.9545	1642.33
4.9831	1641.95
5.01187	1641.54
5.04081	1641.11
5.06991	1640.66
5.09918	1640.18
5.12861	1639.67
5.15822	1639.14
5.188	1638.59
5.21795	1638.01
5.24807	1637.41
5.27837	1636.78
5.30884	1636.13
5.33949	1635.46
5.37032	1634.76
5.40132	1634.04
5.4325	1633.29
5.46387	1632.53
5.49541	1631.74
5.52713	1630.92
5.55904	1630.09
5.59114	1629.23
5.62341	1628.35
5.65588	1627.45
5.68853	1626.52
5.72137	1625.58
5.7544	1624.61
5.78762	1623.62
5.82103	1622.61
5.85464	1621.58
5.88844	1620.53
5.92243	1619.46
5.95662	1618.37
5.99101	1617.25
6.0256	1616.12
6.06038	1614.97
6.09537	1613.8
6.13056	1609.58
6.16595	1608.42
6.20155	1607.23
6.23735	1606.02
6.27336	1604.8
6.30957	1603.55
6.346	1602.29
6.38263	1601
6.41948	1599.7
6.45654	1598.38
6.49382	1597.05
6.53131	1595.69
6.56901	1594.32
6.60693	1592.93
6.64508	1591.52
6.68344	1590.1
6.72202	1588.66
6.76083	1587.2
6.79986	1585.73
6.83912	1584.24
6.8786	1582.73
6.91831	1581.21
6.95825	1579.67
6.99842	1578.12
7.03882	1576.55
7.07946	1574.97
7.12033	1573.37
7.16143	1571.76
7.20278	1570.13
7.24436	1568.49
7.28618	1566.83
7.32825	1565.17
7.37055	1563.48
7.4131	1561.79
7.4559	1560.08
7.49894	1558.36
7.54223	1556.62
7.58578	1554.88
7.62957	1553.12
7.67361	1551.34
7.71792	1549.56
7.76247	1547.76
7.80728	1545.96
7.85236	1544.14
7.89769	1542.31
7.94328	1540.47
7.98914	1538.62
8.03526	1536.75
8.08165	1534.88
8.12831	1533
8.17523	1531.1
8.22243	1529.2
8.2699	1527.28
8.31764	1525.36
8.36566	1523.43
8.41395	1521.49
8.46253	1519.54
8.51138	1517.58
8.56052	1515.61
8.60994	1513.63
8.65964	1511.65
8.70964	1509.65
8.75992	1507.65
8.81049	1505.64
8.86135	1503.63
8.91251	1501.6
8.96396	1499.57
9.01571	1497.53
9.06776	1495.48
9.12011	1493.43
9.17276	1491.37
9.22571	1489.31
9.27897	1487.23
9.33254	1485.15
9.38642	1483.07
9.44061	1480.98
9.49511	1478.88
9.54993	1476.78
9.60506	1474.67
9.66051	1472.56
9.71628	1470.44
9.77237	1468.32
9.82879	1466.19
9.88553	1464.05
9.9426	1461.92
10	1459.77
10.0577	1457.63
10.1158	1455.48
10.1742	1453.32
10.2329	1451.16
10.292	1449
10.3514	1446.83
10.4112	1444.66
10.4713	1442.49
10.5317	1440.31
10.5925	1438.13
10.6537	1435.95
10.7152	1433.76
10.7771	1431.57
10.8393	1429.38
10.9018	1427.18
10.9648	1424.98
11.0281	1422.78
11.0917	1420.58
11.1558	1418.37
11.2202	1416.17
11.285	1413.96
11.3501	1411.75
11.4156	1409.53
11.4815	1407.32
11.5478	1405.1
11.6145	1402.88
11.6815	1400.66
11.749	1398.44
11.8168	1396.22
11.885	1393.99
11.9536	1391.77
12.0226	1389.54
12.0921	1387.31
12.1619	1385.09
12.2321	1382.86
12.3027	1380.63
12.3737	1378.4
12.4451	1376.16
12.517	1373.93
12.5893	1371.7
12.6619	1369.46
12.735	1367.23
12.8086	1365
12.8825	1362.76
12.9569	1360.53
13.0317	1358.29
13.1069	1356.06
13.1826	1353.82
13.2587	1351.59
13.3352	1349.35
13.4122	1347.11
13.4896	1344.88
13.5675	1342.64
13.6458	1340.41
13.7246	1338.17
13.8038	1335.94
13.8835	1333.71
13.9637	1331.47
14.0443	1329.24
14.1254	1327.01
14.2069	1324.77
14.2889	1322.54
14.3714	1320.31
14.4544	1318.08
14.5378	1315.85
14.6218	1313.62
14.7062	1311.39
14.7911	1309.16
14.8765	1306.93
14.9624	1304.71
15.0487	1302.48
15.1356	1300.26
15.223	1298.03
15.3109	1295.81
15.3993	1293.58
15.4882	1291.36
15.5776	1289.14
15.6675	1286.92
15.758	1284.7
15.8489	1282.48
15.9404	1280.26
16.0325	1278.05
16.125	1275.83
16.2181	1273.62
16.3117	1271.4
16.4059	1269.19
16.5006	1266.98
16.5959	1264.77
16.6917	1262.56
16.788	1260.35
16.885	1258.14
16.9824	1255.93
17.0805	1253.72
17.1791	1251.52
17.2783	1249.32
17.378	1247.11
17.4783	1244.91
17.5792	1242.71
17.6807	1240.51
17.7828	1238.31
17.8855	1236.11
17.9887	1233.91
18.0926	1231.72
18.197	1229.52
18.3021	1227.33
18.4077	1225.14
18.514	1222.94
18.6209	1220.75
18.7284	1218.56
18.8365	1216.37
18.9452	1214.18
19.0546	1212
19.1646	1209.81
19.2752	1207.62
19.3865	1205.44
19.4984	1203.25
19.611	1201.07
19.7242	1198.89
19.8381	1196.71
19.9526	1194.53
20.0678	1192.35
20.1837	1190.17
20.3002	1187.99
20.4174	1185.81
20.5353	1183.64
20.6538	1181.46
20.773	1179.29
20.893	1177.11
21.0136	1174.94
21.1349	1172.77
21.2569	1170.59
21.3796	1168.42
21.503	1166.25
21.6272	1164.08
21.752	1161.91
21.8776	1159.75
22.0039	1157.58
22.1309	1155.41
22.2587	1153.24
22.3872	1151.08
22.5165	1148.91
22.6464	1146.75
22.7772	1144.58
22.9087	1142.42
23.0409	1140.26
23.1739	1138.09
23.3077	1135.93
23.4423	1133.77
23.5776	1131.61
23.7137	1129.45
23.8506	1127.29
23.9883	1125.13
24.1268	1122.97
24.2661	1120.81
24.4062	1118.65
24.5471	1116.5
24.6888	1114.34
24.8313	1112.18
24.9747	1110.02
25.1189	1107.86
25.2639	1105.71
25.4097	1103.55
25.5564	1101.39
25.704	1099.24
25.8523	1097.08
26.0016	1094.92
26.1517	1092.77
26.3027	1090.61
26.4545	1088.46
26.6073	1086.3
26.7609	1084.15
26.9153	1081.99
27.0707	1079.84
27.227	1077.69
27.3842	1075.53
27.5423	1073.38
27.7013	1071.22
27.8612	1069.07
28.0221	1066.92
28.1838	1064.76
28.3465	1062.61
28.5102	1060.46
28.6748	1058.3
28.8403	1056.15
29.0068	1054
29.1743	1051.84
29.3427	1049.69
29.5121	1047.53
29.6825	1045.38
29.8538	1043.23
30.0262	1041.07
30.1995	1038.92
30.3739	1036.77
30.5492	1034.61
30.7256	1032.46
30.903	1030.31
31.0814	1028.15
31.2608	1026
31.4413	1023.84
31.6228	1021.69
31.8053	1019.54
31.989	1017.38
32.1736	1015.23
32.3594	1013.07
32.5462	1010.92
32.7341	1008.76
32.923	1006.61
33.1131	1004.45
33.3043	1002.3
33.4965	1000.14
33.6899	997.984
33.8844	995.828
34.08	993.672
34.2768	991.516
34.4747	989.36
34.6737	987.203
34.8739	985.046
35.0752	982.889
35.2777	980.732
35.4813	978.574
35.6862	976.417
35.8922	974.259
36.0994	972.101
36.3078	969.943
36.5174	967.784
36.7282	965.626
36.9403	963.467
37.1535	961.308
37.368	959.149
37.5837	956.989
37.8007	954.761
38.0189	952.403
38.2384	950.046
38.4592	947.691
38.6812	945.337
38.9045	942.982
39.1291	940.63
39.355	938.331
39.5822	935.977
39.8107	933.621
40.0405	931.27
40.2717	928.916
40.5042	926.563
40.738	924.209
40.9732	921.855
41.2098	919.502
41.4477	917.148
41.6869	914.795
41.9276	912.442
42.1697	910.209
42.4131	907.856
42.658	905.539
42.9042	903.186
43.1519	900.833
43.401	898.481
43.6516	896.128
43.9036	893.776
44.157	891.424
44.412	889.074
44.6684	886.724
44.9262	884.373
45.1856	882.022
45.4465	879.672
45.7088	877.322
45.9727	874.972
46.2381	873.134
46.505	870.781
46.7735	869.01
47.0435	866.653
47.3151	862.579
47.5883	860.195
47.863	857.967
48.1393	855.585
48.4172	853.202
48.6968	850.821
48.9779	848.444
49.2606	846.069
49.545	843.695
49.831	841.32
50.1187	838.948
50.4081	836.576
50.6991	834.204
50.9918	831.834
51.2861	829.464
51.5822	827.094
51.88	824.726
52.1795	822.359
52.4807	819.992
52.7837	817.626
53.0884	815.26
53.3949	812.897
53.7032	810.533
54.0132	808.171
54.325	805.809
54.6387	803.448
54.9541	801.088
55.2713	798.729
55.5904	796.371
55.9114	794.014
56.2341	792.156
56.5588	789.799
56.8853	787.444
57.2137	785.089
57.544	782.736
57.8762	780.383
58.2103	778.032
58.5464	775.682
58.8844	773.334
59.2243	770.982
59.5662	768.636
59.9101	766.292
60.256	763.949
60.6038	761.607
60.9537	759.267
61.3056	756.929
61.6595	754.592
62.0155	752.257
62.3735	749.924
62.7336	747.594
63.0957	745.264
63.46	742.937
63.8263	740.642
64.1948	738.318
64.5654	735.996
64.9382	733.676
65.3131	731.358
65.6901	729.043
66.0693	726.729
66.4508	724.455
66.8344	722.222
67.2202	719.99
67.6083	717.758
67.9986	715.526
68.3912	713.297
68.786	711.069
69.1831	708.843
69.5825	706.619
69.9842	704.396
70.3882	702.174
70.7946	699.954
71.2033	697.736
71.6143	695.52
72.0278	693.306
72.4436	691.094
72.8618	688.883
73.2825	686.675
73.7055	684.469
74.131	682.265
74.559	680.063
74.9894	677.863
75.4223	675.665
75.8578	673.47
76.2957	671.277
76.7361	669.086
77.1792	667.082
77.6247	664.893
78.0728	662.706
78.5236	660.523
78.9769	658.342
79.4328	656.163
79.8914	653.987
80.3526	651.815
80.8165	649.644
81.2831	647.477
81.7523	645.312
82.2243	643.151
82.699	640.992
83.1764	638.836
83.6566	636.684
84.1395	634.535
84.6253	632.816
85.1138	630.668
85.6052	628.524
86.0994	626.383
86.5964	624.245
87.0964	622.111
87.5992	619.98
88.1049	617.853
88.6135	615.728
89.1251	613.608
89.6396	611.491
90.1571	609.377
90.6776	607.267
91.2011	605.161
91.7276	603.058
92.2571	600.959
92.7897	598.864
93.3254	596.772
93.8642	594.684
94.4061	592.6
94.9511	590.52
95.4993	588.443
96.0506	586.37
96.6051	584.301
97.1628	582.236
97.7237	580.175
98.2879	578.117
98.8553	576.064
99.426	574.014
100	571.968
100.577	569.927
101.158	567.89
101.742	565.856
102.329	563.826
102.92	561.801
103.514	559.779
104.112	557.762
104.713	555.749
105.317	553.74
105.925	551.735
106.537	549.734
107.152	547.748
107.771	545.755
108.393	543.882
109.018	541.896
109.648	539.914
110.281	537.936
110.917	535.963
111.558	533.993
112.202	532.028
112.85	530.067
113.501	528.11
114.156	526.158
114.815	524.21
115.478	522.267
116.145	520.327
116.815	518.392
117.49	516.461
118.168	514.535
118.85	512.613
119.536	510.696
120.226	508.783
120.921	506.874
121.619	504.969
122.321	503.07
123.027	501.174
123.737	499.283
124.451	497.396
125.17	495.514
125.893	493.637
126.619	491.764
127.35	489.895
128.086	488.031
128.825	486.171
129.569	484.316
130.317	482.465
131.069	480.619
131.826	478.777
132.587	476.94
133.352	475.108
134.122	473.28
134.896	471.457
135.675	469.638
136.458	467.824
137.246	466.015
138.038	464.21
138.835	462.409
139.637	460.614
140.443	458.823
141.254	457.036
142.069	455.399
142.889	453.619
143.714	451.844
144.544	450.074
145.378	448.308
146.218	446.547
147.062	444.79
147.911	443.039
148.765	441.291
149.624	439.549
150.487	437.818
151.356	436.085
152.23	434.356
153.109	432.632
153.993	430.913
154.882	429.199
155.776	427.49
156.675	425.785
157.58	424.085
158.489	422.391
159.404	420.7
160.325	419.015
161.25	417.334
162.181	415.657
163.117	413.986
164.059	412.319
165.006	410.657
165.959	409
166.917	407.347
167.88	405.7
168.85	404.057
169.824	402.418
170.805	400.785
171.791	399.156
172.783	397.532
173.78	395.912
174.783	394.298
175.792	392.688
176.807	391.083
177.828	389.483
178.855	387.887
179.887	386.296
180.926	384.71
181.97	383.129
183.021	381.552
184.077	379.981
185.14	378.414
186.209	376.852
187.284	375.294
188.365	373.742
189.452	372.194
190.546	370.651
191.646	369.113
192.752	367.579
193.865	366.051
194.984	364.527
196.11	363.008
197.242	361.494
198.381	359.984
199.526	358.568
200.678	357.067
201.837	355.571
203.002	354.079
204.174	352.593
205.353	351.111
206.538	349.633
207.73	348.161
208.93	346.693
210.136	345.231
211.349	343.773
212.569	342.319
213.796	340.871
215.03	339.428
216.272	337.989
217.52	336.555
218.776	335.126
220.039	333.701
221.309	332.282
222.587	330.867
223.872	329.457
225.165	328.052
226.464	326.651
227.772	325.256
229.087	323.865
230.409	322.479
231.739	321.097
233.077	319.721
234.423	318.349
235.776	316.982
237.137	315.62
238.506	314.263
239.883	312.91
241.268	311.562
242.661	310.219
244.062	308.881
245.471	307.547
246.888	306.218
248.313	304.894
249.747	303.574
251.189	302.26
252.639	300.95
254.097	299.644
255.564	298.344
257.04	297.048
258.523	295.756
260.016	294.47
261.517	293.188
263.027	291.911
264.545	290.638
266.073	289.37
267.609	288.107
269.153	286.848
270.707	285.595
272.27	284.345
273.842	283.101
275.423	281.861
277.013	280.625
278.612	279.395
280.221	278.168
281.838	276.947
283.465	275.73
285.102	274.517
286.748	273.309
288.403	272.107
290.068	270.908
291.743	269.715
293.427	268.525
295.121	267.341
296.825	266.16
298.538	264.985
300.262	263.814
301.995	262.647
303.739	261.485
305.492	260.327
307.256	259.174
309.03	258.025
310.814	256.881
312.608	255.741
314.413	254.605
316.228	253.475
318.053	252.348
319.89	251.226
321.736	250.108
323.594	248.995
325.462	247.886
327.341	246.781
329.23	245.681
331.131	244.585
333.043	243.494
334.965	242.407
336.899	241.324
338.844	240.245
340.8	239.171
342.768	238.101
344.747	237.036
346.737	235.974
348.739	234.917
350.752	233.864
352.777	232.816
354.813	231.771
356.862	230.731
358.922	229.695
360.994	228.663
363.078	227.636
365.174	226.613
367.282	225.593
369.403	224.578
371.535	223.567
373.68	222.561
375.837	221.558
378.007	220.56
380.189	219.565
382.384	218.575
384.592	217.589
386.812	216.607
389.045	215.629
391.291	214.655
393.55	213.685
395.822	212.719
398.107	211.757
400.405	210.799
402.717	209.845
405.042	208.896
407.38	207.95
409.732	207.008
412.098	206.07
414.477	205.136
416.869	204.206
419.276	203.28
421.697	202.357
424.131	201.439
426.58	200.525
429.042	199.614
431.519	198.708
434.01	197.805
436.516	196.906
439.036	196.011
441.57	195.119
444.12	194.232
446.684	193.348
449.262	192.468
451.856	191.592
454.465	190.72
457.088	189.851
459.727	188.986
462.381	188.125
465.05	187.268
467.735	186.414
470.435	185.564
473.151	184.718
475.883	183.876
478.63	183.037
481.393	182.201
484.172	181.369
486.968	180.542
489.779	179.717
492.606	178.896
495.45	178.079
498.31	177.266
501.187	176.456
504.081	175.649
506.991	174.847
509.918	174.047
512.861	173.251
515.822	172.459
518.8	171.67
521.795	170.885
524.807	170.103
527.837	169.325
530.884	168.55
533.949	167.779
537.032	167.011
540.132	166.246
543.25	165.485
546.387	164.727
549.541	163.973
552.713	163.222
555.904	162.474
559.114	161.73
562.341	160.989
565.588	160.252
568.853	159.517
572.137	158.786
575.44	158.059
578.762	157.334
582.103	156.613
585.464	155.895
588.844	155.181
592.243	154.469
595.662	153.761
599.101	153.056
602.56	152.354
606.038	151.656
609.537	150.961
613.056	150.268
616.595	149.579
620.155	148.893
623.735	148.211
627.336	147.531
630.957	146.855
634.6	146.181
638.263	145.511
641.948	144.843
645.654	144.179
649.382	143.518
653.131	142.86
656.901	142.205
660.693	141.553
664.508	140.904
668.344	140.257
672.202	139.614
676.083	138.974
679.986	138.337
683.912	137.703
687.86	137.071
691.831	136.443
695.825	135.818
699.842	135.195
703.882	134.575
707.946	133.959
712.033	133.345
716.143	132.733
720.278	132.125
724.436	131.52
728.618	130.917
732.825	130.317
737.055	129.72
741.31	129.126
745.59	128.535
749.894	127.946
754.223	127.36
758.578	126.777
762.957	126.197
767.361	125.619
771.792	125.044
776.247	124.472
780.728	123.902
785.236	123.335
789.769	122.771
794.328	122.209
798.914	121.65
803.526	121.094
808.165	120.54
812.831	119.989
817.523	119.441
822.243	118.895
826.99	118.352
831.764	117.811
836.566	117.273
841.395	116.737
846.253	116.204
851.138	115.674
856.052	115.146
860.994	114.62
865.964	114.097
870.964	113.577
875.992	113.059
881.049	112.543
886.135	112.03
891.251	111.519
896.396	111.011
901.571	110.505
906.776	110.002
912.011	109.501
917.276	109.002
922.571	108.506
927.897	108.012
933.254	107.521
938.642	107.031
944.061	106.545
949.511	106.06
954.993	105.578
960.506	105.098
966.051	104.621
971.628	104.145
977.237	103.673
982.879	103.202
988.553	102.734
994.26	102.267
1000	101.804
1005.77	101.342
1011.58	100.882
1017.42	100.425
1023.29	99.9702
1029.2	99.5174
1035.14	99.0668
1041.12	98.6184
1047.13	98.1721
1053.17	97.728
1059.25	97.2861
1065.37	96.8463
1071.52	96.4086
1077.71	95.973
1083.93	95.5396
1090.18	95.1083
1096.48	94.679
1102.81	94.2519
1109.17	93.8268
1115.58	93.4038
1122.02	92.9828
1128.5	92.5639
1135.01	92.1471
1141.56	91.7322
1148.15	91.3194
1154.78	90.9086
1161.45	90.4998
1168.15	90.0931
1174.9	89.6882
1181.68	89.2854
1188.5	88.8846
1195.36	88.4857
1202.26	88.0887
1209.21	87.6937
1216.19	87.3006
1223.21	86.9095
1230.27	86.5203
1237.37	86.1329
1244.51	85.7475
1251.7	85.364
1258.93	84.9824
1266.19	84.6026
1273.5	84.2247
1280.86	83.8487
1288.25	83.4745
1295.69	83.1021
1303.17	82.7316
1310.69	82.3629
1318.26	81.996
1325.87	81.631
1333.52	81.2677
1341.22	80.9062
1348.96	80.5465
1356.75	80.1886
1364.58	79.8325
1372.46	79.4781
1380.38	79.1255
1388.35	78.7746
1396.37	78.4254
1404.43	78.078
1412.54	77.7323
1420.69	77.3883
1428.89	77.046
1437.14	76.7054
1445.44	76.3665
1453.78	76.0293
1462.18	75.6938
1470.62	75.3599
1479.11	75.0277
1487.65	74.6971
1496.24	74.3682
1504.87	74.0409
1513.56	73.7152
1522.3	73.3912
1531.09	73.0688
1539.93	72.748
1548.82	72.4287
1557.76	72.1111
1566.75	71.7951
1575.8	71.4806
1584.89	71.1677
1594.04	70.8564
1603.25	70.5466
1612.5	70.2384
1621.81	69.9317
1631.17	69.6266
1640.59	69.3229
1650.06	69.0208
1659.59	68.7202
1669.17	68.4211
1678.8	68.1236
1688.5	67.8275
1698.24	67.5329
1708.05	67.2397
1717.91	66.9481
1727.83	66.6579
1737.8	66.3692
1747.83	66.0819
1757.92	65.796
1768.07	65.5116
1778.28	65.2287
1788.55	64.9471
1798.87	64.667
1809.26	64.3883
1819.7	64.111
1830.21	63.8351
1840.77	63.5605
1851.4	63.2874
1862.09	63.0157
1872.84	62.7453
1883.65	62.4763
1894.52	62.2086
1905.46	61.9423
1916.46	61.6774
1927.52	61.4138
1938.65	61.1515
1949.84	60.8905
1961.1	60.6309
1972.42	60.3726
1983.81	60.1156
1995.26	59.8599
2006.78	59.6055
2018.37	59.3524
2030.02	59.1006
2041.74	58.8501
2053.53	58.6008
2065.38	58.3528
2077.3	58.1061
2089.3	57.8606
2101.36	57.6164
2113.49	57.3734
2125.69	57.1316
2137.96	56.8911
2150.3	56.6518
2162.72	56.4138
2175.2	56.1769
2187.76	55.9413
2200.39	55.7069
2213.09	55.4736
2225.87	55.2416
2238.72	55.0107
2251.65	54.7811
2264.64	54.5526
2277.72	54.3253
2290.87	54.0991
2304.09	53.8741
2317.39	53.6503
2330.77	53.4276
2344.23	53.206
2357.76	52.9856
2371.37	52.7663
2385.06	52.5482
2398.83	52.3311
2412.68	52.1152
2426.61	51.9004
2440.62	51.6867
2454.71	51.4741
2468.88	51.2627
2483.13	51.0522
2497.47	50.8429
2511.89	50.6347
2526.39	50.4275
2540.97	50.2214
2555.64	50.0164
2570.4	49.8125
2585.23	49.6095
2600.16	49.4077
2615.17	49.2069
2630.27	49.0071
2645.45	48.8084
2660.73	48.6107
2676.09	48.414
2691.53	48.2183
2707.07	48.0237
2722.7	47.8301
2738.42	47.6374
2754.23	47.4458
2770.13	47.2552
2786.12	47.0656
2802.21	46.8769
2818.38	46.6893
2834.65	46.5026
2851.02	46.3169
2867.48	46.1322
2884.03	45.9484
2900.68	45.7656
2917.43	45.5837
2934.27	45.4028
2951.21	45.2229
2968.25	45.0439
2985.38	44.8658
3002.62	44.6886
3019.95	44.5124
3037.39	44.3371
3054.92	44.1628
3072.56	43.9893
3090.3	43.8168
3108.14	43.6452
3126.08	43.4744
3144.13	43.3046
3162.28	43.1357
3180.53	42.9676
3198.9	42.8005
3217.36	42.6342
3235.94	42.4688
3254.62	42.3043
3273.41	42.1406
3292.3	41.9778
3311.31	41.8159
3330.43	41.6548
3349.65	41.4946
3368.99	41.3353
3388.44	41.1767
3408	41.0191
3427.68	40.8622
3447.47	40.7062
3467.37	40.551
3487.39	40.3967
3507.52	40.2432
3527.77	40.0904
3548.13	39.9385
3568.62	39.7875
3589.22	39.6372
3609.94	39.4877
3630.78	39.339
3651.74	39.1911
3672.82	39.044
3694.03	38.8977
3715.35	38.7522
3736.8	38.6074
3758.37	38.4635
3780.07	38.3203
3801.89	38.1779
3823.84	38.0362
3845.92	37.8953
3868.12	37.7552
3890.45	37.6158
3912.91	37.4771
3935.5	37.3392
3958.22	37.2021
3981.07	37.0657
4004.05	36.93
4027.17	36.7951
4050.42	36.6609
4073.8	36.5274
4097.32	36.3947
4120.98	36.2626
4144.77	36.1313
4168.69	36.0007
4192.76	35.8708
4216.97	35.7416
4241.31	35.6131
4265.8	35.4854
4290.42	35.3583
4315.19	35.2319
4340.1	35.1062
4365.16	34.9812
4390.36	34.8568
4415.7	34.7332
4441.2	34.6102
4466.84	34.4879
4492.62	34.3662
4518.56	34.2453
4544.65	34.125
4570.88	34.0053
4597.27	33.8864
4623.81	33.768
4650.5	33.6504
4677.35	33.5333
4704.35	33.4169
4731.51	33.3012
4758.83	33.1861
4786.3	33.0716
4813.93	32.9578
4841.72	32.8446
4869.68	32.7321
4897.79	32.6201
4926.06	32.5088
4954.5	32.3981
4983.1	32.288
5011.87	32.1785
5040.81	32.0697
5069.91	31.9614
5099.18	31.8538
5128.61	31.7467
5158.22	31.6403
5188	31.5344
5217.95	31.4291
5248.07	31.3245
5278.37	31.2204
5308.84	31.1169
5339.49	31.014
5370.32	30.9116
5401.32	30.8099
5432.5	30.7087
5463.87	30.6081
5495.41	30.508
5527.13	30.4086
5559.04	30.3096
5591.14	30.2113
5623.41	30.1135
5655.88	30.0163
5688.53	29.9196
5721.37	29.8234
5754.4	29.7279
5787.62	29.6328
5821.03	29.5383
5854.64	29.4444
5888.44	29.3509
5922.43	29.258
5956.62	29.1657
5991.01	29.0739
6025.6	28.9826
6060.38	28.8918
6095.37	28.8016
6130.56	28.7118
6165.95	28.6226
6201.55	28.5339
6237.35	28.4458
6273.36	28.3581
6309.57	28.2709
6346	28.1843
6382.63	28.0981
6419.48	28.0125
6456.54	27.9273
6493.82	27.8427
6531.31	27.7585
6569.01	27.6749
6606.93	27.5917
6645.08	27.509
6683.44	27.4268
6722.02	27.3451
6760.83	27.2638
6799.86	27.1831
6839.12	27.1028
6878.6	27.023
6918.31	26.9436
6958.25	26.8648
6998.42	26.7864
7038.82	26.7084
7079.46	26.631
7120.33	26.5539
7161.43	26.4774
7202.78	26.4013
7244.36	26.3257
7286.18	26.2505
7328.25	26.1757
7370.55	26.1015
7413.1	26.0276
7455.9	25.9542
7498.94	25.8813
7542.23	25.8087
7585.78	25.7367
7629.57	25.665
7673.61	25.5938
7717.92	25.523
7762.47	25.4527
7807.28	25.3828
7852.36	25.3133
7897.69	25.2442
7943.28	25.1756
7989.14	25.1074
8035.26	25.0396
8081.65	24.9722
8128.31	24.9052
8175.23	24.8386
8222.43	24.7725
8269.9	24.7068
8317.64	24.6414
8365.66	24.5765
8413.95	24.512
8462.53	24.4479
8511.38	24.3841
8560.52	24.3208
8609.94	24.2579
8659.64	24.1953
8709.64	24.1332
8759.92	24.0714
8810.49	24.0101
8861.35	23.9491
8912.51	23.8885
8963.96	23.8283
9015.71	23.7685
9067.76	23.709
9120.11	23.65
9172.76	23.5913
9225.71	23.5329
9278.97	23.475
9332.54	23.4174
9386.42	23.3602
9440.61	23.3034
9495.11	23.2469
9549.93	23.1908
9605.06	23.1351
9660.51	23.0797
9716.28	23.0247
9772.37	22.97
9828.79	22.9157
9885.53	22.8618
9942.6	22.8082
10000	22.7549
10057.7	22.702
10115.8	22.6495
10174.2	22.5973
10232.9	22.5454
10292	22.4939
10351.4	22.4427
10411.2	22.3919
10471.3	22.3414
10531.7	22.2912
10592.5	22.2414
10653.7	22.1919
10715.2	22.1428
10777.1	22.094
10839.3	22.0455
10901.8	21.9973
10964.8	21.9495
11028.1	21.902
11091.7	21.8548
11155.8	21.8079
11220.2	21.7614
11285	21.7151
11350.1	21.6692
11415.6	21.6236
11481.5	21.5784
11547.8	21.5334
11614.5	21.4887
11681.5	21.4444
11749	21.4004
11816.8	21.3567
11885	21.3132
11953.6	21.2701
12022.6	21.2273
12092.1	21.1848
12161.9	21.1426
12232.1	21.1007
12302.7	21.0591
12373.7	21.0178
12445.1	20.9768
12517	20.9361
12589.3	20.8957
12661.9	20.8555
12735	20.8157
12808.6	20.7761
12882.5	20.7369
12956.9	20.6979
13031.7	20.6592
13106.9	20.6208
13182.6	20.5827
13258.7	20.5448
13335.2	20.5073
13412.2	20.47
13489.6	20.433
13567.5	20.3962
13645.8	20.3598
13724.6	20.3236
13803.8	20.2877
13883.5	20.252
13963.7	20.2167
14044.3	20.1816
14125.4	20.1467
14206.9	20.1122
14288.9	20.0779
14371.4	20.0438
14454.4	20.01
14537.8	19.9765
14621.8	19.9433
14706.2	19.9103
14791.1	19.8775
14876.5	19.8451
14962.4	19.8128
15048.7	19.7809
15135.6	19.7492
15223	19.7177
15310.9	19.6865
15399.3	19.6555
15488.2	19.6248
15577.6	19.5944
15667.5	19.5641
15758	19.5342
15848.9	19.5044
15940.4	19.4749
16032.5	19.4457
16125	19.4167
16218.1	19.3879
16311.7	19.3594
16405.9	19.3311
16500.6	19.3031
16595.9	19.2753
16691.7	19.2477
16788	19.2204
16885	19.1933
16982.4	19.1664
17080.5	19.1397
17179.1	19.1133
17278.3	19.0871
17378	19.0612
17478.3	19.0354
17579.2	19.0099
17680.7	18.9846
17782.8	18.9596
17885.5	18.9347
17988.7	18.9101
18092.6	18.8857
18197	18.8615
18302.1	18.8375
18407.7	18.8125
18514	18.7869
18620.9	18.7616
18728.4	18.7365
18836.5	18.7115
18945.2	18.6868
19054.6	18.6624
19164.6	18.6381
19275.2	18.614
19386.5	18.5901
19498.4	18.5664
19611	18.543
19724.2	18.5197
19838.1	18.4966
19952.6	18.4738
20067.8	18.4511
20183.7	18.4287
20300.2	18.4064
20417.4	18.3843
20535.3	18.3624
20653.8	18.3408
20773	18.3193
20893	18.298
21013.6	18.2769
21134.9	18.256
21256.9	18.2352
21379.6	18.2147
21503	18.1944
21627.2	18.1742
21752	18.1542
21877.6	18.1344
22003.9	18.1148
22130.9	18.0954
22258.7	18.0762
22387.2	18.0571
22516.5	18.0382
22646.4	18.0195
22777.2	18.001
22908.7	17.9827
23040.9	17.9645
23173.9	17.9465
23307.7	17.9287
23442.3	17.9111
23577.6	17.8936
23713.7	17.8763
23850.6	17.8592
23988.3	17.8423
24126.8	17.8255
24266.1	17.8089
24406.2	17.7925
24547.1	17.7762
24688.8	17.7601
24831.3	17.7441
24974.7	17.7284
25118.9	17.7128
25263.9	17.6973
25409.7	17.682
25556.4	17.6669
25704	17.652
25852.3	17.6372
26001.6	17.6225
26151.7	17.608
26302.7	17.5937
26454.5	17.5795
26607.3	17.5655
26760.9	17.5517
26915.3	17.538
27070.7	17.5244
27227	17.511
27384.2	17.4978
27542.3	17.4847
27701.3	17.4717
27861.2	17.459
28022.1	17.4463
28183.8	17.4338
28346.5	17.4215
28510.2	17.4093
28674.8	17.3972
28840.3	17.3853
29006.8	17.3735
29174.3	17.3619
29342.7	17.3504
29512.1	17.3391
29682.5	17.3279
29853.8	17.3168
30026.2	17.3059
30199.5	17.2952
30373.9	17.2845
30549.2	17.274
30725.6	17.2637
30903	17.2534
31081.4	17.2433
31260.8	17.2334
31441.3	17.2236
31622.8	17.2139
31805.3	17.2043
31989	17.1949
32173.6	17.1856
32359.4	17.1764
32546.2	17.1674
32734.1	17.1585
32923	17.1497
33113.1	17.141
33304.3	17.1325
33496.5	17.1241
33689.9	17.1158
33884.4	17.1077
34080	17.0997
34276.8	17.0918
34474.7	17.084
34673.7	17.0763
34873.9	17.0688
35075.2	17.0614
35277.7	17.0541
35481.3	17.0469
35686.2	17.0399
35892.2	17.0329
36099.4	17.0261
36307.8	17.0194
36517.4	17.0128
36728.2	17.0064
36940.3	17
37153.5	16.9938
37368	16.9876
37583.7	16.9816
37800.7	16.9757
38018.9	16.9699
38238.4	16.9642
38459.2	16.9586
38681.2	16.9532
38904.5	16.9478
39129.1	16.9426
39355	16.9374
39582.2	16.9324
39810.7	16.9275
40040.5	16.9227
40271.7	16.918
40504.2	16.9133
40738	16.9088
40973.2	16.9044
41209.8	16.9001
41447.7	16.8959
41686.9	16.8918
41927.6	16.8879
42169.7	16.884
42413.1	16.8802
42658	16.8765
42904.2	16.8729
43151.9	16.8694
43401	16.866
43651.6	16.8627
43903.6	16.8595
44157	16.8563
44412	16.8533
44668.4	16.8504
44926.2	16.8476
45185.6	16.8448
45446.5	16.8422
45708.8	16.8396
45972.7	16.8372
46238.1	16.8348
46505	16.8325
46773.5	16.8303
47043.5	16.8282
47315.1	16.8262
47588.3	16.8243
47863	16.8225
48139.3	16.8207
48417.2	16.8191
48696.8	16.8175
48977.9	16.816
49260.6	16.8146
49545	16.8133
49831	16.8121
50118.7	16.8109
50408.1	16.8098
50699.1	16.8088
50991.8	16.8079
51286.1	16.8071
51582.2	16.8064
51880	16.8057
52179.5	16.8051
52480.7	16.8046
52783.7	16.8042
53088.4	16.8039
53394.9	16.8036
53703.2	16.8034
54013.2	16.8033
54325	16.8032
54638.7	16.8033
54954.1	16.8034
55271.3	16.8036
55590.4	16.8038
55911.4	16.8042
56234.1	16.8046
56558.8	16.8051
56885.3	16.8056
57213.7	16.8063
57544	16.807
57876.2	16.8077
58210.3	16.8086
58546.4	16.8095
58884.4	16.8104
59224.3	16.8115
59566.2	16.8126
59910.1	16.8138
60256	16.815
60603.8	16.8164
60953.7	16.8177
61305.6	16.8192
61659.5	16.8207
62015.5	16.8223
62373.5	16.8239
62733.6	16.8256
63095.7	16.8274
63460	16.8293
63826.3	16.8312
64194.8	16.8331
64565.4	16.8351
64938.2	16.8372
65313.1	16.8394
65690.1	16.8416
66069.3	16.8439
66450.8	16.8462
66834.4	16.8486
67220.2	16.851
67608.3	16.8535
67998.6	16.8561
68391.2	16.8587
68786	16.8614
69183.1	16.8641
69582.5	16.8669
69984.2	16.8698
70388.2	16.8727
70794.6	16.8757
71203.3	16.8787
71614.3	16.8817
72027.8	16.8849
72443.6	16.888
72861.8	16.8913
73282.5	16.8946
73705.5	16.8979
74131	16.9013
74559	16.9047
74989.4	16.9082
75422.3	16.9118
75857.8	16.9154
76295.7	16.919
76736.1	16.9227
77179.2	16.9265
77624.7	16.9303
78072.8	16.9341
78523.6	16.938
78976.9	16.9419
79432.8	16.9459
79891.4	16.95
80352.6	16.954
80816.5	16.9582
81283.1	16.9623
81752.3	16.9666
82224.3	16.9708
82699	16.9751
83176.4	16.9795
83656.6	16.9839
84139.5	16.9883
84625.3	16.9928
85113.8	16.9974
85605.2	17.0019
86099.4	17.0066
86596.4	17.0112
87096.4	17.0159
87599.2	17.0207
88104.9	17.0255
88613.5	17.0303
89125.1	17.0351
89639.6	17.0401
90157.1	17.045
90677.6	17.05
91201.1	17.055
91727.6	17.0601
92257.1	17.0652
92789.7	17.0703
93325.4	17.0755
93864.2	17.0807
94406.1	17.086
94951.1	17.0913
95499.3	17.0966
96050.6	17.102
96605.1	17.1074
97162.8	17.1128
97723.7	17.1183
98287.9	17.1238
98855.3	17.1294
99426	17.1349
100000	17.1406
100577	17.1462
101158	17.1519
101742	17.1576
102329	17.1634
102920	17.1691
103514	17.175
104112	17.1808
104713	17.1867
105317	17.1926
105925	17.1985
106537	17.2045
107152	17.2105
107771	17.2166
108393	17.2226
109018	17.2287
109648	17.2349
110281	17.241
110917	17.2472
111558	17.2534
112202	17.2597
112850	17.266
113501	17.2723
114156	17.2786
114815	17.285
115478	17.2913
116145	17.2978
116815	17.3042
117490	17.3107
118168	17.3172
118850	17.3237
119536	17.3302
120226	17.3368
120921	17.3434
121619	17.35
122321	17.3567
123027	17.3634
123737	17.3701
124451	17.3768
125170	17.3835
125893	17.3903
126619	17.3971
127350	17.4039
128086	17.4108
128825	17.4176
129569	17.4245
130317	17.4314
131069	17.4384
131826	17.4453
132587	17.4523
133352	17.4593
134122	17.4663
134896	17.4734
135675	17.4805
136458	17.4875
137246	17.4946
138038	17.5018
138835	17.5089
139637	17.5161
140443	17.5233
141254	17.5305
142069	17.5377
142889	17.545
143714	17.5522
144544	17.5595
145378	17.5668
146218	17.5741
147062	17.5815
147911	17.5889
148765	17.5962
149624	17.6036
150487	17.611
151356	17.6185
152230	17.6259
153109	17.6334
153993	17.6409
154882	17.6484
155776	17.6559
156675	17.6634
157580	17.671
158489	17.6785
159404	17.6861
160325	17.6937
161250	17.7013
162181	17.7089
163117	17.7166
164059	17.7242
165006	17.7319
165959	17.7396
166917	17.7473
167880	17.755
168850	17.7627
169824	17.7705
170805	17.7782
171791	17.786
172783	17.7938
173780	17.8016
174783	17.8094
175792	17.8172
176807	17.8251
177828	17.8329
178855	17.8408
179887	17.8487
180926	17.8565
181970	17.8644
183021	17.8724
184077	17.8803
185140	17.8882
186209	17.8962
187284	17.9041
188365	17.9121
189452	17.9201
190546	17.9281
191646	17.9361
192752	17.9441
193865	17.9521
194984	17.9601
196110	17.9682
197242	17.9762
198381	17.9843
199526	17.9924
200678	18.0005
201837	18.0086
203002	18.0167
204174	18.0248
205353	18.0329
206538	18.0411
207730	18.0492
208930	18.0573
210136	18.0655
211349	18.0737
212569	18.0819
213796	18.09
215030	18.0982
216272	18.1064
217520	18.1147
218776	18.1229
220039	18.1311
221309	18.1393
222587	18.1476
223872	18.1558
225165	18.1641
226464	18.1723
227772	18.1806
229087	18.1889
230409	18.1972
231739	18.2055
233077	18.2138
234423	18.2221
235776	18.2304
237137	18.2387
238506	18.2471
239883	18.2554
241268	18.2637
242661	18.2721
244062	18.2804
245471	18.2888
246888	18.2972
248313	18.3055
249747	18.3139
251189	18.3223
252639	18.3307
254097	18.3391
255564	18.3475
257040	18.3559
258523	18.3643
260016	18.3727
261517	18.3811
263027	18.3895
264545	18.398
266073	18.4064
267609	18.4148
269153	18.4233
270707	18.4317
272270	18.4402
273842	18.4486
275423	18.4571
277013	18.4655
278612	18.474
280221	18.4825
281838	18.491
283465	18.4994
285102	18.5079
286748	18.5164
288403	18.5249
290068	18.5334
291743	18.5419
293427	18.5504
295121	18.5589
296825	18.5674
298538	18.5759
300262	18.5844
301995	18.5929
303739	18.6015
305492	18.61
307256	18.6185
309030	18.627
310814	18.6356
312608	18.6441
314413	18.6526
316228	18.6612
318053	18.6697
319890	18.6782
321736	18.6868
323594	18.6953
325462	18.7039
327341	18.7124
329230	18.721
331131	18.7296
333043	18.7381
334965	18.7467
336899	18.7552
338844	18.7638
340800	18.7724
342768	18.7809
344747	18.7895
346737	18.7981
348739	18.8066
350752	18.8152
352777	18.8238
354813	18.8324
356862	18.8409
358922	18.8495
360994	18.8581
363078	18.8667
365174	18.8752
367282	18.8838
369403	18.8924
371535	18.901
373680	18.9096
375837	18.9182
378007	18.9267
380189	18.9353
382384	18.9439
384592	18.9525
386812	18.9611
389045	18.9697
391291	18.9783
393550	18.9869
395822	18.9955
398107	19.004
400405	19.0126
402717	19.0212
405042	19.0298
407380	19.0384
409732	19.047
412098	19.0556
414477	19.0642
416869	19.0728
419276	19.0814
421697	19.0899
424131	19.0985
426580	19.1071
429042	19.1157
431519	19.1243
434010	19.1329
436516	19.1415
439036	19.1501
441570	19.1587
444120	19.1673
446684	19.1758
449262	19.1844
451856	19.193
454465	19.2016
457088	19.2102
459727	19.2188
462381	19.2274
465050	19.2359
467735	19.2445
470435	19.2531
473151	19.2617
475883	19.2703
478630	19.2788
481393	19.2874
484172	19.296
486968	19.3046
489779	19.3132
492606	19.3217
495450	19.3303
498310	19.3389
501187	19.3474
504081	19.356
506991	19.3646
509918	19.3731
512861	19.3817
515822	19.3903
518800	19.3988
521795	19.4074
524807	19.416
527837	19.4245
530884	19.4331
533949	19.4416
537032	19.4502
540132	19.4587
543250	19.4673
546387	19.4758
549541	19.4844
552713	19.4929
555904	19.5015
559114	19.51
562341	19.5186
565588	19.5271
568853	19.5356
572137	19.5442
575440	19.5527
578762	19.5613
582103	19.5698
585464	19.5783
588844	19.5868
592243	19.5954
595662	19.6039
599101	19.6124
602560	19.6209
606038	19.6295
609537	19.638
613056	19.6465
616595	19.655
620155	19.6635
623735	19.672
627336	19.6805
630957	19.689
634600	19.6975
638263	19.706
641948	19.7145
645654	19.723
649382	19.7315
653131	19.74
656901	19.7485
660693	19.757
664508	19.7655
668344	19.7739
672202	19.7824
676083	19.7909
679986	19.7994
683912	19.8078
687860	19.8163
691831	19.8248
695825	19.8332
699842	19.8417
703882	19.8502
707946	19.8586
712033	19.8671
716143	19.8755
720278	19.884
724436	19.8924
728618	19.9009
732825	19.9093
737055	19.9178
741310	19.9262
745590	19.9346
749894	19.9431
754223	19.9515
758578	19.9599
762957	19.9684
767361	19.9768
771792	19.9852
776247	19.9936
780728	20.002
785236	20.0104
789769	20.0188
794328	20.0272
798914	20.0357
803526	20.0441
808165	20.0525
812831	20.0608
817523	20.0692
822243	20.0776
826990	20.086
831764	20.0944
836566	20.1028
841395	20.1112
846253	20.1195
851138	20.1279
856052	20.1363
860994	20.1446
865964	20.153
870964	20.1614
875992	20.1697
881049	20.1781
886135	20.1864
891251	20.1948
896396	20.2031
901571	20.2115
906776	20.2198
912011	20.2282
917276	20.2365
922571	20.2448
927897	20.2531
933254	20.2615
938642	20.2698
944061	20.2781
949511	20.2864
954993	20.2947
960506	20.3031
966051	20.3114
971628	20.3197
977237	20.328
982879	20.3363
988553	20.3446
994260	20.3529
1e+06	20.3611
1.00577e+06	20.3694
1.01158e+06	20.3777
1.01742e+06	20.386
1.02329e+06	20.3943
1.0292e+06	20.4025
1.03514e+06	20.4108
1.04112e+06	20.4191
1.04713e+06	20.4273
1.05317e+06	20.4356
1.05925e+06	20.4439
1.06537e+06	20.4521
1.07152e+06	20.4604
1.07771e+06	20.4686
1.08393e+06	20.4769
1.09018e+06	20.4851
1.09648e+06	20.4933
1.10281e+06	20.5016
1.10917e+06	20.5098
1.11558e+06	20.518
1.12202e+06	20.5263
1.1285e+06	20.5345
1.13501e+06	20.5427
1.14156e+06	20.5509
1.14815e+06	20.5591
1.15478e+06	20.5673
1.16145e+06	20.5755
1.16815e+06	20.5837
1.1749e+06	20.5919
1.18168e+06	20.6001
1.1885e+06	20.6083
1.19536e+06	20.6165
1.20226e+06	20.6247
1.20921e+06	20.6329
1.21619e+06	20.6411
1.22321e+06	20.6492
1.23027e+06	20.6574
1.23737e+06	20.6656
1.24451e+06	20.6738
1.2517e+06	20.6819
1.25893e+06	20.6901
1.26619e+06	20.6982
1.2735e+06	20.7064
1.28086e+06	20.7145
1.28825e+06	20.7227
1.29569e+06	20.7308
1.30317e+06	20.739
1.31069e+06	20.7471
1.31826e+06	20.7552
1.32587e+06	20.7634
1.33352e+06	20.7715
1.34122e+06	20.7796
1.34896e+06	20.7877
1.35675e+06	20.7958
1.36458e+06	20.804
1.37246e+06	20.8121
1.38038e+06	20.8202
1.38835e+06	20.8283
1.39637e+06	20.8364
1.40443e+06	20.8445
1.41254e+06	20.8526
1.42069e+06	20.8607
1.42889e+06	20.8687
1.43714e+06	20.8768
1.44544e+06	20.8849
1.45378e+06	20.893
1.46218e+06	20.901
1.47062e+06	20.9091
1.47911e+06	20.9172
1.48765e+06	20.9252
1.49624e+06	20.9333
1.50487e+06	20.9413
1.51356e+06	20.9494
1.5223e+06	20.9574
1.53109e+06	20.9655
1.53993e+06	20.9735
1.54882e+06	20.9816
1.55776e+06	20.9896
1.56675e+06	20.9976
1.5758e+06	21.0057
1.58489e+06	21.0137
1.59404e+06	21.0217
1.60325e+06	21.0297
1.6125e+06	21.0377
1.62181e+06	21.0457
1.63117e+06	21.0537
1.64059e+06	21.0617
1.65006e+06	21.0697
1.65959e+06	21.0777
1.66917e+06	21.0857
1.6788e+06	21.0937
1.6885e+06	21.1017
1.69824e+06	21.1097
1.70805e+06	21.1177
1.71791e+06	21.1256
1.72783e+06	21.1336
1.7378e+06	21.1416
1.74783e+06	21.1495
1.75792e+06	21.1575
1.76807e+06	21.1654
1.77828e+06	21.1734
1.78855e+06	21.1813
1.79887e+06	21.1893
1.80926e+06	21.1972
1.8197e+06	21.2052
1.83021e+06	21.2131
1.84077e+06	21.221
1.8514e+06	21.229
1.86209e+06	21.2369
1.87284e+06	21.2448
1.88365e+06	21.2527
1.89452e+06	21.2606
1.90546e+06	21.2685
1.91646e+06	21.2765
1.92752e+06	21.2844
1.93865e+06	21.2923
1.94984e+06	21.3001
1.9611e+06	21.308
1.97242e+06	21.3159
1.98381e+06	21.3238
1.99526e+06	21.3317
2.00678e+06	21.3396
2.01837e+06	21.3474
2.03002e+06	21.3553
2.04174e+06	21.3632
2.05353e+06	21.371
2.06538e+06	21.3789
2.0773e+06	21.3868
2.0893e+06	21.3946
2.10136e+06	21.4025
2.11349e+06	21.4103
2.12569e+06	21.4181
2.13796e+06	21.426
2.1503e+06	21.4338
2.16272e+06	21.4416
2.1752e+06	21.4495
2.18776e+06	21.4573
2.20039e+06	21.4651
2.21309e+06	21.4729
2.22587e+06	21.4807
2.23872e+06	21.4885
2.25165e+06	21.4963
2.26464e+06	21.5041
2.27772e+06	21.5119
2.29087e+06	21.5197
2.30409e+06	21.5275
2.31739e+06	21.5353
2.33077e+06	21.5431
2.34423e+06	21.5509
2.35776e+06	21.5586
2.37137e+06	21.5664
2.38506e+06	21.5742
2.39883e+06	21.582
2.41268e+06	21.5897
2.42661e+06	21.5975
2.44062e+06	21.6052
2.45471e+06	21.613
2.46888e+06	21.6207
2.48313e+06	21.6285
2.49747e+06	21.6362
2.51189e+06	21.6439
2.52639e+06	21.6517
2.54097e+06	21.6594
2.55564e+06	21.6671
2.5704e+06	21.6748
2.58523e+06	21.6825
2.60016e+06	21.6903
2.61517e+06	21.698
2.63027e+06	21.7057
2.64545e+06	21.7134
2.66073e+06	21.7211
2.67609e+06	21.7288
2.69153e+06	21.7364
2.70707e+06	21.7441
2.7227e+06	21.7518
2.73842e+06	21.7595
2.75423e+06	21.7672
2.77013e+06	21.7748
2.78612e+06	21.7825
2.80221e+06	21.7902
2.81838e+06	21.7978
2.83465e+06	21.8055
2.85102e+06	21.8131
2.86748e+06	21.8208
2.88403e+06	21.8284
2.90068e+06	21.8361
2.91743e+06	21.8437
2.93427e+06	21.8513
2.95121e+06	21.859
2.96825e+06	21.8666
2.98538e+06	21.8742
3.00262e+06	21.8818
3.01995e+06	21.8894
3.03739e+06	21.8971
3.05492e+06	21.9047
3.07256e+06	21.9123
3.0903e+06	21.9199
3.10814e+06	21.9275
3.12608e+06	21.935
3.14413e+06	21.9426
3.16228e+06	21.9502
3.18053e+06	21.9578
3.1989e+06	21.9654
3.21736e+06	21.9729
3.23594e+06	21.9805
3.25462e+06	21.9881
3.27341e+06	21.9956
3.2923e+06	22.0032
3.31131e+06	22.0108
3.33043e+06	22.0183
3.34965e+06	22.0258
3.36899e+06	22.0334
3.38844e+06	22.0409
3.408e+06	22.0485
3.42768e+06	22.056
3.44747e+06	22.0635
3.46737e+06	22.071
3.48739e+06	22.0786
3.50752e+06	22.0861
3.52777e+06	22.0936
3.54813e+06	22.1011
3.56862e+06	22.1086
3.58922e+06	22.1161
3.60994e+06	22.1236
3.63078e+06	22.1311
3.65174e+06	22.1386
3.67282e+06	22.146
3.69403e+06	22.1535
3.71535e+06	22.161
3.7368e+06	22.1685
3.75837e+06	22.1759
3.78007e+06	22.1834
3.80189e+06	22.1909
3.82384e+06	22.1983
3.84592e+06	22.2058
3.86812e+06	22.2132
3.89045e+06	22.2207
3.91291e+06	22.2281
3.9355e+06	22.2355
3.95822e+06	22.243
3.98107e+06	22.2504
4.00405e+06	22.2578
4.02717e+06	22.2652
4.05042e+06	22.2727
4.0738e+06	22.2801
4.09732e+06	22.2875
4.12098e+06	22.2949
4.14477e+06	22.3023
4.16869e+06	22.3097
4.19276e+06	22.3171
4.21697e+06	22.3245
4.24131e+06	22.3318
4.2658e+06	22.3392
4.29042e+06	22.3466
4.31519e+06	22.354
4.3401e+06	22.3613
4.36516e+06	22.3687
4.39036e+06	22.3761
4.4157e+06	22.3834
4.4412e+06	22.3908
4.46684e+06	22.3981
4.49262e+06	22.4055
4.51856e+06	22.4128
4.54465e+06	22.4202
4.57088e+06	22.4275
4.59727e+06	22.4348
4.62381e+06	22.4421
4.6505e+06	22.4495
4.67735e+06	22.4568
4.70435e+06	22.4641
4.73151e+06	22.4714
4.75883e+06	22.4787
4.7863e+06	22.486
4.81393e+06	22.4933
4.84172e+06	22.5006
4.86968e+06	22.5079
4.89779e+06	22.5152
4.92606e+06	22.5225
4.9545e+06	22.5297
4.9831e+06	22.537
5.01187e+06	22.5443
5.04081e+06	22.5515
5.06991e+06	22.5588
5.09918e+06	22.566
5.12861e+06	22.5733
5.15822e+06	22.5805
5.188e+06	22.5878
5.21795e+06	22.595
5.24807e+06	22.6023
5.27837e+06	22.6095
5.30884e+06	22.6167
5.33949e+06	22.624
5.37032e+06	22.6312
5.40132e+06	22.6384
5.4325e+06	22.6456
5.46387e+06	22.6528
5.49541e+06	22.66
5.52713e+06	22.6672
5.55904e+06	22.6744
5.59114e+06	22.6816
5.62341e+06	22.6888
5.65588e+06	22.696
5.68853e+06	22.7031
5.72137e+06	22.7103
5.7544e+06	22.7175
5.78762e+06	22.7246
5.82103e+06	22.7318
5.85464e+06	22.739
5.88844e+06	22.7461
5.92243e+06	22.7533
5.95662e+06	22.7604
5.99101e+06	22.7675
6.0256e+06	22.7747
6.06038e+06	22.7818
6.09537e+06	22.7889
6.13056e+06	22.7961
6.16595e+06	22.8032
6.20155e+06	22.8103
6.23735e+06	22.8174
6.27336e+06	22.8245
6.30957e+06	22.8316
6.346e+06	22.8387
6.38263e+06	22.8458
6.41948e+06	22.8529
6.45654e+06	22.86
6.49382e+06	22.8671
6.53131e+06	22.8742
6.56901e+06	22.8812
6.60693e+06	22.8883
6.64508e+06	22.8954
6.68344e+06	22.9024
6.72202e+06	22.9095
6.76083e+06	22.9165
6.79986e+06	22.9236
6.83912e+06	22.9306
6.8786e+06	22.9377
6.91831e+06	22.9447
6.95825e+06	22.9517
6.99842e+06	22.9587
7.03882e+06	22.9658
7.07946e+06	22.9728
7.12033e+06	22.9798
7.16143e+06	22.9868
7.20278e+06	22.9938
7.24436e+06	23.0008
7.28618e+06	23.0078
7.32825e+06	23.0148
7.37055e+06	23.0218
7.4131e+06	23.0288
7.4559e+06	23.0358
7.49894e+06	23.0427
7.54223e+06	23.0497
7.58578e+06	23.0567
7.62957e+06	23.0636
7.67361e+06	23.0706
7.71792e+06	23.0775
7.76247e+06	23.0845
7.80728e+06	23.0914
7.85236e+06	23.0984
7.89769e+06	23.1053
7.94328e+06	23.1122
7.98914e+06	23.1192
8.03526e+06	23.1261
8.08165e+06	23.133
8.12831e+06	23.1399
8.17523e+06	23.1468
8.22243e+06	23.1537
8.2699e+06	23.1606
8.31764e+06	23.1675
8.36566e+06	23.1744
8.41395e+06	23.1813
8.46253e+06	23.1882
8.51138e+06	23.1951
8.56052e+06	23.2019
8.60994e+06	23.2088
8.65964e+06	23.2157
8.70964e+06	23.2225
8.75992e+06	23.2294
8.81049e+06	23.2362
8.86135e+06	23.2431
8.91251e+06	23.2499
8.96396e+06	23.2568
9.01571e+06	23.2636
9.06776e+06	23.2704
9.12011e+06	23.2773
9.17276e+06	23.2841
9.22571e+06	23.2909
9.27897e+06	23.2977
9.33254e+06	23.3045
9.38642e+06	23.3113
9.44061e+06	23.3181
9.49511e+06	23.3249
9.54993e+06	23.3317
9.60506e+06	23.3385
9.66051e+06	23.3453
9.71628e+06	23.352
9.77237e+06	23.3588
9.82879e+06	23.3656
9.88553e+06	23.3723
9.9426e+06	23.3791
1e+07	23.3858
