Stopping power dEdx from Ionisation for Fe56[0.0] Z = 26 in G4_Si, process name: ionIoni
E [MeV]	dEdx [MeV/mm]
0.001	30.9689
0.00100577	31.0589
0.00101158	31.1491
0.00101742	31.2396
0.00102329	31.3303
0.0010292	31.4213
0.00103514	31.5126
0.00104112	31.6041
0.00104713	31.6959
0.00105317	31.788
0.00105925	31.8803
0.00106537	31.9729
0.00107152	32.0658
0.00107771	32.1589
0.00108393	32.2523
0.00109018	32.3459
0.00109648	32.4399
0.00110281	32.5341
0.00110917	32.6286
0.00111558	32.7233
0.00112202	32.8183
0.0011285	32.9136
0.00113501	33.0092
0.00114156	33.1051
0.00114815	33.2012
0.00115478	33.2976
0.00116145	33.3943
0.00116815	33.4912
0.0011749	33.5885
0.00118168	33.686
0.0011885	33.7838
0.00119536	33.8818
0.00120226	33.9802
0.00120921	34.0789
0.00121619	34.1778
0.00122321	34.277
0.00123027	34.3765
0.00123737	34.4763
0.00124451	34.5764
0.0012517	34.6767
0.00125893	34.7774
0.00126619	34.8783
0.0012735	34.9796
0.00128086	35.0811
0.00128825	35.1829
0.00129569	35.285
0.00130317	35.3874
0.00131069	35.4901
0.00131826	35.5931
0.00132587	35.6964
0.00133352	35.8
0.00134122	35.9039
0.00134896	36.0081
0.00135675	36.1126
0.00136458	36.2174
0.00137246	36.3225
0.00138038	36.4279
0.00138835	36.5336
0.00139637	36.6396
0.00140443	36.7459
0.00141254	36.8525
0.00142069	36.9594
0.00142889	37.0667
0.00143714	37.1742
0.00144544	37.2821
0.00145378	37.3902
0.00146218	37.4987
0.00147062	37.6075
0.00147911	37.7166
0.00148765	37.826
0.00149624	37.9357
0.00150487	38.0458
0.00151356	38.1561
0.0015223	38.2668
0.00153109	38.3778
0.00153993	38.4891
0.00154882	38.6008
0.00155776	38.7127
0.00156675	38.825
0.0015758	38.9376
0.00158489	39.0506
0.00159404	39.1638
0.00160325	39.2774
0.0016125	39.3913
0.00162181	39.5056
0.00163117	39.6202
0.00164059	39.7351
0.00165006	39.8503
0.00165959	39.9659
0.00166917	40.0818
0.0016788	40.198
0.0016885	40.3146
0.00169824	40.4315
0.00170805	40.5487
0.00171791	40.6663
0.00172783	40.7842
0.0017378	40.9025
0.00174783	41.0211
0.00175792	41.14
0.00176807	41.2593
0.00177828	41.3789
0.00178855	41.4989
0.00179887	41.6192
0.00180926	41.7399
0.0018197	41.8609
0.00183021	41.9822
0.00184077	42.1039
0.0018514	42.226
0.00186209	42.3484
0.00187284	42.4712
0.00188365	42.5943
0.00189452	42.7178
0.00190546	42.8416
0.00191646	42.9658
0.00192752	43.0903
0.00193865	43.2152
0.00194984	43.3405
0.0019611	43.4661
0.00197242	43.5921
0.00198381	43.7185
0.00199526	43.8452
0.00200678	43.9723
0.00201837	44.0997
0.00203002	44.2275
0.00204174	44.3557
0.00205353	44.4843
0.00206538	44.6132
0.0020773	44.7425
0.0020893	44.8722
0.00210136	45.0022
0.00211349	45.1326
0.00212569	45.2634
0.00213796	45.3946
0.0021503	45.5261
0.00216272	45.658
0.0021752	45.7903
0.00218776	45.923
0.00220039	46.0561
0.00221309	46.1896
0.00222587	46.3234
0.00223872	46.4576
0.00225165	46.5922
0.00226464	46.7272
0.00227772	46.8626
0.00229087	46.9984
0.00230409	47.1346
0.00231739	47.2711
0.00233077	47.4081
0.00234423	47.5454
0.00235776	47.6832
0.00237137	47.8213
0.00238506	47.9599
0.00239883	48.0988
0.00241268	48.2381
0.00242661	48.3779
0.00244062	48.518
0.00245471	48.6586
0.00246888	48.7995
0.00248313	48.9409
0.00249747	49.0827
0.00251189	49.2248
0.00252639	49.3674
0.00254097	49.5104
0.00255564	49.6538
0.0025704	49.7976
0.00258523	49.9419
0.00260016	50.0865
0.00261517	50.2316
0.00263027	50.3771
0.00264545	50.523
0.00266073	50.6693
0.00267609	50.8161
0.00269153	50.9633
0.00270707	51.1109
0.0027227	51.2589
0.00273842	51.4073
0.00275423	51.5562
0.00277013	51.7055
0.00278612	51.8552
0.00280221	52.0054
0.00281838	52.156
0.00283465	52.3071
0.00285102	52.4585
0.00286748	52.6104
0.00288403	52.7628
0.00290068	52.9156
0.00291743	53.0688
0.00293427	53.2225
0.00295121	53.3766
0.00296825	53.5311
0.00298538	53.6861
0.00300262	53.8416
0.00301995	53.9975
0.00303739	54.1538
0.00305492	54.3106
0.00307256	54.4678
0.0030903	54.6255
0.00310814	54.7837
0.00312608	54.9423
0.00314413	55.1014
0.00316228	55.2609
0.00318053	55.4209
0.0031989	55.5813
0.00321736	55.7422
0.00323594	55.9036
0.00325462	56.0654
0.00327341	56.2277
0.0032923	56.3905
0.00331131	56.5538
0.00333043	56.7175
0.00334965	56.8816
0.00336899	57.0463
0.00338844	57.2114
0.003408	57.377
0.00342768	57.5431
0.00344747	57.7097
0.00346737	57.8767
0.00348739	58.0443
0.00350752	58.2123
0.00352777	58.3808
0.00354813	58.5497
0.00356862	58.7192
0.00358922	58.8892
0.00360994	59.0596
0.00363078	59.2305
0.00365174	59.402
0.00367282	59.5739
0.00369403	59.7463
0.00371535	59.9192
0.0037368	60.0926
0.00375837	60.2665
0.00378007	60.4409
0.00380189	60.6159
0.00382384	60.7913
0.00384592	60.9672
0.00386812	61.1436
0.00389045	61.3206
0.00391291	61.498
0.0039355	61.676
0.00395822	61.8545
0.00398107	62.0335
0.00400405	62.213
0.00402717	62.393
0.00405042	62.5735
0.0040738	62.7546
0.00409732	62.9362
0.00412098	63.1183
0.00414477	63.3009
0.00416869	63.4841
0.00419276	63.6678
0.00421697	63.852
0.00424131	64.0367
0.0042658	64.222
0.00429042	64.4078
0.00431519	64.5942
0.0043401	64.7811
0.00436516	64.9685
0.00439036	65.1564
0.0044157	65.345
0.0044412	65.534
0.00446684	65.7236
0.00449262	65.9137
0.00451856	66.1044
0.00454465	66.2957
0.00457088	66.4875
0.00459727	66.6798
0.00462381	66.8727
0.0046505	67.0662
0.00467735	67.2602
0.00470435	67.4547
0.00473151	67.6499
0.00475883	67.8456
0.0047863	68.0418
0.00481393	68.2387
0.00484172	68.436
0.00486968	68.634
0.00489779	68.8325
0.00492606	69.0316
0.0049545	69.2313
0.0049831	69.4316
0.00501187	69.6324
0.00504081	69.8338
0.00506991	70.0358
0.00509918	70.2384
0.00512861	70.4415
0.00515822	70.6453
0.005188	70.8496
0.00521795	71.0545
0.00524807	71.26
0.00527837	71.4661
0.00530884	71.6728
0.00533949	71.8801
0.00537032	72.088
0.00540132	72.2965
0.0054325	72.5056
0.00546387	72.7153
0.00549541	72.9256
0.00552713	73.1365
0.00555904	73.348
0.00559114	73.5601
0.00562341	73.7728
0.00565588	73.9862
0.00568853	74.2001
0.00572137	74.4147
0.0057544	74.6299
0.00578762	74.8457
0.00582103	75.0621
0.00585464	75.2792
0.00588844	75.4969
0.00592243	75.7152
0.00595662	75.9341
0.00599101	76.1537
0.0060256	76.3739
0.00606038	76.5947
0.00609537	76.8162
0.00613056	77.0383
0.00616595	77.2611
0.00620155	77.4845
0.00623735	77.7085
0.00627336	77.9332
0.00630957	78.1586
0.006346	78.3845
0.00638263	78.6112
0.00641948	78.8385
0.00645654	79.0664
0.00649382	79.295
0.00653131	79.5243
0.00656901	79.7542
0.00660693	79.9848
0.00664508	80.216
0.00668344	80.4479
0.00672202	80.6805
0.00676083	80.9138
0.00679986	81.1477
0.00683912	81.3823
0.0068786	81.6176
0.00691831	81.8535
0.00695825	82.0902
0.00699842	82.3275
0.00703882	82.5655
0.00707946	82.8042
0.00712033	83.0435
0.00716143	83.2836
0.00720278	83.5244
0.00724436	83.7658
0.00728618	84.008
0.00732825	84.2508
0.00737055	84.4944
0.0074131	84.7386
0.0074559	84.9836
0.00749894	85.2292
0.00754223	85.4756
0.00758578	85.7226
0.00762957	85.9704
0.00767361	86.2189
0.00771792	86.4682
0.00776247	86.7181
0.00780728	86.9687
0.00785236	87.2201
0.00789769	87.4722
0.00794328	87.7251
0.00798914	87.9786
0.00803526	88.2329
0.00808165	88.4879
0.00812831	88.7437
0.00817523	89.0002
0.00822243	89.2574
0.0082699	89.5154
0.00831764	89.7741
0.00836566	90.0336
0.00841395	90.2938
0.00846253	90.5548
0.00851138	90.8165
0.00856052	91.0789
0.00860994	91.3422
0.00865964	91.6061
0.00870964	91.8709
0.00875992	92.1364
0.00881049	92.4027
0.00886135	92.6697
0.00891251	92.9375
0.00896396	93.2061
0.00901571	93.4755
0.00906776	93.7456
0.00912011	94.0165
0.00917276	94.2882
0.00922571	94.5607
0.00927897	94.8339
0.00933254	95.108
0.00938642	95.3828
0.00944061	95.6585
0.00949511	95.9349
0.00954993	96.2121
0.00960506	96.4901
0.00966051	96.769
0.00971628	97.0486
0.00977237	97.5726
0.00982879	97.8538
0.00988553	98.1359
0.0099426	98.4187
0.01	98.7024
0.0100577	98.9869
0.0101158	99.2722
0.0101742	99.5584
0.0102329	99.8453
0.010292	100.133
0.0103514	100.422
0.0104112	100.711
0.0104713	101.001
0.0105317	101.293
0.0105925	101.585
0.0106537	101.877
0.0107152	102.171
0.0107771	102.466
0.0108393	102.761
0.0109018	103.057
0.0109648	103.354
0.0110281	103.652
0.0110917	103.951
0.0111558	104.25
0.0112202	104.551
0.011285	104.852
0.0113501	105.154
0.0114156	105.458
0.0114815	105.762
0.0115478	106.066
0.0116145	106.372
0.0116815	106.679
0.011749	106.986
0.0118168	107.295
0.011885	107.604
0.0119536	107.914
0.0120226	108.225
0.0120921	108.537
0.0121619	108.85
0.0122321	109.164
0.0123027	109.478
0.0123737	109.794
0.0124451	110.11
0.012517	110.428
0.0125893	110.746
0.0126619	111.065
0.012735	111.385
0.0128086	111.706
0.0128825	112.028
0.0129569	112.351
0.0130317	112.675
0.0131069	113
0.0131826	113.326
0.0132587	113.652
0.0133352	113.98
0.0134122	114.308
0.0134896	114.638
0.0135675	114.968
0.0136458	115.3
0.0137246	115.632
0.0138038	115.965
0.0138835	116.299
0.0139637	116.635
0.0140443	116.971
0.0141254	117.308
0.0142069	117.646
0.0142889	117.985
0.0143714	118.325
0.0144544	118.666
0.0145378	119.008
0.0146218	119.351
0.0147062	119.695
0.0147911	120.04
0.0148765	120.386
0.0149624	120.733
0.0150487	121.081
0.0151356	121.43
0.015223	121.78
0.0153109	122.132
0.0153993	122.484
0.0154882	122.837
0.0155776	123.191
0.0156675	123.546
0.015758	123.902
0.0158489	124.259
0.0159404	124.617
0.0160325	124.976
0.016125	125.337
0.0162181	125.698
0.0163117	126.06
0.0164059	126.423
0.0165006	126.788
0.0165959	127.153
0.0166917	127.52
0.016788	127.887
0.016885	128.256
0.0169824	128.626
0.0170805	128.996
0.0171791	129.368
0.0172783	129.741
0.017378	130.115
0.0174783	130.49
0.0175792	130.866
0.0176807	131.243
0.0177828	131.622
0.0178855	132.001
0.0179887	132.382
0.0180926	132.763
0.018197	133.146
0.0183021	133.53
0.0184077	133.915
0.018514	134.301
0.0186209	134.688
0.0187284	135.076
0.0188365	135.465
0.0189452	135.856
0.0190546	136.247
0.0191646	136.64
0.0192752	137.034
0.0193865	137.429
0.0194984	137.825
0.019611	138.222
0.0197242	138.621
0.0198381	139.02
0.0199526	139.421
0.0200678	139.823
0.0201837	140.226
0.0203002	140.63
0.0204174	141.035
0.0205353	141.442
0.0206538	141.849
0.020773	142.258
0.020893	142.668
0.0210136	143.08
0.0211349	143.492
0.0212569	143.906
0.0213796	144.32
0.021503	144.736
0.0216272	145.154
0.021752	145.572
0.0218776	145.992
0.0220039	146.412
0.0221309	146.834
0.0222587	147.258
0.0223872	147.682
0.0225165	148.108
0.0226464	148.535
0.0227772	148.963
0.0229087	149.392
0.0230409	149.823
0.0231739	150.255
0.0233077	150.688
0.0234423	151.122
0.0235776	151.558
0.0237137	151.994
0.0238506	152.433
0.0239883	152.872
0.0241268	153.313
0.0242661	153.754
0.0244062	154.198
0.0245471	154.642
0.0246888	155.088
0.0248313	155.535
0.0249747	155.983
0.0251189	156.433
0.0252639	156.884
0.0254097	157.336
0.0255564	157.789
0.025704	158.244
0.0258523	158.7
0.0260016	159.158
0.0261517	159.616
0.0263027	160.077
0.0264545	160.538
0.0266073	161.001
0.0267609	161.465
0.0269153	161.93
0.0270707	162.397
0.027227	162.865
0.0273842	163.334
0.0275423	163.805
0.0277013	164.277
0.0278612	164.751
0.0280221	165.226
0.0281838	165.702
0.0283465	166.18
0.0285102	166.659
0.0286748	167.139
0.0288403	167.621
0.0290068	168.104
0.0291743	168.588
0.0293427	169.074
0.0295121	169.562
0.0296825	170.05
0.0298538	170.541
0.0300262	171.032
0.0301995	171.525
0.0303739	172.02
0.0305492	172.515
0.0307256	173.013
0.030903	173.511
0.0310814	174.011
0.0312608	174.513
0.0314413	175.016
0.0316228	175.52
0.0318053	176.026
0.031989	176.534
0.0321736	177.043
0.0323594	177.553
0.0325462	178.065
0.0327341	178.578
0.032923	179.093
0.0331131	179.609
0.0333043	180.127
0.0334965	180.646
0.0336899	181.166
0.0338844	181.689
0.03408	182.212
0.0342768	182.738
0.0344747	183.264
0.0346737	183.792
0.0348739	184.322
0.0350752	184.854
0.0352777	185.386
0.0354813	185.921
0.0356862	186.457
0.0358922	186.994
0.0360994	187.533
0.0363078	188.074
0.0365174	188.616
0.0367282	189.159
0.0369403	189.705
0.0371535	190.251
0.037368	190.8
0.0375837	191.35
0.0378007	191.901
0.0380189	192.454
0.0382384	193.009
0.0384592	193.565
0.0386812	194.123
0.0389045	194.683
0.0391291	195.244
0.039355	195.807
0.0395822	196.371
0.0398107	196.937
0.0400405	197.505
0.0402717	198.074
0.0405042	198.645
0.040738	199.218
0.0409732	199.792
0.0412098	200.368
0.0414477	200.945
0.0416869	201.524
0.0419276	202.105
0.0421697	202.688
0.0424131	203.272
0.042658	203.858
0.0429042	204.446
0.0431519	205.035
0.043401	205.626
0.0436516	206.219
0.0439036	206.813
0.044157	207.409
0.044412	208.007
0.0446684	208.606
0.0449262	209.208
0.0451856	209.811
0.0454465	210.416
0.0457088	211.022
0.0459727	211.63
0.0462381	212.24
0.046505	212.852
0.0467735	213.466
0.0470435	214.081
0.0473151	214.698
0.0475883	215.317
0.047863	215.937
0.0481393	216.56
0.0484172	217.184
0.0486968	217.81
0.0489779	218.438
0.0492606	219.067
0.049545	219.699
0.049831	220.332
0.0501187	220.967
0.0504081	221.604
0.0506991	222.243
0.0509918	222.883
0.0512861	223.526
0.0515822	224.17
0.05188	224.816
0.0521795	225.464
0.0524807	226.114
0.0527837	226.766
0.0530884	227.42
0.0533949	228.075
0.0537032	228.732
0.0540132	229.392
0.054325	230.053
0.0546387	230.716
0.0549541	231.381
0.0552713	232.048
0.0555904	232.717
0.0559114	233.388
0.0562341	234.06
0.0565588	234.735
0.0568853	235.412
0.0572137	236.09
0.057544	236.771
0.0578762	237.453
0.0582103	238.137
0.0585464	238.824
0.0588844	239.512
0.0592243	240.203
0.0595662	240.895
0.0599101	241.589
0.060256	242.286
0.0606038	242.984
0.0609537	243.684
0.0613056	244.387
0.0616595	245.091
0.0620155	245.798
0.0623735	246.506
0.0627336	247.217
0.0630957	247.929
0.06346	248.644
0.0638263	249.361
0.0641948	250.079
0.0645654	250.8
0.0649382	251.523
0.0653131	252.248
0.0656901	252.975
0.0660693	253.704
0.0664508	254.436
0.0668344	255.169
0.0672202	255.904
0.0676083	256.642
0.0679986	257.382
0.0683912	258.124
0.068786	258.868
0.0691831	259.614
0.0695825	260.362
0.0699842	261.113
0.0703882	261.865
0.0707946	262.62
0.0712033	263.377
0.0716143	264.136
0.0720278	264.897
0.0724436	265.661
0.0728618	266.427
0.0732825	267.195
0.0737055	267.965
0.074131	268.737
0.074559	269.512
0.0749894	270.289
0.0754223	271.068
0.0758578	271.849
0.0762957	272.633
0.0767361	273.418
0.0771792	274.207
0.0776247	274.997
0.0780728	275.79
0.0785236	276.584
0.0789769	277.382
0.0794328	278.181
0.0798914	278.983
0.0803526	279.787
0.0808165	280.594
0.0812831	281.402
0.0817523	282.213
0.0822243	283.027
0.082699	283.843
0.0831764	284.661
0.0836566	285.481
0.0841395	286.304
0.0846253	287.129
0.0851138	287.957
0.0856052	288.787
0.0860994	289.619
0.0865964	290.454
0.0870964	291.291
0.0875992	292.131
0.0881049	292.973
0.0886135	293.818
0.0891251	294.664
0.0896396	295.514
0.0901571	296.366
0.0906776	297.22
0.0912011	298.077
0.0917276	298.936
0.0922571	299.797
0.0927897	300.661
0.0933254	301.528
0.0938642	302.397
0.0944061	303.269
0.0949511	304.143
0.0954993	305.02
0.0960506	305.899
0.0966051	306.78
0.0971628	307.665
0.0977237	308.552
0.0982879	309.441
0.0988553	310.333
0.099426	311.227
0.1	312.124
0.100577	313.024
0.101158	313.926
0.101742	314.831
0.102329	315.739
0.10292	316.649
0.103514	317.561
0.104112	318.477
0.104713	319.395
0.105317	320.315
0.105925	321.239
0.106537	322.165
0.107152	323.093
0.107771	324.024
0.108393	324.958
0.109018	325.895
0.109648	326.834
0.110281	327.776
0.110917	328.721
0.111558	329.669
0.112202	330.619
0.11285	331.572
0.113501	332.528
0.114156	333.486
0.114815	334.447
0.115478	335.411
0.116145	336.378
0.116815	337.348
0.11749	338.32
0.118168	339.295
0.11885	340.273
0.119536	341.254
0.120226	342.238
0.120921	343.224
0.121619	344.213
0.122321	345.206
0.123027	346.201
0.123737	347.198
0.124451	348.199
0.12517	349.203
0.125893	350.209
0.126619	351.219
0.12735	352.231
0.128086	353.246
0.128825	354.265
0.129569	355.286
0.130317	356.31
0.131069	357.337
0.131826	358.367
0.132587	359.4
0.133352	360.436
0.134122	361.475
0.134896	362.516
0.135675	363.561
0.136458	364.609
0.137246	365.66
0.138038	366.714
0.138835	367.771
0.139637	368.831
0.140443	369.894
0.141254	370.961
0.142069	372.03
0.142889	373.102
0.143714	374.178
0.144544	375.256
0.145378	376.338
0.146218	377.422
0.147062	378.51
0.147911	379.601
0.148765	380.696
0.149624	381.793
0.150487	382.893
0.151356	383.997
0.15223	385.104
0.153109	386.214
0.153993	387.327
0.154882	388.443
0.155776	389.563
0.156675	390.686
0.15758	391.812
0.158489	392.941
0.159404	394.074
0.160325	395.21
0.16125	396.349
0.162181	397.491
0.163117	398.637
0.164059	399.786
0.165006	400.938
0.165959	402.094
0.166917	403.253
0.16788	404.415
0.16885	405.581
0.169824	406.75
0.170805	407.923
0.171791	409.098
0.172783	410.278
0.17378	411.46
0.174783	412.646
0.175792	413.836
0.176807	415.028
0.177828	416.225
0.178855	417.424
0.179887	418.627
0.180926	419.834
0.18197	421.044
0.183021	422.258
0.184077	423.475
0.18514	424.696
0.186209	425.92
0.187284	427.147
0.188365	428.379
0.189452	429.613
0.190546	430.852
0.191646	432.094
0.192752	433.339
0.193865	434.588
0.194984	435.841
0.19611	437.097
0.197242	438.357
0.198381	439.62
0.199526	440.887
0.200678	442.158
0.201837	443.433
0.203002	444.711
0.204174	445.993
0.205353	447.278
0.206538	448.567
0.20773	449.86
0.20893	451.157
0.210136	452.457
0.211349	453.762
0.212569	455.07
0.213796	456.381
0.21503	457.697
0.216272	459.016
0.21752	460.339
0.218776	461.666
0.220039	462.997
0.221309	464.331
0.222587	465.669
0.223872	467.012
0.225165	468.358
0.226464	469.708
0.227772	471.062
0.229087	472.419
0.230409	473.781
0.231739	475.147
0.233077	476.516
0.234423	477.89
0.235776	479.267
0.237137	480.649
0.238506	482.034
0.239883	483.423
0.241268	484.817
0.242661	486.214
0.244062	487.616
0.245471	489.021
0.246888	490.431
0.248313	491.844
0.249747	493.262
0.251189	494.684
0.252639	496.11
0.254097	497.54
0.255564	498.974
0.25704	500.412
0.258523	501.854
0.260016	503.301
0.261517	504.752
0.263027	506.207
0.264545	507.666
0.266073	509.129
0.267609	510.596
0.269153	512.068
0.270707	513.544
0.27227	515.024
0.273842	516.509
0.275423	517.998
0.277013	519.491
0.278612	520.988
0.280221	522.49
0.281838	523.996
0.283465	525.506
0.285102	527.021
0.286748	528.54
0.288403	530.063
0.290068	531.591
0.291743	533.123
0.293427	534.66
0.295121	536.201
0.296825	537.747
0.298538	539.297
0.300262	540.851
0.301995	542.41
0.303739	543.974
0.305492	545.541
0.307256	547.114
0.30903	548.691
0.310814	550.272
0.312608	551.859
0.314413	553.449
0.316228	555.044
0.318053	556.644
0.31989	558.249
0.321736	559.858
0.323594	561.472
0.325462	563.09
0.327341	564.713
0.32923	566.341
0.331131	567.973
0.333043	569.61
0.334965	571.252
0.336899	572.899
0.338844	574.55
0.3408	576.206
0.342768	577.867
0.344747	579.532
0.346737	581.203
0.348739	582.878
0.350752	584.558
0.352777	586.243
0.354813	587.933
0.356862	589.628
0.358922	591.327
0.360994	593.031
0.363078	594.741
0.365174	596.455
0.367282	598.174
0.369403	599.898
0.371535	601.628
0.37368	603.362
0.375837	605.101
0.378007	606.845
0.380189	608.594
0.382384	610.348
0.384592	612.108
0.386812	613.872
0.389045	615.641
0.391291	617.416
0.39355	619.195
0.395822	620.98
0.398107	622.77
0.400405	624.565
0.402717	626.365
0.405042	628.171
0.40738	629.981
0.409732	631.797
0.412098	633.618
0.414477	635.445
0.416869	637.276
0.419276	639.113
0.421697	640.955
0.424131	642.803
0.42658	644.656
0.429042	646.514
0.431519	648.377
0.43401	650.246
0.436516	652.12
0.439036	654
0.44157	655.885
0.44412	657.776
0.446684	659.672
0.449262	661.573
0.451856	663.48
0.454465	665.392
0.457088	667.31
0.459727	669.234
0.462381	671.163
0.46505	673.097
0.467735	675.037
0.470435	676.983
0.473151	678.934
0.475883	680.891
0.47863	682.854
0.481393	684.822
0.484172	686.796
0.486968	688.776
0.489779	690.761
0.492606	692.752
0.49545	694.749
0.49831	696.751
0.501187	698.76
0.504081	700.774
0.506991	702.794
0.509918	704.819
0.512861	706.851
0.515822	708.888
0.5188	710.931
0.521795	712.981
0.524807	715.036
0.527837	717.097
0.530884	719.164
0.533949	721.237
0.537032	723.315
0.540132	725.4
0.54325	727.491
0.546387	729.588
0.549541	731.691
0.552713	733.8
0.555904	735.915
0.559114	738.036
0.562341	740.164
0.565588	742.297
0.568853	744.437
0.572137	746.582
0.57544	748.734
0.578762	750.892
0.582103	753.057
0.585464	755.227
0.588844	757.404
0.592243	759.587
0.595662	761.777
0.599101	763.973
0.60256	766.175
0.606038	768.383
0.609537	770.598
0.613056	772.819
0.616595	775.046
0.620155	777.28
0.623735	779.521
0.627336	781.768
0.630957	784.021
0.6346	786.281
0.638263	788.547
0.641948	790.82
0.645654	793.1
0.649382	795.386
0.653131	797.678
0.656901	799.977
0.660693	802.283
0.664508	804.596
0.668344	806.915
0.672202	809.241
0.676083	811.573
0.679986	813.913
0.683912	816.259
0.68786	818.611
0.691831	820.971
0.695825	823.337
0.699842	825.71
0.703882	828.09
0.707946	830.477
0.712033	832.871
0.716143	835.272
0.720278	837.679
0.724436	840.094
0.728618	842.515
0.732825	844.944
0.737055	847.379
0.74131	849.822
0.74559	852.271
0.749894	854.728
0.754223	857.191
0.758578	859.662
0.762957	862.14
0.767361	864.625
0.771792	867.117
0.776247	869.616
0.780728	872.123
0.785236	874.637
0.789769	877.158
0.794328	879.686
0.798914	882.222
0.803526	884.765
0.808165	887.315
0.812831	889.872
0.817523	892.437
0.822243	895.01
0.82699	897.589
0.831764	900.177
0.836566	902.771
0.841395	905.373
0.846253	907.983
0.851138	910.6
0.856052	913.225
0.860994	915.857
0.865964	918.497
0.870964	921.144
0.875992	923.8
0.881049	926.462
0.886135	929.133
0.891251	931.811
0.896396	934.497
0.901571	937.19
0.906776	939.892
0.912011	942.601
0.917276	945.318
0.922571	948.042
0.927897	950.775
0.933254	953.515
0.938642	956.264
0.944061	959.02
0.949511	961.784
0.954993	964.557
0.960506	967.337
0.966051	970.125
0.971628	972.921
0.977237	975.726
0.982879	978.538
0.988553	981.359
0.99426	984.187
1	987.024
1.00577	989.869
1.01158	992.722
1.01742	995.584
1.02329	998.453
1.0292	1001.33
1.03514	1004.22
1.04112	1007.11
1.04713	1010.01
1.05317	1012.93
1.05925	1015.85
1.06537	1018.77
1.07152	1021.71
1.07771	1024.66
1.08393	1027.61
1.09018	1030.57
1.09648	1033.54
1.10281	1036.52
1.10917	1039.51
1.11558	1042.5
1.12202	1045.51
1.1285	1048.52
1.13501	1051.54
1.14156	1054.58
1.14815	1057.62
1.15478	1060.66
1.16145	1063.72
1.16815	1066.79
1.1749	1069.86
1.18168	1072.95
1.1885	1076.04
1.19536	1079.14
1.20226	1082.25
1.20921	1085.37
1.21619	1088.5
1.22321	1091.64
1.23027	1094.78
1.23737	1097.94
1.24451	1101.1
1.2517	1104.28
1.25893	1107.46
1.26619	1110.65
1.2735	1113.85
1.28086	1117.06
1.28825	1120.28
1.29569	1123.51
1.30317	1126.75
1.31069	1130
1.31826	1133.26
1.32587	1136.52
1.33352	1139.8
1.34122	1143.08
1.34896	1146.38
1.35675	1149.68
1.36458	1153
1.37246	1156.32
1.38038	1159.65
1.38835	1162.99
1.39637	1166.35
1.40443	1170.06
1.41254	1174.08
1.42069	1178.12
1.42889	1182.18
1.43714	1186.27
1.44544	1190.38
1.45378	1194.5
1.46218	1198.66
1.47062	1202.83
1.47911	1207.02
1.48765	1211.24
1.49624	1215.48
1.50487	1219.74
1.51356	1224.03
1.5223	1228.33
1.53109	1232.66
1.53993	1237.02
1.54882	1241.39
1.55776	1245.79
1.56675	1250.21
1.5758	1254.65
1.58489	1259.11
1.59404	1263.6
1.60325	1268.11
1.6125	1272.64
1.62181	1277.2
1.63117	1281.77
1.64059	1286.38
1.65006	1291
1.65959	1295.65
1.66917	1300.32
1.6788	1305.01
1.6885	1309.53
1.69824	1314.05
1.70805	1318.58
1.71791	1323.14
1.72783	1327.72
1.7378	1332.33
1.74783	1336.95
1.75792	1341.6
1.76807	1346.26
1.77828	1350.95
1.78855	1355.66
1.79887	1360.39
1.80926	1365.14
1.8197	1369.92
1.83021	1374.71
1.84077	1379.53
1.8514	1384.36
1.86209	1389.22
1.87284	1394.1
1.88365	1399
1.89452	1403.92
1.90546	1408.86
1.91646	1413.82
1.92752	1418.8
1.93865	1423.8
1.94984	1428.83
1.9611	1433.87
1.97242	1438.93
1.98381	1444.01
1.99526	1449.12
2.00678	1454.24
2.01837	1459.38
2.03002	1464.54
2.04174	1469.72
2.05353	1474.92
2.06538	1480.14
2.0773	1485.38
2.0893	1490.63
2.10136	1495.91
2.11349	1501.2
2.12569	1506.51
2.13796	1511.84
2.1503	1517.18
2.16272	1522.55
2.1752	1527.93
2.18776	1533.32
2.20039	1538.74
2.21309	1544.17
2.22587	1549.61
2.23872	1555.08
2.25165	1560.5
2.26464	1565.94
2.27772	1571.39
2.29087	1576.85
2.30409	1582.33
2.31739	1587.82
2.33077	1593.34
2.34423	1598.86
2.35776	1604.4
2.37137	1609.96
2.38506	1615.53
2.39883	1621.11
2.41268	1626.72
2.42661	1632.33
2.44062	1637.96
2.45471	1643.61
2.46888	1649.27
2.48313	1654.95
2.49747	1660.64
2.51189	1666.35
2.52639	1672.07
2.54097	1677.81
2.55564	1683.56
2.5704	1689.33
2.58523	1695.11
2.60016	1700.91
2.61517	1706.73
2.63027	1712.55
2.64545	1718.4
2.66073	1724.26
2.67609	1730.13
2.69153	1736.02
2.70707	1741.93
2.7227	1747.85
2.73842	1753.78
2.75423	1759.74
2.77013	1765.7
2.78612	1771.68
2.80221	1777.68
2.81838	1783.69
2.83465	1789.72
2.85102	1795.76
2.86748	1801.81
2.88403	1807.89
2.90068	1813.97
2.91743	1820.08
2.93427	1826.19
2.95121	1832.33
2.96825	1838.47
2.98538	1844.64
3.00262	1850.81
3.01995	1857.01
3.03739	1863.22
3.05492	1869.44
3.07256	1875.68
3.0903	1881.93
3.10814	1888.2
3.12608	1894.48
3.14413	1900.78
3.16228	1907.09
3.18053	1913.42
3.1989	1919.76
3.21736	1926.11
3.23594	1932.49
3.25462	1938.87
3.27341	1945.27
3.2923	1951.69
3.31131	1958.11
3.33043	1964.56
3.34965	1971.02
3.36899	1977.49
3.38844	1983.98
3.408	1990.48
3.42768	1996.99
3.44747	2003.52
3.46737	2010.07
3.48739	2016.63
3.50752	2023.21
3.52777	2029.8
3.54813	2036.4
3.56862	2043.03
3.58922	2049.66
3.60994	2056.32
3.63078	2062.98
3.65174	2069.67
3.67282	2076.37
3.69403	2083.09
3.71535	2089.82
3.7368	2096.57
3.75837	2103.34
3.78007	2110.12
3.80189	2116.92
3.82384	2123.74
3.84592	2130.57
3.86812	2137.43
3.89045	2144.3
3.91291	2151.19
3.9355	2158.1
3.95822	2165.03
3.98107	2171.97
4.00405	2178.94
4.02717	2185.93
4.05042	2192.93
4.0738	2199.96
4.09732	2207.01
4.12098	2214.08
4.14477	2221.17
4.16869	2228.29
4.19276	2235.43
4.21697	2242.59
4.24131	2249.78
4.2658	2256.99
4.29042	2264.22
4.31519	2271.49
4.3401	2278.78
4.36516	2286.09
4.39036	2293.43
4.4157	2300.81
4.4412	2308.21
4.46684	2315.64
4.49262	2323.1
4.51856	2330.59
4.54465	2338.12
4.57088	2345.67
4.59727	2353.26
4.62381	2360.88
4.6505	2368.54
4.67735	2376.23
4.70435	2383.95
4.73151	2391.71
4.75883	2399.51
4.7863	2407.34
4.81393	2415.22
4.84172	2423.13
4.86968	2431.07
4.89779	2439.06
4.92606	2447.09
4.9545	2455.16
4.9831	2463.28
5.01187	2471.43
5.04081	2479.63
5.06991	2487.88
5.09918	2496.17
5.12861	2504.5
5.15822	2512.88
5.188	2521.3
5.21795	2529.77
5.24807	2538.29
5.27837	2546.84
5.30884	2555.45
5.33949	2564.1
5.37032	2572.79
5.40132	2581.53
5.4325	2590.31
5.46387	2599.14
5.49541	2608.02
5.52713	2616.94
5.55904	2625.9
5.59114	2634.91
5.62341	2643.97
5.65588	2653.07
5.68853	2662.21
5.72137	2671.4
5.7544	2680.64
5.78762	2689.92
5.82103	2699.24
5.85464	2708.61
5.88844	2718.03
5.92243	2727.48
5.95662	2736.99
5.99101	2746.53
6.0256	2756.13
6.06038	2765.76
6.09537	2775.44
6.13056	2785.16
6.16595	2794.93
6.20155	2804.74
6.23735	2814.59
6.27336	2824.49
6.30957	2834.43
6.346	2844.41
6.38263	2854.43
6.41948	2864.5
6.45654	2874.61
6.49382	2884.76
6.53131	2894.95
6.56901	2905.19
6.60693	2915.46
6.64508	2925.77
6.68344	2936.13
6.72202	2946.52
6.76083	2956.96
6.79986	2967.43
6.83912	2977.94
6.8786	2988.5
6.91831	2999.08
6.95825	3009.71
6.99842	3020.37
7.03882	3031.07
7.07946	3041.81
7.12033	3052.58
7.16143	3063.39
7.20278	3074.23
7.24436	3085.11
7.28618	3096.02
7.32825	3106.96
7.37055	3117.94
7.4131	3128.94
7.4559	3139.98
7.49894	3151.05
7.54223	3162.14
7.58578	3173.27
7.62957	3184.43
7.67361	3195.61
7.71792	3206.82
7.76247	3218.05
7.80728	3229.31
7.85236	3240.59
7.89769	3251.9
7.94328	3263.23
7.98914	3274.58
8.03526	3285.95
8.08165	3297.34
8.12831	3308.75
8.17523	3320.18
8.22243	3331.62
8.2699	3343.07
8.31764	3354.54
8.36566	3366.03
8.41395	3377.51
8.46253	3388.98
8.51138	3400.46
8.56052	3411.95
8.60994	3423.45
8.65964	3434.95
8.70964	3446.47
8.75992	3457.99
8.81049	3469.53
8.86135	3481.07
8.91251	3492.61
8.96396	3504.17
9.01571	3515.73
9.06776	3527.29
9.12011	3538.87
9.17276	3550.45
9.22571	3562.03
9.27897	3573.62
9.33254	3585.21
9.38642	3596.81
9.44061	3608.41
9.49511	3620.02
9.54993	3631.63
9.60506	3643.24
9.66051	3654.86
9.71628	3666.47
9.77237	3678.09
9.82879	3689.71
9.88553	3701.34
9.9426	3712.96
10	3724.59
10.0577	3736.21
10.1158	3747.84
10.1742	3759.46
10.2329	3771.09
10.292	3782.71
10.3514	3794.33
10.4112	3805.95
10.4713	3817.57
10.5317	3829.19
10.5925	3840.81
10.6537	3852.42
10.7152	3864.03
10.7771	3875.64
10.8393	3887.24
10.9018	3898.84
10.9648	3910.44
11.0281	3922.03
11.0917	3933.62
11.1558	3945.2
11.2202	3956.79
11.285	3968.4
11.3501	3980
11.4156	3991.59
11.4815	4003.18
11.5478	4014.77
11.6145	4026.34
11.6815	4037.91
11.749	4049.48
11.8168	4061.03
11.885	4072.58
11.9536	4084.11
12.0226	4095.64
12.0921	4107.17
12.1619	4118.68
12.2321	4130.18
12.3027	4141.67
12.3737	4153.15
12.4451	4164.63
12.517	4176.09
12.5893	4187.54
12.6619	4198.98
12.735	4210.4
12.8086	4221.82
12.8825	4233.23
12.9569	4244.62
13.0317	4256
13.1069	4267.37
13.1826	4278.72
13.2587	4290.07
13.3352	4301.4
13.4122	4312.71
13.4896	4324.02
13.5675	4335.31
13.6458	4346.58
13.7246	4357.85
13.8038	4369.1
13.8835	4380.34
13.9637	4391.56
14.0443	4402.77
14.1254	4413.97
14.2069	4425.15
14.2889	4436.32
14.3714	4447.48
14.4544	4458.62
14.5378	4469.74
14.6218	4480.85
14.7062	4491.95
14.7911	4503.03
14.8765	4514.09
14.9624	4525.13
15.0487	4536.16
15.1356	4547.18
15.223	4558.17
15.3109	4569.15
15.3993	4580.11
15.4882	4591.06
15.5776	4601.98
15.6675	4612.89
15.758	4623.78
15.8489	4634.66
15.9404	4645.51
16.0325	4656.35
16.125	4667.17
16.2181	4677.97
16.3117	4688.75
16.4059	4699.52
16.5006	4710.27
16.5959	4721
16.6917	4731.71
16.788	4742.41
16.885	4753.1
16.9824	4763.77
17.0805	4774.43
17.1791	4785.07
17.2783	4795.69
17.378	4806.29
17.4783	4816.87
17.5792	4827.44
17.6807	4837.98
17.7828	4848.51
17.8855	4859.01
17.9887	4869.49
18.0926	4879.96
18.197	4890.4
18.3021	4900.82
18.4077	4911.22
18.514	4921.6
18.6209	4931.96
18.7284	4942.29
18.8365	4952.61
18.9452	4962.9
19.0546	4973.17
19.1646	4983.42
19.2752	4993.65
19.3865	5003.86
19.4984	5014.04
19.611	5024.2
19.7242	5034.34
19.8381	5044.46
19.9526	5054.56
20.0678	5064.64
20.1837	5074.69
20.3002	5084.72
20.4174	5094.73
20.5353	5104.72
20.6538	5114.69
20.773	5124.64
20.893	5134.57
21.0136	5144.48
21.1349	5154.37
21.2569	5164.24
21.3796	5174.09
21.503	5183.92
21.6272	5193.74
21.752	5203.54
21.8776	5213.32
22.0039	5223.08
22.1309	5232.83
22.2587	5242.57
22.3872	5252.28
22.5165	5261.94
22.6464	5271.58
22.7772	5281.2
22.9087	5290.8
23.0409	5300.4
23.1739	5309.97
23.3077	5319.53
23.4423	5329.07
23.5776	5338.6
23.7137	5348.11
23.8506	5357.6
23.9883	5367.07
24.1268	5376.53
24.2661	5385.97
24.4062	5395.38
24.5471	5404.78
24.6888	5414.16
24.8313	5423.52
24.9747	5432.86
25.1189	5442.18
25.2639	5451.48
25.4097	5460.75
25.5564	5470.01
25.704	5479.25
25.8523	5488.46
26.0016	5497.65
26.1517	5506.82
26.3027	5515.96
26.4545	5525.09
26.6073	5534.19
26.7609	5543.27
26.9153	5552.32
27.0707	5561.35
27.227	5570.36
27.3842	5579.34
27.5423	5588.3
27.7013	5597.24
27.8612	5606.15
28.0221	5615.04
28.1838	5623.92
28.3465	5632.78
28.5102	5641.61
28.6748	5650.41
28.8403	5659.19
29.0068	5667.95
29.1743	5676.67
29.3427	5685.37
29.5121	5694.05
29.6825	5702.69
29.8538	5711.3
30.0262	5719.89
30.1995	5728.45
30.3739	5736.98
30.5492	5745.48
30.7256	5753.94
30.903	5762.38
31.0814	5770.79
31.2608	5779.16
31.4413	5787.51
31.6228	5795.82
31.8053	5804.1
31.989	5812.34
32.1736	5820.56
32.3594	5828.74
32.5462	5836.88
32.7341	5845
32.923	5853.08
33.1131	5861.12
33.3043	5869.13
33.4965	5877.1
33.6899	5885.05
33.8844	5892.95
34.08	5900.82
34.2768	5908.65
34.4747	5916.45
34.6737	5924.21
34.8739	5931.93
35.0752	5939.61
35.2777	5947.25
35.4813	5954.86
35.6862	5962.42
35.8922	5969.94
36.0994	5977.42
36.3078	5984.86
36.5174	5992.26
36.7282	5999.61
36.9403	6006.92
37.1535	6014.19
37.368	6021.41
37.5837	6028.59
37.8007	6035.73
38.0189	6042.81
38.2384	6049.86
38.4592	6056.85
38.6812	6063.8
38.9045	6070.7
39.1291	6077.55
39.355	6084.36
39.5822	6091.12
39.8107	6097.83
40.0405	6104.48
40.2717	6111.09
40.5042	6117.65
40.738	6124.16
40.9732	6130.61
41.2098	6137.01
41.4477	6143.36
41.6869	6149.66
41.9276	6155.9
42.1697	6162.09
42.4131	6168.23
42.658	6174.31
42.9042	6180.33
43.1519	6186.3
43.401	6192.21
43.6516	6198.07
43.9036	6203.87
44.157	6209.61
44.412	6215.29
44.6684	6220.92
44.9262	6226.48
45.1856	6231.99
45.4465	6237.44
45.7088	6242.83
45.9727	6248.16
46.2381	6253.43
46.505	6258.64
46.7735	6263.78
47.0435	6268.87
47.3151	6273.89
47.5883	6278.84
47.863	6283.74
48.1393	6288.57
48.4172	6293.33
48.6968	6298.03
48.9779	6302.67
49.2606	6307.23
49.545	6311.74
49.831	6316.17
50.1187	6320.54
50.4081	6324.85
50.6991	6329.08
50.9918	6333.25
51.2861	6337.35
51.5822	6341.39
51.88	6345.35
52.1795	6349.25
52.4807	6353.08
52.7837	6356.85
53.0884	6360.54
53.3949	6364.17
53.7032	6367.74
54.0132	6371.23
54.325	6374.66
54.6387	6378.02
54.9541	6381.31
55.2713	6384.54
55.5904	6387.71
55.9114	6390.81
56.2341	6393.85
56.5588	6396.84
56.8853	6399.76
57.2137	6402.61
57.544	6405.4
57.8762	6408.12
58.2103	6410.77
58.5464	6413.36
58.8844	6415.88
59.2243	6418.32
59.5662	6420.7
59.9101	6423.01
60.256	6425.25
60.6038	6427.41
60.9537	6429.51
61.3056	6431.53
61.6595	6433.48
62.0155	6435.36
62.3735	6437.17
62.7336	6438.9
63.0957	6440.56
63.46	6442.14
63.8263	6443.65
64.1948	6445.09
64.5654	6446.45
64.9382	6447.74
65.3131	6448.95
65.6901	6450.09
66.0693	6451.15
66.4508	6452.14
66.8344	6453.05
67.2202	6453.89
67.6083	6454.65
67.9986	6455.33
68.3912	6455.94
68.786	6456.47
69.1831	6456.93
69.5825	6457.31
69.9842	6457.62
70.3882	6457.85
70.7946	6458.01
71.2033	6458.09
71.6143	6458.09
72.0278	6458.03
72.4436	6457.88
72.8618	6457.67
73.2825	6457.38
73.7055	6457.02
74.131	6456.59
74.559	6456.08
74.9894	6455.5
75.4223	6454.86
75.8578	6454.14
76.2957	6453.36
76.7361	6452.5
77.1792	6451.58
77.6247	6450.59
78.0728	6449.54
78.5236	6448.42
78.9769	6447.24
79.4328	6445.99
79.8914	6444.69
80.3526	6443.32
80.8165	6441.9
81.2831	6440.41
81.7523	6438.88
82.2243	6437.28
82.699	6435.64
83.1764	6433.94
83.6566	6432.19
84.1395	6430.35
84.6253	6428.32
85.1138	6426.25
85.6052	6424.13
86.0994	6421.96
86.5964	6419.74
87.0964	6417.48
87.5992	6415.16
88.1049	6412.8
88.6135	6410.38
89.1251	6407.91
89.6396	6405.4
90.1571	6402.83
90.6776	6400.22
91.2011	6397.55
91.7276	6394.83
92.2571	6392.06
92.7897	6389.24
93.3254	6386.36
93.8642	6383.44
94.4061	6380.46
94.9511	6377.43
95.4993	6374.35
96.0506	6371.21
96.6051	6368.03
97.1628	6364.79
97.7237	6361.5
98.2879	6358.15
98.8553	6354.75
99.426	6351.3
100	6347.8
100.577	6344.24
101.158	6340.63
101.742	6336.97
102.329	6333.25
102.92	6329.48
103.514	6325.66
104.112	6321.78
104.713	6317.85
105.317	6313.87
105.925	6309.84
106.537	6305.75
107.152	6301.61
107.771	6297.42
108.393	6293.18
109.018	6288.89
109.648	6284.54
110.281	6280.15
110.917	6275.7
111.558	6271.2
112.202	6266.66
112.85	6262.08
113.501	6257.46
114.156	6252.78
114.815	6248.05
115.478	6243.27
116.145	6238.45
116.815	6233.57
117.49	6228.65
118.168	6223.67
118.85	6218.65
119.536	6213.57
120.226	6208.45
120.921	6203.28
121.619	6198.06
122.321	6192.79
123.027	6187.48
123.737	6182.11
124.451	6176.7
125.17	6171.24
125.893	6165.74
126.619	6160.19
127.35	6154.59
128.086	6148.94
128.825	6143.26
129.569	6137.52
130.317	6131.74
131.069	6125.92
131.826	6120.05
132.587	6114.14
133.352	6108.19
134.122	6102.2
134.896	6096.16
135.675	6090.09
136.458	6083.97
137.246	6077.82
138.038	6071.63
138.835	6065.4
139.637	6059.13
140.443	6052.83
141.254	6046.49
142.069	6040.12
142.889	6033.71
143.714	6027.27
144.544	6020.79
145.378	6014.28
146.218	6007.73
147.062	6001.15
147.911	5994.53
148.765	5987.87
149.624	5981.18
150.487	5974.46
151.356	5967.7
152.23	5960.91
153.109	5954.08
153.993	5947.22
154.882	5940.33
155.776	5933.4
156.675	5926.44
157.58	5919.44
158.489	5912.41
159.404	5905.35
160.325	5898.25
161.25	5891.12
162.181	5883.96
163.117	5876.76
164.059	5869.54
165.006	5862.28
165.959	5854.99
166.917	5847.67
167.88	5840.32
168.85	5832.94
169.824	5825.52
170.805	5818.08
171.791	5810.6
172.783	5803.1
173.78	5795.56
174.783	5788
175.792	5780.4
176.807	5772.77
177.828	5765.12
178.855	5757.43
179.887	5749.71
180.926	5741.97
181.97	5734.19
183.021	5726.39
184.077	5718.55
185.14	5710.68
186.209	5702.79
187.284	5694.87
188.365	5686.91
189.452	5678.93
190.546	5670.92
191.646	5662.88
192.752	5654.81
193.865	5646.72
194.984	5638.59
196.11	5630.44
197.242	5622.26
198.381	5614.05
199.526	5605.81
200.678	5597.55
201.837	5589.26
203.002	5580.94
204.174	5572.6
205.353	5564.23
206.538	5555.83
207.73	5547.41
208.93	5538.96
210.136	5530.49
211.349	5521.99
212.569	5513.46
213.796	5504.91
215.03	5496.34
216.272	5487.74
217.52	5479.12
218.776	5470.48
220.039	5461.81
221.309	5453.12
222.587	5444.41
223.872	5435.67
225.165	5426.93
226.464	5418.16
227.772	5409.37
229.087	5400.56
230.409	5391.73
231.739	5382.88
233.077	5374.01
234.423	5365.11
235.776	5356.2
237.137	5347.27
238.506	5338.31
239.883	5329.34
241.268	5320.34
242.661	5311.33
244.062	5302.3
245.471	5293.24
246.888	5284.17
248.313	5275.08
249.747	5265.96
251.189	5256.83
252.639	5247.68
254.097	5238.52
255.564	5229.33
257.04	5220.12
258.523	5210.9
260.016	5201.66
261.517	5192.4
263.027	5183.12
264.545	5173.83
266.073	5164.52
267.609	5155.19
269.153	5145.84
270.707	5136.47
272.27	5127.09
273.842	5117.7
275.423	5108.28
277.013	5098.85
278.612	5089.41
280.221	5079.94
281.838	5070.46
283.465	5060.96
285.102	5051.44
286.748	5041.91
288.403	5032.36
290.068	5022.8
291.743	5013.22
293.427	5003.63
295.121	4994.03
296.825	4984.4
298.538	4974.77
300.262	4965.12
301.995	4955.46
303.739	4945.78
305.492	4936.09
307.256	4926.38
309.03	4916.67
310.814	4906.94
312.608	4897.19
314.413	4887.43
316.228	4877.66
318.053	4867.88
319.89	4858.08
321.736	4848.28
323.594	4838.46
325.462	4828.62
327.341	4818.78
329.23	4808.92
331.131	4799.05
333.043	4789.17
334.965	4779.28
336.899	4769.38
338.844	4759.46
340.8	4749.54
342.768	4739.6
344.747	4729.65
346.737	4719.7
348.739	4709.73
350.752	4699.75
352.777	4689.76
354.813	4679.76
356.862	4669.75
358.922	4659.73
360.994	4649.71
363.078	4639.67
365.174	4629.62
367.282	4619.57
369.403	4609.51
371.535	4599.43
373.68	4589.35
375.837	4579.26
378.007	4569.17
380.189	4559.06
382.384	4548.95
384.592	4538.83
386.812	4528.7
389.045	4518.56
391.291	4508.42
393.55	4498.27
395.822	4488.11
398.107	4477.94
400.405	4467.77
402.717	4457.59
405.042	4447.41
407.38	4437.22
409.732	4427.02
412.098	4416.81
414.477	4406.61
416.869	4396.39
419.276	4386.17
421.697	4375.94
424.131	4365.71
426.58	4355.48
429.042	4345.24
431.519	4334.99
434.01	4324.74
436.516	4314.49
439.036	4304.23
441.57	4293.96
444.12	4283.7
446.684	4273.43
449.262	4263.15
451.856	4252.87
454.465	4242.59
457.088	4232.3
459.727	4222.01
462.381	4211.72
465.05	4201.42
467.735	4191.13
470.435	4180.83
473.151	4170.52
475.883	4160.22
478.63	4149.91
481.393	4139.6
484.172	4129.29
486.968	4118.98
489.779	4108.67
492.606	4098.35
495.45	4088.04
498.31	4077.72
501.187	4067.41
504.081	4057.09
506.991	4046.77
509.918	4036.45
512.861	4026.13
515.822	4015.81
518.8	4005.5
521.795	3995.18
524.807	3984.86
527.837	3974.54
530.884	3964.22
533.949	3953.91
537.032	3943.59
540.132	3933.27
543.25	3922.96
546.387	3912.64
549.541	3902.33
552.713	3892.02
555.904	3881.71
559.114	3871.4
562.341	3861.08
565.588	3850.76
568.853	3840.44
572.137	3830.12
575.44	3819.81
578.762	3809.5
582.103	3799.19
585.464	3788.88
588.844	3778.58
592.243	3768.28
595.662	3757.98
599.101	3747.69
602.56	3737.4
606.038	3727.12
609.537	3716.84
613.056	3706.56
616.595	3696.3
620.155	3686.03
623.735	3675.78
627.336	3665.53
630.957	3655.28
634.6	3645.04
638.263	3634.81
641.948	3624.59
645.654	3614.37
649.382	3604.17
653.131	3593.96
656.901	3583.77
660.693	3573.59
664.508	3563.41
668.344	3553.24
672.202	3543.08
676.083	3532.93
679.986	3522.78
683.912	3512.65
687.86	3502.52
691.831	3492.41
695.825	3482.3
699.842	3472.2
703.882	3462.12
707.946	3452.04
712.033	3441.97
716.143	3431.91
720.278	3421.86
724.436	3411.82
728.618	3401.79
732.825	3391.76
737.055	3381.75
741.31	3371.75
745.59	3361.75
749.894	3351.77
754.223	3341.79
758.578	3331.82
762.957	3321.87
767.361	3311.92
771.792	3301.97
776.247	3292.04
780.728	3282.11
785.236	3272.2
789.769	3262.28
794.328	3252.38
798.914	3242.48
803.526	3232.59
808.165	3222.71
812.831	3212.83
817.523	3202.95
822.243	3193.08
826.99	3183.21
831.764	3173.35
836.566	3163.49
841.395	3153.67
846.253	3143.96
851.138	3134.26
856.052	3124.55
860.994	3114.85
865.964	3105.16
870.964	3095.47
875.992	3085.78
881.049	3076.1
886.135	3066.43
891.251	3056.76
896.396	3047.1
901.571	3037.44
906.776	3027.79
912.011	3018.15
917.276	3008.52
922.571	2998.89
927.897	2989.28
933.254	2979.67
938.642	2970.07
944.061	2960.49
949.511	2950.91
954.993	2941.34
960.506	2931.79
966.051	2922.24
971.628	2912.71
977.237	2903.19
982.879	2893.68
988.553	2884.18
994.26	2874.7
1000	2865.22
1005.77	2855.77
1011.58	2846.32
1017.42	2836.9
1023.29	2827.48
1029.2	2818.08
1035.14	2808.7
1041.12	2799.33
1047.13	2789.97
1053.17	2780.64
1059.25	2771.31
1065.37	2762.01
1071.52	2752.72
1077.71	2743.45
1083.93	2734.2
1090.18	2724.96
1096.48	2715.74
1102.81	2706.54
1109.17	2697.36
1115.58	2688.2
1122.02	2679.04
1128.5	2669.88
1135.01	2660.74
1141.56	2651.61
1148.15	2642.51
1154.78	2633.42
1161.45	2624.36
1168.15	2615.31
1174.9	2606.29
1181.68	2597.28
1188.5	2588.3
1195.36	2579.33
1202.26	2570.39
1209.21	2561.47
1216.19	2552.56
1223.21	2543.68
1230.27	2534.82
1237.37	2525.98
1244.51	2517.16
1251.7	2508.37
1258.93	2499.59
1266.19	2490.84
1273.5	2482.1
1280.86	2473.39
1288.25	2464.69
1295.69	2456.02
1303.17	2447.37
1310.69	2438.74
1318.26	2430.13
1325.87	2421.54
1333.52	2412.97
1341.22	2404.42
1348.96	2395.88
1356.75	2387.37
1364.58	2378.88
1372.46	2370.4
1380.38	2361.94
1388.35	2353.5
1396.37	2345.08
1404.43	2336.67
1412.54	2328.28
1420.69	2319.91
1428.89	2311.55
1437.14	2303.21
1445.44	2294.89
1453.78	2286.58
1462.18	2278.3
1470.62	2270.03
1479.11	2261.78
1487.65	2253.55
1496.24	2245.34
1504.87	2237.14
1513.56	2228.97
1522.3	2220.81
1531.09	2212.68
1539.93	2204.56
1548.82	2196.47
1557.76	2188.39
1566.75	2180.34
1575.8	2172.3
1584.89	2164.29
1594.04	2156.29
1603.25	2148.31
1612.5	2140.36
1621.81	2132.42
1631.17	2124.51
1640.59	2116.61
1650.06	2108.74
1659.59	2100.89
1669.17	2093.05
1678.8	2085.24
1688.5	2077.43
1698.24	2069.64
1708.05	2061.88
1717.91	2054.13
1727.83	2046.4
1737.8	2038.7
1747.83	2031.01
1757.92	2023.35
1768.07	2015.71
1778.28	2008.09
1788.55	2000.49
1798.87	1992.91
1809.26	1985.36
1819.7	1977.83
1830.21	1970.32
1840.77	1962.84
1851.4	1955.38
1862.09	1947.94
1872.84	1940.52
1883.65	1933.13
1894.52	1925.76
1905.46	1918.41
1916.46	1911.09
1927.52	1903.79
1938.65	1896.52
1949.84	1889.26
1961.1	1882.03
1972.42	1874.83
1983.81	1867.65
1995.26	1860.49
2006.78	1853.35
2018.37	1846.24
2030.02	1839.15
2041.74	1832.09
2053.53	1825.04
2065.38	1818.02
2077.3	1811.03
2089.3	1804.05
2101.36	1797.09
2113.49	1790.16
2125.69	1783.25
2137.96	1776.36
2150.3	1769.49
2162.72	1762.64
2175.2	1755.8
2187.76	1748.99
2200.39	1742.2
2213.09	1735.42
2225.87	1728.66
2238.72	1721.92
2251.65	1715.24
2264.64	1708.58
2277.72	1701.93
2290.87	1695.3
2304.09	1688.69
2317.39	1682.1
2330.77	1675.52
2344.23	1668.97
2357.76	1662.43
2371.37	1655.91
2385.06	1649.41
2398.83	1642.93
2412.68	1636.47
2426.61	1630.02
2440.62	1623.6
2454.71	1617.2
2468.88	1610.82
2483.13	1604.46
2497.47	1598.12
2511.89	1591.8
2526.39	1585.5
2540.97	1579.22
2555.64	1572.96
2570.4	1566.73
2585.23	1560.51
2600.16	1554.32
2615.17	1548.15
2630.27	1542
2645.45	1535.88
2660.73	1529.77
2676.09	1523.69
2691.53	1517.62
2707.07	1511.58
2722.7	1505.57
2738.42	1499.57
2754.23	1493.6
2770.13	1487.64
2786.12	1481.71
2802.21	1475.8
2818.38	1469.9
2834.65	1464.03
2851.02	1458.17
2867.48	1452.34
2884.03	1446.52
2900.68	1440.73
2917.43	1434.97
2934.27	1429.22
2951.21	1423.5
2968.25	1417.79
2985.38	1412.12
3002.62	1406.46
3019.95	1400.82
3037.39	1395.21
3054.92	1389.62
3072.56	1384.05
3090.3	1378.51
3108.14	1372.99
3126.08	1367.48
3144.13	1362
3162.28	1356.55
3180.53	1351.11
3198.9	1345.7
3217.36	1340.3
3235.94	1334.93
3254.62	1329.58
3273.41	1324.25
3292.3	1318.93
3311.31	1313.64
3330.43	1308.37
3349.65	1303.12
3368.99	1297.88
3388.44	1292.67
3408	1287.47
3427.68	1282.29
3447.47	1277.13
3467.37	1271.99
3487.39	1266.87
3507.52	1261.77
3527.77	1256.69
3548.13	1251.63
3568.62	1246.59
3589.22	1241.56
3609.94	1236.56
3630.78	1231.58
3651.74	1226.61
3672.82	1221.67
3694.03	1216.75
3715.35	1211.84
3736.8	1206.96
3758.37	1202.09
3780.07	1197.25
3801.89	1192.42
3823.84	1187.62
3845.92	1182.83
3868.12	1178.07
3890.45	1173.32
3912.91	1168.59
3935.5	1163.88
3958.22	1159.19
3981.07	1154.52
4004.05	1149.86
4027.17	1145.23
4050.42	1140.61
4073.8	1136.02
4097.32	1131.44
4120.98	1126.88
4144.77	1122.34
4168.69	1117.82
4192.76	1113.32
4216.97	1108.84
4241.31	1104.38
4265.8	1099.93
4290.42	1095.51
4315.19	1091.1
4340.1	1086.72
4365.16	1082.35
4390.36	1077.99
4415.7	1073.66
4441.2	1069.35
4466.84	1065.05
4492.62	1060.77
4518.56	1056.51
4544.65	1052.26
4570.88	1048.04
4597.27	1043.83
4623.81	1039.64
4650.5	1035.46
4677.35	1031.31
4704.35	1027.17
4731.51	1023.05
4758.83	1018.95
4786.3	1014.86
4813.93	1010.8
4841.72	1006.75
4869.68	1002.72
4897.79	998.704
4926.06	994.709
4954.5	990.732
4983.1	986.772
5011.87	982.83
5040.81	978.905
5069.91	974.998
5099.18	971.108
5128.61	967.235
5158.22	963.379
5188	959.54
5217.95	955.718
5248.07	951.912
5278.37	948.123
5308.84	944.35
5339.49	940.593
5370.32	936.853
5401.32	933.128
5432.5	929.418
5463.87	925.724
5495.41	922.044
5527.13	918.379
5559.04	914.728
5591.14	911.092
5623.41	907.463
5655.88	903.846
5688.53	900.242
5721.37	896.653
5754.4	893.077
5787.62	889.516
5821.03	885.97
5854.64	882.438
5888.44	878.92
5922.43	875.418
5956.62	871.931
5991.01	868.459
6025.6	865.002
6060.38	861.561
6095.37	858.135
6130.56	854.726
6165.95	851.332
6201.55	847.954
6237.35	844.593
6273.36	841.247
6309.57	837.918
6346	834.606
6382.63	831.31
6419.48	828.031
6456.54	824.768
6493.82	821.522
6531.31	818.293
6569.01	815.081
6606.93	811.886
6645.08	808.708
6683.44	805.547
6722.02	802.403
6760.83	799.276
6799.86	796.166
6839.12	793.073
6878.6	789.997
6918.31	786.937
6958.25	783.895
6998.42	780.87
7038.82	777.861
7079.46	774.87
7120.33	771.895
7161.43	768.936
7202.78	765.994
7244.36	763.068
7286.18	760.158
7328.25	757.264
7370.55	754.386
7413.1	751.524
7455.9	748.677
7498.94	745.845
7542.23	743.029
7585.78	740.227
7629.57	737.439
7673.61	734.666
7717.92	731.906
7762.47	729.16
7807.28	726.427
7852.36	723.707
7897.69	721
7943.28	718.304
7989.14	715.62
8035.26	712.771
8081.65	709.887
8128.31	707.016
8175.23	704.156
8222.43	701.307
8269.9	698.469
8317.64	695.641
8365.66	692.823
8413.95	690.035
8462.53	687.313
8511.38	684.598
8560.52	681.893
8609.94	679.197
8659.64	676.51
8709.64	673.832
8759.92	671.164
8810.49	668.505
8861.35	665.856
8912.51	663.217
8963.96	660.587
9015.71	657.968
9067.76	655.358
9120.11	652.759
9172.76	650.17
9225.71	647.592
9278.97	645.024
9332.54	642.467
9386.42	639.92
9440.61	637.385
9495.11	634.861
9549.93	632.347
9605.06	629.845
9660.51	627.354
9716.28	624.875
9772.37	622.407
9828.79	619.951
9885.53	617.506
9942.6	615.074
10000	612.653
10057.7	610.244
10115.8	607.847
10174.2	605.462
10232.9	603.09
10292	600.73
10351.4	598.382
10411.2	596.046
10471.3	593.723
10531.7	591.412
10592.5	589.115
10653.7	586.829
10715.2	584.556
10777.1	582.297
10839.3	580.049
10901.8	577.815
10964.8	575.593
11028.1	573.384
11091.7	571.188
11155.8	569.005
11220.2	566.831
11285	564.661
11350.1	562.504
11415.6	560.359
11481.5	558.228
11547.8	556.109
11614.5	554.003
11681.5	551.911
11749	549.831
11816.8	547.763
11885	545.709
11953.6	543.667
12022.6	541.639
12092.1	539.623
12161.9	537.619
12232.1	535.629
12302.7	533.651
12373.7	531.685
12445.1	529.732
12517	527.791
12589.3	525.863
12661.9	523.946
12735	522.042
12808.6	520.149
12882.5	518.269
12956.9	516.4
13031.7	514.542
13106.9	512.696
13182.6	510.861
13258.7	509.036
13335.2	507.223
13412.2	505.42
13489.6	503.627
13567.5	501.845
13645.8	500.072
13724.6	498.309
13803.8	496.555
13883.5	494.81
13963.7	493.073
14044.3	491.345
14125.4	489.624
14206.9	487.912
14288.9	486.208
14371.4	484.512
14454.4	482.825
14537.8	481.146
14621.8	479.475
14706.2	477.813
14791.1	476.16
14876.5	474.515
14962.4	472.879
15048.7	471.251
15135.6	469.632
15223	468.021
15310.9	466.419
15399.3	464.825
15488.2	463.24
15577.6	461.664
15667.5	460.096
15758	458.537
15848.9	456.986
15940.4	455.444
16032.5	453.911
16125	452.385
16218.1	450.868
16311.7	449.36
16405.9	447.86
16500.6	446.368
16595.9	444.884
16691.7	443.408
16788	441.94
16885	440.478
16982.4	439.022
17080.5	437.575
17179.1	436.136
17278.3	434.705
17378	433.282
17478.3	431.867
17579.2	430.46
17680.7	429.062
17782.8	427.672
17885.5	426.29
17988.7	424.916
18092.6	423.55
18197	422.193
18302.1	420.844
18407.7	419.504
18514	418.172
18620.9	416.848
18728.4	415.532
18836.5	414.225
18945.2	412.926
19054.6	411.636
19164.6	410.353
19275.2	409.079
19386.5	407.813
19498.4	406.556
19611	405.306
19724.2	404.064
19838.1	402.831
19952.6	401.605
20067.8	400.388
20183.7	399.178
20300.2	397.976
20417.4	396.781
20535.3	395.594
20653.8	394.415
20773	393.243
20893	392.078
21013.6	390.92
21134.9	389.77
21256.9	388.626
21379.6	387.488
21503	386.358
21627.2	385.234
21752	384.116
21877.6	383.004
22003.9	381.897
22130.9	380.797
22258.7	379.702
22387.2	378.612
22516.5	377.537
22646.4	376.467
22777.2	375.403
22908.7	374.344
23040.9	373.29
23173.9	372.242
23307.7	371.199
23442.3	370.161
23577.6	369.128
23713.7	368.101
23850.6	367.079
23988.3	366.063
24126.8	365.052
24266.1	364.047
24406.2	363.047
24547.1	362.053
24688.8	361.065
24831.3	360.082
24974.7	359.105
25118.9	358.133
25263.9	357.168
25409.7	356.208
25556.4	355.254
25704	354.305
25852.3	353.362
26001.6	352.425
26151.7	351.494
26302.7	350.569
26454.5	349.649
26607.3	348.735
26760.9	347.827
26915.3	346.925
27070.7	346.028
27227	345.137
27384.2	344.251
27542.3	343.372
27701.3	342.498
27861.2	341.629
28022.1	340.766
28183.8	339.906
28346.5	339.052
28510.2	338.203
28674.8	337.36
28840.3	336.522
29006.8	335.69
29174.3	334.864
29342.7	334.042
29512.1	333.227
29682.5	332.417
29853.8	331.612
30026.2	330.813
30199.5	330.019
30373.9	329.231
30549.2	328.448
30725.6	327.671
30903	326.899
31081.4	326.132
31260.8	325.371
31441.3	324.614
31622.8	323.863
31805.3	323.117
31989	322.376
32173.6	321.64
32359.4	320.909
32546.2	320.183
32734.1	319.461
32923	318.745
33113.1	318.032
33304.3	317.325
33496.5	316.621
33689.9	315.922
33884.4	315.228
34080	314.537
34276.8	313.851
34474.7	313.169
34673.7	312.491
34873.9	311.817
35075.2	311.148
35277.7	310.483
35481.3	309.823
35686.2	309.167
35892.2	308.515
36099.4	307.867
36307.8	307.224
36517.4	306.585
36728.2	305.951
36940.3	305.321
37153.5	304.695
37368	304.073
37583.7	303.456
37800.7	302.842
38018.9	302.233
38238.4	301.628
38459.2	301.028
38681.2	300.431
38904.5	299.839
39129.1	299.25
39355	298.665
39582.2	298.085
39810.7	297.508
40040.5	296.935
40271.7	296.367
40504.2	295.802
40738	295.241
40973.2	294.684
41209.8	294.131
41447.7	293.583
41686.9	293.038
41927.6	292.497
42169.7	291.959
42413.1	291.426
42658	290.897
42904.2	290.371
43151.9	289.85
43401	289.332
43651.6	288.817
43903.6	288.307
44157	287.8
44412	287.297
44668.4	286.797
44926.2	286.301
45185.6	285.809
45446.5	285.32
45708.8	284.835
45972.7	284.353
46238.1	283.874
46505	283.399
46773.5	282.928
47043.5	282.46
47315.1	281.995
47588.3	281.534
47863	281.076
48139.3	280.622
48417.2	280.171
48696.8	279.723
48977.9	279.279
49260.6	278.838
49545	278.4
49831	277.965
50118.7	277.534
50408.1	277.105
50699.1	276.68
50991.8	276.258
51286.1	275.839
51582.2	275.422
51880	275.009
52179.5	274.598
52480.7	274.19
52783.7	273.784
53088.4	273.381
53394.9	272.981
53703.2	272.583
54013.2	272.187
54325	271.794
54638.7	271.402
54954.1	271.013
55271.3	270.626
55590.4	270.24
55911.4	269.856
56234.1	269.458
56558.8	269.057
56885.3	268.659
57213.7	268.265
57544	267.873
57876.2	267.484
58210.3	267.099
58546.4	266.716
58884.4	266.336
59224.3	265.959
59566.2	265.586
59910.1	265.215
60256	264.846
60603.8	264.481
60953.7	264.119
61305.6	263.76
61659.5	263.403
62015.5	263.049
62373.5	262.698
62733.6	262.35
63095.7	262.004
63460	261.662
63826.3	261.322
64194.8	260.984
64565.4	260.65
64938.2	260.318
65313.1	259.989
65690.1	259.662
66069.3	259.338
66450.8	259.017
66834.4	258.698
67220.2	258.382
67608.3	258.069
67998.6	257.758
68391.2	257.45
68786	257.144
69183.1	256.841
69582.5	256.54
69984.2	256.242
70388.2	255.946
70794.6	255.653
71203.3	255.362
71614.3	255.073
72027.8	254.788
72443.6	254.504
72861.8	254.223
73282.5	253.944
73705.5	253.668
74131	253.394
74559	253.122
74989.4	252.853
75422.3	252.586
75857.8	252.321
76295.7	252.059
76736.1	251.798
77179.2	251.54
77624.7	251.285
78072.8	251.031
78523.6	250.78
78976.9	250.531
79432.8	250.285
79891.4	250.04
80352.6	249.798
80816.5	249.557
81283.1	249.319
81752.3	249.083
82224.3	248.849
82699	248.618
83176.4	248.388
83656.6	248.161
84139.5	247.935
84625.3	247.712
85113.8	247.49
85605.2	247.271
86099.4	247.054
86596.4	246.838
87096.4	246.625
87599.2	246.414
88104.9	246.205
88613.5	245.997
89125.1	245.792
89639.6	245.588
90157.1	245.387
90677.6	245.187
91201.1	244.989
91727.6	244.794
92257.1	244.6
92789.7	244.408
93325.4	244.217
93864.2	244.029
94406.1	243.842
94951.1	243.658
95499.3	243.475
96050.6	243.294
96605.1	243.114
97162.8	242.937
97723.7	242.761
98287.9	242.587
98855.3	242.415
99426	242.244
100000	242.075
100577	241.908
101158	241.743
101742	241.579
102329	241.417
102920	241.257
103514	241.098
104112	240.941
104713	240.786
105317	240.632
105925	240.48
106537	240.329
107152	240.181
107771	240.033
108393	239.887
109018	239.743
109648	239.601
110281	239.459
110917	239.32
111558	239.182
112202	239.045
112850	238.91
113501	238.777
114156	238.645
114815	238.514
115478	238.385
116145	238.258
116815	238.131
117490	238.007
118168	237.883
118850	237.761
119536	237.641
120226	237.522
120921	237.404
121619	237.288
122321	237.173
123027	237.059
123737	236.947
124451	236.836
125170	236.727
125893	236.619
126619	236.512
127350	236.406
128086	236.302
128825	236.199
129569	236.097
130317	235.997
131069	235.898
131826	235.8
132587	235.703
133352	235.608
134122	235.514
134896	235.421
135675	235.329
136458	235.238
137246	235.149
138038	235.061
138835	234.974
139637	234.888
140443	234.803
141254	234.72
142069	234.638
142889	234.556
143714	234.476
144544	234.397
145378	234.319
146218	234.243
147062	234.167
147911	234.092
148765	234.019
149624	233.947
150487	233.875
151356	233.805
152230	233.736
153109	233.667
153993	233.6
154882	233.534
155776	233.469
156675	233.405
157580	233.342
158489	233.28
159404	233.219
160325	233.159
161250	233.099
162181	233.041
163117	232.984
164059	232.928
165006	232.872
165959	232.818
166917	232.764
167880	232.712
168850	232.66
169824	232.61
170805	232.56
171791	232.511
172783	232.463
173780	232.416
174783	232.369
175792	232.324
176807	232.279
177828	232.236
178855	232.193
179887	232.151
180926	232.11
181970	232.069
183021	232.03
184077	231.991
185140	231.953
186209	231.916
187284	231.88
188365	231.844
189452	231.809
190546	231.775
191646	231.742
192752	231.71
193865	231.678
194984	231.647
196110	231.617
197242	231.587
198381	231.559
199526	231.531
200678	231.503
201837	231.477
203002	231.451
204174	231.426
205353	231.401
206538	231.377
207730	231.354
208930	231.332
210136	231.31
211349	231.289
212569	231.268
213796	231.249
215030	231.23
216272	231.211
217520	231.193
218776	231.176
220039	231.159
221309	231.143
222587	231.128
223872	231.113
225165	231.099
226464	231.085
227772	231.072
229087	231.06
230409	231.048
231739	231.037
233077	231.026
234423	231.016
235776	231.007
237137	230.998
238506	230.989
239883	230.981
241268	230.974
242661	230.967
244062	230.961
245471	230.955
246888	230.95
248313	230.945
249747	230.941
251189	230.937
252639	230.934
254097	230.931
255564	230.929
257040	230.927
258523	230.926
260016	230.925
261517	230.925
263027	230.925
264545	230.925
266073	230.927
267609	230.928
269153	230.93
270707	230.932
272270	230.935
273842	230.939
275423	230.942
277013	230.946
278612	230.951
280221	230.956
281838	230.961
283465	230.967
285102	230.973
286748	230.98
288403	230.987
290068	230.994
291743	231.002
293427	231.01
295121	231.019
296825	231.028
298538	231.037
300262	231.047
301995	231.057
303739	231.067
305492	231.078
307256	231.089
309030	231.1
310814	231.112
312608	231.124
314413	231.136
316228	231.149
318053	231.162
319890	231.176
321736	231.19
323594	231.204
325462	231.218
327341	231.233
329230	231.248
331131	231.263
333043	231.279
334965	231.294
336899	231.311
338844	231.327
340800	231.344
342768	231.361
344747	231.378
346737	231.396
348739	231.414
350752	231.432
352777	231.45
354813	231.469
356862	231.488
358922	231.507
360994	231.526
363078	231.546
365174	231.566
367282	231.586
369403	231.607
371535	231.627
373680	231.648
375837	231.669
378007	231.691
380189	231.712
382384	231.734
384592	231.756
386812	231.778
389045	231.801
391291	231.823
393550	231.846
395822	231.869
398107	231.892
400405	231.916
402717	231.939
405042	231.963
407380	231.987
409732	232.011
412098	232.036
414477	232.06
416869	232.085
419276	232.11
421697	232.135
424131	232.16
426580	232.186
429042	232.211
431519	232.237
434010	232.263
436516	232.289
439036	232.315
441570	232.342
444120	232.368
446684	232.395
449262	232.422
451856	232.449
454465	232.476
457088	232.503
459727	232.53
462381	232.558
465050	232.585
467735	232.613
470435	232.641
473151	232.669
475883	232.697
478630	232.726
481393	232.754
484172	232.782
486968	232.811
489779	232.84
492606	232.869
495450	232.898
498310	232.927
501187	232.956
504081	232.985
506991	233.014
509918	233.044
512861	233.073
515822	233.103
518800	233.133
521795	233.162
524807	233.192
527837	233.222
530884	233.252
533949	233.282
537032	233.313
540132	233.343
543250	233.373
546387	233.404
549541	233.434
552713	233.465
555904	233.496
559114	233.526
562341	233.557
565588	233.588
568853	233.619
572137	233.65
575440	233.681
578762	233.712
582103	233.743
585464	233.774
588844	233.806
592243	233.837
595662	233.868
599101	233.9
602560	233.931
606038	233.962
609537	233.994
613056	234.026
616595	234.057
620155	234.089
623735	234.12
627336	234.152
630957	234.184
634600	234.216
638263	234.247
641948	234.279
645654	234.311
649382	234.343
653131	234.375
656901	234.407
660693	234.439
664508	234.471
668344	234.503
672202	234.535
676083	234.567
679986	234.599
683912	234.631
687860	234.663
691831	234.695
695825	234.727
699842	234.759
703882	234.791
707946	234.823
712033	234.855
716143	234.888
720278	234.92
724436	234.952
728618	234.984
732825	235.016
737055	235.048
741310	235.08
745590	235.112
749894	235.145
754223	235.177
758578	235.209
762957	235.241
767361	235.273
771792	235.305
776247	235.337
780728	235.369
785236	235.401
789769	235.433
794328	235.465
798914	235.497
803526	235.529
808165	235.561
812831	235.593
817523	235.625
822243	235.657
826990	235.689
831764	235.72
836566	235.752
841395	235.784
846253	235.816
851138	235.848
856052	235.879
860994	235.911
865964	235.943
870964	235.974
875992	236.006
881049	236.037
886135	236.069
891251	236.1
896396	236.132
901571	236.163
906776	236.195
912011	236.226
917276	236.258
922571	236.289
927897	236.32
933254	236.351
938642	236.382
944061	236.414
949511	236.445
954993	236.476
960506	236.507
966051	236.538
971628	236.569
977237	236.599
982879	236.63
988553	236.661
994260	236.692
1e+06	236.723
1.00577e+06	236.753
1.01158e+06	236.784
1.01742e+06	236.814
1.02329e+06	236.845
1.0292e+06	236.875
1.03514e+06	236.906
1.04112e+06	236.936
1.04713e+06	236.966
1.05317e+06	236.997
1.05925e+06	237.027
1.06537e+06	237.057
1.07152e+06	237.087
1.07771e+06	237.117
1.08393e+06	237.147
1.09018e+06	237.177
1.09648e+06	237.207
1.10281e+06	237.237
1.10917e+06	237.266
1.11558e+06	237.296
1.12202e+06	237.326
1.1285e+06	237.355
1.13501e+06	237.385
1.14156e+06	237.414
1.14815e+06	237.444
1.15478e+06	237.473
1.16145e+06	237.502
1.16815e+06	237.532
1.1749e+06	237.561
1.18168e+06	237.59
1.1885e+06	237.619
1.19536e+06	237.648
1.20226e+06	237.677
1.20921e+06	237.706
1.21619e+06	237.734
1.22321e+06	237.763
1.23027e+06	237.792
1.23737e+06	237.82
1.24451e+06	237.849
1.2517e+06	237.877
1.25893e+06	237.906
1.26619e+06	237.934
1.2735e+06	237.962
1.28086e+06	237.991
1.28825e+06	238.019
1.29569e+06	238.047
1.30317e+06	238.075
1.31069e+06	238.103
1.31826e+06	238.131
1.32587e+06	238.158
1.33352e+06	238.186
1.34122e+06	238.214
1.34896e+06	238.241
1.35675e+06	238.269
1.36458e+06	238.296
1.37246e+06	238.324
1.38038e+06	238.351
1.38835e+06	238.378
1.39637e+06	238.405
1.40443e+06	238.432
1.41254e+06	238.459
1.42069e+06	238.486
1.42889e+06	238.513
1.43714e+06	238.54
1.44544e+06	238.567
1.45378e+06	238.593
1.46218e+06	238.62
1.47062e+06	238.646
1.47911e+06	238.673
1.48765e+06	238.699
1.49624e+06	238.725
1.50487e+06	238.752
1.51356e+06	238.778
1.5223e+06	238.804
1.53109e+06	238.83
1.53993e+06	238.856
1.54882e+06	238.882
1.55776e+06	238.907
1.56675e+06	238.933
1.5758e+06	238.959
1.58489e+06	238.984
1.59404e+06	239.01
1.60325e+06	239.035
1.6125e+06	239.06
1.62181e+06	239.085
1.63117e+06	239.111
1.64059e+06	239.136
1.65006e+06	239.161
1.65959e+06	239.186
1.66917e+06	239.21
1.6788e+06	239.235
1.6885e+06	239.26
1.69824e+06	239.284
1.70805e+06	239.309
1.71791e+06	239.333
1.72783e+06	239.358
1.7378e+06	239.382
1.74783e+06	239.406
1.75792e+06	239.43
1.76807e+06	239.454
1.77828e+06	239.478
1.78855e+06	239.502
1.79887e+06	239.526
1.80926e+06	239.55
1.8197e+06	239.573
1.83021e+06	239.597
1.84077e+06	239.621
1.8514e+06	239.644
1.86209e+06	239.667
1.87284e+06	239.691
1.88365e+06	239.714
1.89452e+06	239.737
1.90546e+06	239.76
1.91646e+06	239.783
1.92752e+06	239.806
1.93865e+06	239.828
1.94984e+06	239.851
1.9611e+06	239.874
1.97242e+06	239.896
1.98381e+06	239.919
1.99526e+06	239.941
2.00678e+06	239.963
2.01837e+06	239.986
2.03002e+06	240.008
2.04174e+06	240.03
2.05353e+06	240.052
2.06538e+06	240.074
2.0773e+06	240.096
2.0893e+06	240.117
2.10136e+06	240.139
2.11349e+06	240.16
2.12569e+06	240.182
2.13796e+06	240.203
2.1503e+06	240.225
2.16272e+06	240.246
2.1752e+06	240.267
2.18776e+06	240.288
2.20039e+06	240.309
2.21309e+06	240.33
2.22587e+06	240.351
2.23872e+06	240.372
2.25165e+06	240.392
2.26464e+06	240.413
2.27772e+06	240.434
2.29087e+06	240.454
2.30409e+06	240.474
2.31739e+06	240.495
2.33077e+06	240.515
2.34423e+06	240.535
2.35776e+06	240.555
2.37137e+06	240.575
2.38506e+06	240.595
2.39883e+06	240.615
2.41268e+06	240.635
2.42661e+06	240.654
2.44062e+06	240.674
2.45471e+06	240.693
2.46888e+06	240.713
2.48313e+06	240.732
2.49747e+06	240.751
2.51189e+06	240.77
2.52639e+06	240.789
2.54097e+06	240.809
2.55564e+06	240.827
2.5704e+06	240.846
2.58523e+06	240.865
2.60016e+06	240.884
2.61517e+06	240.902
2.63027e+06	240.921
2.64545e+06	240.939
2.66073e+06	240.958
2.67609e+06	240.976
2.69153e+06	240.994
2.70707e+06	241.012
2.7227e+06	241.03
2.73842e+06	241.048
2.75423e+06	241.066
2.77013e+06	241.084
2.78612e+06	241.102
2.80221e+06	241.12
2.81838e+06	241.137
2.83465e+06	241.155
2.85102e+06	241.172
2.86748e+06	241.19
2.88403e+06	241.207
2.90068e+06	241.224
2.91743e+06	241.241
2.93427e+06	241.258
2.95121e+06	241.275
2.96825e+06	241.292
2.98538e+06	241.309
3.00262e+06	241.326
3.01995e+06	241.342
3.03739e+06	241.359
3.05492e+06	241.375
3.07256e+06	241.392
3.0903e+06	241.408
3.10814e+06	241.424
3.12608e+06	241.441
3.14413e+06	241.457
3.16228e+06	241.473
3.18053e+06	241.489
3.1989e+06	241.505
3.21736e+06	241.52
3.23594e+06	241.536
3.25462e+06	241.552
3.27341e+06	241.567
3.2923e+06	241.583
3.31131e+06	241.598
3.33043e+06	241.614
3.34965e+06	241.629
3.36899e+06	241.644
3.38844e+06	241.659
3.408e+06	241.675
3.42768e+06	241.69
3.44747e+06	241.704
3.46737e+06	241.719
3.48739e+06	241.734
3.50752e+06	241.749
3.52777e+06	241.763
3.54813e+06	241.778
3.56862e+06	241.792
3.58922e+06	241.807
3.60994e+06	241.821
3.63078e+06	241.835
3.65174e+06	241.85
3.67282e+06	241.864
3.69403e+06	241.878
3.71535e+06	241.892
3.7368e+06	241.906
3.75837e+06	241.919
3.78007e+06	241.933
3.80189e+06	241.947
3.82384e+06	241.961
3.84592e+06	241.974
3.86812e+06	241.988
3.89045e+06	242.001
3.91291e+06	242.014
3.9355e+06	242.028
3.95822e+06	242.041
3.98107e+06	242.054
4.00405e+06	242.067
4.02717e+06	242.08
4.05042e+06	242.093
4.0738e+06	242.106
4.09732e+06	242.118
4.12098e+06	242.131
4.14477e+06	242.144
4.16869e+06	242.156
4.19276e+06	242.169
4.21697e+06	242.181
4.24131e+06	242.193
4.2658e+06	242.206
4.29042e+06	242.218
4.31519e+06	242.23
4.3401e+06	242.242
4.36516e+06	242.254
4.39036e+06	242.266
4.4157e+06	242.278
4.4412e+06	242.29
4.46684e+06	242.301
4.49262e+06	242.313
4.51856e+06	242.325
4.54465e+06	242.336
4.57088e+06	242.348
4.59727e+06	242.359
4.62381e+06	242.37
4.6505e+06	242.382
4.67735e+06	242.393
4.70435e+06	242.404
4.73151e+06	242.415
4.75883e+06	242.426
4.7863e+06	242.437
4.81393e+06	242.448
4.84172e+06	242.459
4.86968e+06	242.469
4.89779e+06	242.48
4.92606e+06	242.491
4.9545e+06	242.501
4.9831e+06	242.512
5.01187e+06	242.522
5.04081e+06	242.533
5.06991e+06	242.543
5.09918e+06	242.553
5.12861e+06	242.563
5.15822e+06	242.573
5.188e+06	242.583
5.21795e+06	242.593
5.24807e+06	242.603
5.27837e+06	242.613
5.30884e+06	242.623
5.33949e+06	242.633
5.37032e+06	242.642
5.40132e+06	242.652
5.4325e+06	242.662
5.46387e+06	242.671
5.49541e+06	242.68
5.52713e+06	242.69
5.55904e+06	242.699
5.59114e+06	242.708
5.62341e+06	242.718
5.65588e+06	242.727
5.68853e+06	242.736
5.72137e+06	242.745
5.7544e+06	242.754
5.78762e+06	242.763
5.82103e+06	242.771
5.85464e+06	242.78
5.88844e+06	242.789
5.92243e+06	242.797
5.95662e+06	242.806
5.99101e+06	242.815
6.0256e+06	242.823
6.06038e+06	242.832
6.09537e+06	242.84
6.13056e+06	242.848
6.16595e+06	242.856
6.20155e+06	242.865
6.23735e+06	242.873
6.27336e+06	242.881
6.30957e+06	242.889
6.346e+06	242.897
6.38263e+06	242.905
6.41948e+06	242.913
6.45654e+06	242.92
6.49382e+06	242.928
6.53131e+06	242.936
6.56901e+06	242.943
6.60693e+06	242.951
6.64508e+06	242.959
6.68344e+06	242.966
6.72202e+06	242.973
6.76083e+06	242.981
6.79986e+06	242.988
6.83912e+06	242.995
6.8786e+06	243.003
6.91831e+06	243.01
6.95825e+06	243.017
6.99842e+06	243.024
7.03882e+06	243.031
7.07946e+06	243.038
7.12033e+06	243.045
7.16143e+06	243.051
7.20278e+06	243.058
7.24436e+06	243.065
7.28618e+06	243.072
7.32825e+06	243.078
7.37055e+06	243.085
7.4131e+06	243.091
7.4559e+06	243.098
7.49894e+06	243.104
7.54223e+06	243.111
7.58578e+06	243.117
7.62957e+06	243.123
7.67361e+06	243.129
7.71792e+06	243.136
7.76247e+06	243.142
7.80728e+06	243.148
7.85236e+06	243.154
7.89769e+06	243.16
7.94328e+06	243.166
7.98914e+06	243.172
8.03526e+06	243.178
8.08165e+06	243.183
8.12831e+06	243.189
8.17523e+06	243.195
8.22243e+06	243.2
8.2699e+06	243.206
8.31764e+06	243.212
8.36566e+06	243.217
8.41395e+06	243.223
8.46253e+06	243.228
8.51138e+06	243.233
8.56052e+06	243.239
8.60994e+06	243.244
8.65964e+06	243.249
8.70964e+06	243.254
8.75992e+06	243.259
8.81049e+06	243.265
8.86135e+06	243.27
8.91251e+06	243.275
8.96396e+06	243.28
9.01571e+06	243.285
9.06776e+06	243.289
9.12011e+06	243.294
9.17276e+06	243.299
9.22571e+06	243.304
9.27897e+06	243.308
9.33254e+06	243.313
9.38642e+06	243.318
9.44061e+06	243.322
9.49511e+06	243.327
9.54993e+06	243.331
9.60506e+06	243.336
9.66051e+06	243.34
9.71628e+06	243.345
9.77237e+06	243.349
9.82879e+06	243.353
9.88553e+06	243.357
9.9426e+06	243.362
1e+07	243.366
