Stopping power dEdx from Ionisation for Fe56[0.0] Z = 26 in G4_TISSUE_SOFT_ICRP, process name: ionIoni
E [MeV]	dEdx [MeV/mm]
0.001	68.7155
0.00100577	68.9136
0.00101158	69.1122
0.00101742	69.3114
0.00102329	69.5112
0.0010292	69.7116
0.00103514	69.9125
0.00104112	70.114
0.00104713	70.3161
0.00105317	70.5188
0.00105925	70.722
0.00106537	70.9259
0.00107152	71.1303
0.00107771	71.3354
0.00108393	71.541
0.00109018	71.7472
0.00109648	71.954
0.00110281	72.1614
0.00110917	72.3694
0.00111558	72.578
0.00112202	72.7872
0.0011285	72.997
0.00113501	73.2074
0.00114156	73.4184
0.00114815	73.63
0.00115478	73.8422
0.00116145	74.0551
0.00116815	74.2685
0.0011749	74.4826
0.00118168	74.6973
0.0011885	74.9126
0.00119536	75.1285
0.00120226	75.3451
0.00120921	75.5622
0.00121619	75.78
0.00122321	75.9985
0.00123027	76.2175
0.00123737	76.4372
0.00124451	76.6575
0.0012517	76.8785
0.00125893	77.1001
0.00126619	77.3223
0.0012735	77.5452
0.00128086	77.7687
0.00128825	77.9929
0.00129569	78.2177
0.00130317	78.4431
0.00131069	78.6692
0.00131826	78.896
0.00132587	79.1234
0.00133352	79.3514
0.00134122	79.5802
0.00134896	79.8095
0.00135675	80.0396
0.00136458	80.2703
0.00137246	80.5017
0.00138038	80.7337
0.00138835	80.9664
0.00139637	81.1998
0.00140443	81.4338
0.00141254	81.6685
0.00142069	81.9039
0.00142889	82.14
0.00143714	82.3768
0.00144544	82.6142
0.00145378	82.8523
0.00146218	83.0912
0.00147062	83.3307
0.00147911	83.5708
0.00148765	83.8117
0.00149624	84.0533
0.00150487	84.2956
0.00151356	84.5386
0.0015223	84.7822
0.00153109	85.0266
0.00153993	85.2717
0.00154882	85.5175
0.00155776	85.764
0.00156675	86.0112
0.0015758	86.2591
0.00158489	86.5077
0.00159404	86.7571
0.00160325	87.0071
0.0016125	87.2579
0.00162181	87.5094
0.00163117	87.7617
0.00164059	88.0146
0.00165006	88.2683
0.00165959	88.5227
0.00166917	88.7779
0.0016788	89.0338
0.0016885	89.2904
0.00169824	89.5478
0.00170805	89.8059
0.00171791	90.0647
0.00172783	90.3243
0.0017378	90.5847
0.00174783	90.8458
0.00175792	91.1076
0.00176807	91.3702
0.00177828	91.6336
0.00178855	91.8977
0.00179887	92.1626
0.00180926	92.4283
0.0018197	92.6947
0.00183021	92.9619
0.00184077	93.2298
0.0018514	93.4985
0.00186209	93.768
0.00187284	94.0383
0.00188365	94.3094
0.00189452	94.5812
0.00190546	94.8538
0.00191646	95.1272
0.00192752	95.4014
0.00193865	95.6764
0.00194984	95.9522
0.0019611	96.2287
0.00197242	96.5061
0.00198381	96.7843
0.00199526	97.0632
0.00200678	97.343
0.00201837	97.6236
0.00203002	97.905
0.00204174	98.1872
0.00205353	98.4702
0.00206538	98.754
0.0020773	99.0387
0.0020893	99.3241
0.00210136	99.6104
0.00211349	99.8975
0.00212569	100.185
0.00213796	100.474
0.0021503	100.764
0.00216272	101.054
0.0021752	101.346
0.00218776	101.638
0.00220039	101.931
0.00221309	102.224
0.00222587	102.519
0.00223872	102.815
0.00225165	103.111
0.00226464	103.408
0.00227772	103.706
0.00229087	104.005
0.00230409	104.305
0.00231739	104.606
0.00233077	104.907
0.00234423	105.209
0.00235776	105.513
0.00237137	105.817
0.00238506	106.122
0.00239883	106.428
0.00241268	106.734
0.00242661	107.042
0.00244062	107.351
0.00245471	107.66
0.00246888	107.97
0.00248313	108.282
0.00249747	108.594
0.00251189	108.907
0.00252639	109.221
0.00254097	109.535
0.00255564	109.851
0.0025704	110.168
0.00258523	110.485
0.00260016	110.804
0.00261517	111.123
0.00263027	111.444
0.00264545	111.765
0.00266073	112.087
0.00267609	112.41
0.00269153	112.734
0.00270707	113.059
0.0027227	113.385
0.00273842	113.712
0.00275423	114.039
0.00277013	114.368
0.00278612	114.698
0.00280221	115.028
0.00281838	115.36
0.00283465	115.692
0.00285102	116.026
0.00286748	116.36
0.00288403	116.696
0.00290068	117.032
0.00291743	117.369
0.00293427	117.708
0.00295121	118.047
0.00296825	118.387
0.00298538	118.728
0.00300262	119.071
0.00301995	119.414
0.00303739	119.758
0.00305492	120.103
0.00307256	120.449
0.0030903	120.797
0.00310814	121.145
0.00312608	121.494
0.00314413	121.844
0.00316228	122.195
0.00318053	122.548
0.0031989	122.901
0.00321736	123.255
0.00323594	123.61
0.00325462	123.967
0.00327341	124.324
0.0032923	124.682
0.00331131	125.042
0.00333043	125.402
0.00334965	125.764
0.00336899	126.126
0.00338844	126.49
0.003408	126.854
0.00342768	127.22
0.00344747	127.587
0.00346737	127.954
0.00348739	128.323
0.00350752	128.693
0.00352777	129.064
0.00354813	129.436
0.00356862	129.809
0.00358922	130.183
0.00360994	130.558
0.00363078	130.935
0.00365174	131.312
0.00367282	131.691
0.00369403	132.07
0.00371535	132.451
0.0037368	132.833
0.00375837	133.216
0.00378007	133.599
0.00380189	133.985
0.00382384	134.371
0.00384592	134.758
0.00386812	135.147
0.00389045	135.536
0.00391291	135.927
0.0039355	136.319
0.00395822	136.711
0.00398107	137.105
0.00400405	137.501
0.00402717	137.897
0.00405042	138.294
0.0040738	138.693
0.00409732	139.093
0.00412098	139.494
0.00414477	139.896
0.00416869	140.299
0.00419276	140.703
0.00421697	141.109
0.00424131	141.516
0.0042658	141.924
0.00429042	142.333
0.00431519	142.743
0.0043401	143.154
0.00436516	143.567
0.00439036	143.981
0.0044157	144.396
0.0044412	144.812
0.00446684	145.229
0.00449262	145.648
0.00451856	146.068
0.00454465	146.489
0.00457088	146.911
0.00459727	147.335
0.00462381	147.759
0.0046505	148.185
0.00467735	148.612
0.00470435	149.041
0.00473151	149.47
0.00475883	149.901
0.0047863	150.333
0.00481393	150.766
0.00484172	151.201
0.00486968	151.637
0.00489779	152.074
0.00492606	152.512
0.0049545	152.952
0.0049831	153.393
0.00501187	153.835
0.00504081	154.278
0.00506991	154.723
0.00509918	155.169
0.00512861	155.616
0.00515822	156.065
0.005188	156.515
0.00521795	156.966
0.00524807	157.418
0.00527837	157.872
0.00530884	158.327
0.00533949	158.783
0.00537032	159.241
0.00540132	159.7
0.0054325	160.16
0.00546387	160.622
0.00549541	161.085
0.00552713	161.549
0.00555904	162.015
0.00559114	162.482
0.00562341	162.95
0.00565588	163.42
0.00568853	163.891
0.00572137	164.363
0.0057544	164.837
0.00578762	165.312
0.00582103	165.789
0.00585464	166.267
0.00588844	166.746
0.00592243	167.226
0.00595662	167.708
0.00599101	168.192
0.0060256	168.677
0.00606038	169.163
0.00609537	169.65
0.00613056	170.139
0.00616595	170.63
0.00620155	171.122
0.00623735	171.615
0.00627336	172.109
0.00630957	172.606
0.006346	173.103
0.00638263	173.602
0.00641948	174.102
0.00645654	174.604
0.00649382	175.108
0.00653131	175.612
0.00656901	176.118
0.00660693	176.626
0.00664508	177.135
0.00668344	177.646
0.00672202	178.158
0.00676083	178.671
0.00679986	179.186
0.00683912	179.703
0.0068786	180.221
0.00691831	180.74
0.00695825	181.261
0.00699842	181.784
0.00703882	182.308
0.00707946	182.833
0.00712033	183.36
0.00716143	183.889
0.00720278	184.419
0.00724436	184.95
0.00728618	185.483
0.00732825	186.018
0.00737055	186.554
0.0074131	187.092
0.0074559	187.631
0.00749894	188.172
0.00754223	188.714
0.00758578	189.258
0.00762957	189.804
0.00767361	190.351
0.00771792	190.9
0.00776247	191.45
0.00780728	192.002
0.00785236	192.555
0.00789769	193.11
0.00794328	193.667
0.00798914	194.225
0.00803526	194.785
0.00808165	195.346
0.00812831	195.909
0.00817523	196.474
0.00822243	197.04
0.0082699	197.608
0.00831764	198.178
0.00836566	198.749
0.00841395	199.322
0.00846253	199.896
0.00851138	200.473
0.00856052	201.05
0.00860994	201.63
0.00865964	202.211
0.00870964	202.794
0.00875992	203.378
0.00881049	203.965
0.00886135	204.553
0.00891251	205.142
0.00896396	205.733
0.00901571	206.326
0.00906776	206.921
0.00912011	207.518
0.00917276	208.116
0.00922571	208.716
0.00927897	209.317
0.00933254	209.92
0.00938642	210.526
0.00944061	211.132
0.00949511	211.741
0.00954993	212.351
0.00960506	212.963
0.00966051	213.577
0.00971628	214.193
0.00977237	214.81
0.00982879	215.429
0.00988553	216.05
0.0099426	216.673
0.01	217.298
0.0100577	217.924
0.0101158	218.552
0.0101742	219.182
0.0102329	219.814
0.010292	220.447
0.0103514	221.083
0.0104112	221.72
0.0104713	222.359
0.0105317	223
0.0105925	223.643
0.0106537	224.287
0.0107152	224.934
0.0107771	225.582
0.0108393	226.232
0.0109018	226.884
0.0109648	227.538
0.0110281	228.194
0.0110917	228.852
0.0111558	229.512
0.0112202	230.173
0.011285	230.837
0.0113501	231.502
0.0114156	232.169
0.0114815	232.839
0.0115478	233.51
0.0116145	234.183
0.0116815	234.858
0.011749	235.535
0.0118168	236.214
0.011885	236.894
0.0119536	237.577
0.0120226	238.262
0.0120921	238.949
0.0121619	239.638
0.0122321	240.328
0.0123027	241.021
0.0123737	241.716
0.0124451	242.412
0.012517	243.111
0.0125893	243.812
0.0126619	244.515
0.012735	245.219
0.0128086	245.926
0.0128825	246.635
0.0129569	247.346
0.0130317	248.059
0.0131069	248.774
0.0131826	249.491
0.0132587	250.21
0.0133352	250.931
0.0134122	251.655
0.0134896	252.38
0.0135675	253.107
0.0136458	253.837
0.0137246	254.569
0.0138038	255.302
0.0138835	256.038
0.0139637	256.776
0.0140443	257.501
0.0141254	258.225
0.0142069	258.952
0.0142889	259.68
0.0143714	260.411
0.0144544	261.143
0.0145378	261.878
0.0146218	262.615
0.0147062	263.354
0.0147911	264.095
0.0148765	264.838
0.0149624	265.584
0.0150487	266.331
0.0151356	267.081
0.015223	267.833
0.0153109	268.587
0.0153993	269.343
0.0154882	270.102
0.0155776	270.862
0.0156675	271.625
0.015758	272.39
0.0158489	273.157
0.0159404	273.926
0.0160325	274.698
0.016125	275.472
0.0162181	276.248
0.0163117	277.026
0.0164059	277.807
0.0165006	278.589
0.0165959	279.374
0.0166917	280.162
0.016788	280.951
0.016885	281.743
0.0169824	282.537
0.0170805	283.334
0.0171791	284.132
0.0172783	284.933
0.017378	285.737
0.0174783	286.542
0.0175792	287.35
0.0176807	288.161
0.0177828	288.973
0.0178855	289.788
0.0179887	290.606
0.0180926	291.425
0.018197	292.247
0.0183021	293.072
0.0184077	293.899
0.018514	294.728
0.0186209	295.559
0.0187284	296.393
0.0188365	297.23
0.0189452	298.069
0.0190546	298.91
0.0191646	299.754
0.0192752	300.6
0.0193865	301.448
0.0194984	302.299
0.019611	303.153
0.0197242	304.009
0.0198381	304.867
0.0199526	305.728
0.0200678	306.591
0.0201837	307.457
0.0203002	308.326
0.0204174	309.197
0.0205353	310.07
0.0206538	310.946
0.020773	311.824
0.020893	312.705
0.0210136	313.589
0.0211349	314.475
0.0212569	315.364
0.0213796	316.255
0.021503	317.149
0.0216272	318.045
0.021752	318.944
0.0218776	319.846
0.0220039	320.75
0.0221309	321.657
0.0222587	322.566
0.0223872	323.478
0.0225165	324.393
0.0226464	325.31
0.0227772	326.23
0.0229087	327.153
0.0230409	328.078
0.0231739	329.006
0.0233077	329.937
0.0234423	330.871
0.0235776	331.807
0.0237137	332.746
0.0238506	333.687
0.0239883	334.631
0.0241268	335.578
0.0242661	336.528
0.0244062	337.481
0.0245471	338.436
0.0246888	339.394
0.0248313	340.355
0.0249747	341.318
0.0251189	342.285
0.0252639	343.254
0.0254097	344.226
0.0255564	345.201
0.025704	346.179
0.0258523	347.159
0.0260016	348.142
0.0261517	349.129
0.0263027	350.118
0.0264545	351.11
0.0266073	352.104
0.0267609	353.102
0.0269153	354.103
0.0270707	355.106
0.027227	356.112
0.0273842	357.122
0.0275423	358.134
0.0277013	359.149
0.0278612	360.167
0.0280221	361.188
0.0281838	362.212
0.0283465	363.239
0.0285102	364.269
0.0286748	365.302
0.0288403	366.338
0.0290068	367.377
0.0291743	368.419
0.0293427	369.464
0.0295121	370.512
0.0296825	371.564
0.0298538	372.618
0.0300262	373.675
0.0301995	374.735
0.0303739	375.799
0.0305492	376.865
0.0307256	377.935
0.030903	379.007
0.0310814	380.083
0.0312608	381.162
0.0314413	382.244
0.0316228	383.329
0.0318053	384.418
0.031989	385.509
0.0321736	386.604
0.0323594	387.702
0.0325462	388.803
0.0327341	389.907
0.032923	391.015
0.0331131	392.126
0.0333043	393.239
0.0334965	394.357
0.0336899	395.477
0.0338844	396.601
0.03408	397.728
0.0342768	398.858
0.0344747	399.992
0.0346737	401.128
0.0348739	402.269
0.0350752	403.412
0.0352777	404.559
0.0354813	405.709
0.0356862	406.863
0.0358922	408.019
0.0360994	409.18
0.0363078	410.343
0.0365174	411.51
0.0367282	412.681
0.0369403	413.854
0.0371535	415.032
0.037368	416.212
0.0375837	417.396
0.0378007	418.584
0.0380189	419.775
0.0382384	420.969
0.0384592	422.167
0.0386812	423.369
0.0389045	424.574
0.0391291	425.782
0.039355	426.994
0.0395822	428.21
0.0398107	429.429
0.0400405	430.651
0.0402717	431.877
0.0405042	433.107
0.040738	434.34
0.0409732	435.577
0.0412098	436.818
0.0414477	438.062
0.0416869	439.31
0.0419276	440.561
0.0421697	441.816
0.0424131	443.075
0.042658	444.338
0.0429042	445.604
0.0431519	446.874
0.043401	448.147
0.0436516	449.424
0.0439036	450.705
0.044157	451.99
0.044412	453.278
0.0446684	454.571
0.0449262	455.867
0.0451856	457.166
0.0454465	458.47
0.0457088	459.777
0.0459727	461.089
0.0462381	462.404
0.046505	463.722
0.0467735	465.045
0.0470435	466.372
0.0473151	467.702
0.0475883	469.037
0.047863	470.375
0.0481393	471.717
0.0484172	473.063
0.0486968	474.413
0.0489779	475.767
0.0492606	477.125
0.049545	478.487
0.049831	479.853
0.0501187	481.223
0.0504081	482.597
0.0506991	483.974
0.0509918	485.356
0.0512861	486.742
0.0515822	488.132
0.05188	489.526
0.0521795	490.925
0.0524807	492.327
0.0527837	493.733
0.0530884	495.144
0.0533949	496.558
0.0537032	497.977
0.0540132	499.4
0.054325	500.827
0.0546387	502.258
0.0549541	503.694
0.0552713	505.133
0.0555904	506.577
0.0559114	508.025
0.0562341	508.394
0.0565588	508.734
0.0568853	509.077
0.0572137	509.424
0.057544	509.774
0.0578762	510.128
0.0582103	510.485
0.0585464	510.846
0.0588844	511.21
0.0592243	511.578
0.0595662	511.948
0.0599101	512.322
0.060256	512.699
0.0606038	513.079
0.0609537	513.462
0.0613056	513.849
0.0616595	514.238
0.0620155	514.63
0.0623735	515.025
0.0627336	515.423
0.0630957	515.824
0.06346	516.228
0.0638263	516.634
0.0641948	517.043
0.0645654	517.455
0.0649382	517.87
0.0653131	518.287
0.0656901	518.707
0.0660693	519.13
0.0664508	519.555
0.0668344	519.982
0.0672202	520.412
0.0676083	520.845
0.0679986	521.28
0.0683912	521.718
0.068786	522.157
0.0691831	522.6
0.0695825	523.044
0.0699842	523.491
0.0703882	523.94
0.0707946	524.392
0.0712033	524.846
0.0716143	525.302
0.0720278	525.76
0.0724436	526.22
0.0728618	526.683
0.0732825	527.147
0.0737055	527.614
0.074131	528.083
0.074559	528.554
0.0749894	529.027
0.0754223	529.503
0.0758578	529.98
0.0762957	530.459
0.0767361	530.94
0.0771792	531.424
0.0776247	531.909
0.0780728	532.396
0.0785236	532.885
0.0789769	533.376
0.0794328	533.869
0.0798914	534.364
0.0803526	534.861
0.0808165	535.36
0.0812831	535.861
0.0817523	536.363
0.0822243	536.868
0.082699	537.374
0.0831764	537.882
0.0836566	538.392
0.0841395	538.904
0.0846253	539.417
0.0851138	539.933
0.0856052	540.45
0.0860994	540.969
0.0865964	541.49
0.0870964	542.012
0.0875992	542.536
0.0881049	543.062
0.0886135	543.59
0.0891251	544.12
0.0896396	544.651
0.0901571	545.184
0.0906776	545.719
0.0912011	546.256
0.0917276	546.794
0.0922571	547.334
0.0927897	547.876
0.0933254	548.419
0.0938642	548.965
0.0944061	549.512
0.0949511	550.06
0.0954993	550.611
0.0960506	551.163
0.0966051	551.717
0.0971628	552.272
0.0977237	552.83
0.0982879	553.389
0.0988553	553.95
0.099426	554.512
0.1	555.076
0.100577	555.642
0.101158	556.21
0.101742	556.779
0.102329	557.35
0.10292	557.923
0.103514	558.498
0.104112	559.074
0.104713	559.652
0.105317	560.232
0.105925	560.814
0.106537	561.397
0.107152	561.982
0.107771	562.569
0.108393	563.158
0.109018	563.748
0.109648	564.34
0.110281	564.934
0.110917	565.53
0.111558	566.127
0.112202	566.727
0.11285	567.328
0.113501	567.931
0.114156	568.536
0.114815	569.142
0.115478	569.751
0.116145	570.361
0.116815	570.973
0.11749	571.587
0.118168	572.203
0.11885	572.82
0.119536	573.44
0.120226	574.061
0.120921	574.685
0.121619	575.31
0.122321	575.937
0.123027	576.566
0.123737	577.197
0.124451	577.83
0.12517	578.465
0.125893	579.102
0.126619	579.74
0.12735	580.381
0.128086	581.024
0.128825	581.669
0.129569	582.315
0.130317	582.964
0.131069	583.615
0.131826	584.268
0.132587	584.922
0.133352	585.579
0.134122	586.238
0.134896	586.899
0.135675	587.562
0.136458	588.228
0.137246	588.895
0.138038	589.564
0.138835	590.236
0.139637	590.91
0.140443	591.585
0.141254	592.263
0.142069	592.944
0.142889	593.626
0.143714	594.311
0.144544	594.997
0.145378	595.686
0.146218	596.378
0.147062	597.071
0.147911	597.767
0.148765	598.465
0.149624	599.166
0.150487	599.868
0.151356	600.573
0.15223	601.281
0.153109	601.99
0.153993	602.702
0.154882	603.417
0.155776	604.134
0.156675	604.853
0.15758	605.574
0.158489	606.298
0.159404	607.025
0.160325	607.754
0.16125	608.485
0.162181	609.219
0.163117	609.955
0.164059	610.694
0.165006	611.436
0.165959	612.18
0.166917	612.926
0.16788	613.675
0.16885	614.427
0.169824	615.181
0.170805	615.938
0.171791	616.697
0.172783	617.459
0.17378	618.224
0.174783	618.991
0.175792	619.762
0.176807	620.534
0.177828	621.31
0.178855	622.088
0.179887	622.869
0.180926	623.653
0.18197	624.439
0.183021	625.229
0.184077	626.021
0.18514	626.816
0.186209	627.614
0.187284	628.414
0.188365	629.218
0.189452	630.024
0.190546	630.833
0.191646	631.645
0.192752	632.46
0.193865	633.279
0.194984	634.1
0.19611	634.923
0.197242	635.75
0.198381	636.58
0.199526	637.413
0.200678	638.249
0.201837	639.088
0.203002	639.931
0.204174	640.776
0.205353	641.624
0.206538	642.476
0.20773	643.33
0.20893	644.188
0.210136	645.049
0.211349	645.913
0.212569	646.78
0.213796	647.65
0.21503	648.524
0.216272	649.401
0.21752	650.281
0.218776	651.165
0.220039	652.051
0.221309	652.941
0.222587	653.835
0.223872	654.731
0.225165	655.631
0.226464	656.535
0.227772	657.442
0.229087	658.352
0.230409	659.266
0.231739	660.183
0.233077	661.103
0.234423	662.027
0.235776	662.955
0.237137	663.885
0.238506	664.82
0.239883	665.758
0.241268	666.7
0.242661	667.645
0.244062	668.593
0.245471	669.546
0.246888	670.502
0.248313	671.461
0.249747	672.424
0.251189	673.391
0.252639	674.362
0.254097	675.336
0.255564	676.314
0.25704	677.295
0.258523	678.281
0.260016	679.27
0.261517	680.263
0.263027	681.259
0.264545	682.26
0.266073	683.264
0.267609	684.272
0.269153	685.285
0.270707	686.3
0.27227	687.32
0.273842	688.344
0.275423	689.371
0.277013	690.403
0.278612	691.438
0.280221	692.478
0.281838	693.521
0.283465	694.569
0.285102	695.62
0.286748	696.676
0.288403	697.735
0.290068	698.799
0.291743	699.866
0.293427	700.938
0.295121	702.014
0.296825	703.094
0.298538	704.178
0.300262	705.267
0.301995	706.359
0.303739	707.456
0.305492	708.557
0.307256	709.662
0.30903	710.771
0.310814	711.885
0.312608	713.002
0.314413	714.125
0.316228	715.251
0.318053	716.382
0.31989	717.517
0.321736	718.656
0.323594	719.8
0.325462	720.948
0.327341	722.101
0.32923	723.258
0.331131	724.419
0.333043	725.585
0.334965	726.755
0.336899	727.93
0.338844	729.109
0.3408	730.293
0.342768	731.481
0.344747	732.674
0.346737	733.872
0.348739	735.074
0.350752	736.28
0.352777	737.491
0.354813	738.707
0.356862	739.927
0.358922	741.152
0.360994	742.382
0.363078	743.616
0.365174	744.855
0.367282	746.099
0.369403	747.347
0.371535	748.6
0.37368	749.858
0.375837	751.121
0.378007	752.388
0.380189	753.661
0.382384	754.938
0.384592	756.22
0.386812	757.506
0.389045	758.798
0.391291	760.094
0.39355	761.395
0.395822	762.702
0.398107	764.013
0.400405	765.329
0.402717	766.649
0.405042	767.975
0.40738	769.306
0.409732	770.642
0.412098	771.983
0.414477	773.329
0.416869	774.679
0.419276	776.035
0.421697	777.396
0.424131	778.762
0.42658	780.133
0.429042	781.509
0.431519	782.891
0.43401	784.277
0.436516	785.668
0.439036	787.065
0.44157	788.467
0.44412	789.874
0.446684	791.286
0.449262	792.703
0.451856	794.126
0.454465	795.554
0.457088	796.987
0.459727	798.425
0.462381	799.868
0.46505	801.317
0.467735	802.771
0.470435	804.231
0.473151	805.695
0.475883	807.165
0.47863	808.641
0.481393	810.121
0.484172	811.607
0.486968	813.099
0.489779	814.596
0.492606	816.098
0.49545	817.606
0.49831	819.119
0.501187	820.637
0.504081	822.161
0.506991	823.69
0.509918	825.225
0.512861	826.766
0.515822	828.312
0.5188	829.863
0.521795	831.42
0.524807	832.982
0.527837	834.55
0.530884	836.123
0.533949	837.702
0.537032	839.287
0.540132	840.877
0.54325	842.473
0.546387	844.074
0.549541	845.681
0.552713	847.294
0.555904	848.912
0.559114	850.536
0.562341	852.165
0.565588	853.8
0.568853	855.441
0.572137	857.088
0.57544	858.74
0.578762	860.398
0.582103	862.061
0.585464	863.731
0.588844	865.406
0.592243	867.086
0.595662	868.773
0.599101	870.465
0.60256	872.163
0.606038	873.867
0.609537	875.576
0.613056	877.292
0.616595	879.013
0.620155	880.739
0.623735	882.472
0.627336	884.211
0.630957	885.955
0.6346	887.705
0.638263	889.461
0.641948	891.223
0.645654	892.99
0.649382	894.764
0.653131	896.543
0.656901	898.328
0.660693	900.119
0.664508	901.916
0.668344	903.718
0.672202	905.527
0.676083	907.342
0.679986	909.162
0.683912	910.988
0.68786	912.82
0.691831	914.658
0.695825	916.502
0.699842	918.352
0.703882	920.208
0.707946	922.07
0.712033	923.937
0.716143	925.811
0.720278	927.69
0.724436	929.575
0.728618	931.467
0.732825	933.364
0.737055	935.267
0.74131	937.176
0.74559	939.091
0.749894	941.012
0.754223	942.938
0.758578	944.871
0.762957	946.81
0.767361	948.754
0.771792	950.705
0.776247	952.661
0.780728	954.624
0.785236	956.592
0.789769	958.566
0.794328	960.546
0.798914	962.533
0.803526	964.525
0.808165	966.522
0.812831	968.526
0.817523	970.536
0.822243	972.552
0.82699	974.573
0.831764	976.6
0.836566	978.634
0.841395	980.673
0.846253	982.718
0.851138	984.769
0.856052	986.826
0.860994	988.888
0.865964	990.957
0.870964	993.031
0.875992	995.112
0.881049	997.198
0.886135	999.289
0.891251	1001.39
0.896396	1003.49
0.901571	1005.6
0.906776	1007.72
0.912011	1009.84
0.917276	1011.96
0.922571	1014.1
0.927897	1016.23
0.933254	1018.38
0.938642	1020.53
0.944061	1022.68
0.949511	1024.84
0.954993	1027.01
0.960506	1029.18
0.966051	1031.36
0.971628	1033.54
0.977237	1035.73
0.982879	1037.93
0.988553	1040.13
0.99426	1042.34
1	1044.55
1.00577	1046.76
1.01158	1048.99
1.01742	1051.22
1.02329	1053.45
1.0292	1055.69
1.03514	1057.93
1.04112	1060.18
1.04713	1062.44
1.05317	1064.7
1.05925	1066.97
1.06537	1069.24
1.07152	1071.52
1.07771	1073.8
1.08393	1076.09
1.09018	1078.38
1.09648	1080.68
1.10281	1082.98
1.10917	1085.29
1.11558	1087.6
1.12202	1089.92
1.1285	1092.25
1.13501	1094.58
1.14156	1096.91
1.14815	1099.25
1.15478	1101.6
1.16145	1103.95
1.16815	1106.3
1.1749	1108.66
1.18168	1111.02
1.1885	1113.39
1.19536	1115.77
1.20226	1118.14
1.20921	1120.53
1.21619	1122.92
1.22321	1125.31
1.23027	1127.71
1.23737	1130.11
1.24451	1132.51
1.2517	1134.93
1.25893	1137.34
1.26619	1139.76
1.2735	1142.19
1.28086	1144.61
1.28825	1147.05
1.29569	1149.49
1.30317	1151.93
1.31069	1154.37
1.31826	1156.82
1.32587	1159.28
1.33352	1161.74
1.34122	1164.2
1.34896	1166.67
1.35675	1169.14
1.36458	1171.61
1.37246	1174.09
1.38038	1176.57
1.38835	1179.06
1.39637	1181.54
1.40443	1184.04
1.41254	1186.53
1.42069	1189.03
1.42889	1191.54
1.43714	1194.04
1.44544	1196.55
1.45378	1199.07
1.46218	1201.59
1.47062	1204.11
1.47911	1206.63
1.48765	1209.15
1.49624	1211.68
1.50487	1214.22
1.51356	1216.75
1.5223	1219.29
1.53109	1221.83
1.53993	1224.37
1.54882	1226.92
1.55776	1229.47
1.56675	1232.02
1.5758	1234.57
1.58489	1237.13
1.59404	1239.69
1.60325	1242.25
1.6125	1244.81
1.62181	1247.37
1.63117	1249.94
1.64059	1252.51
1.65006	1255.08
1.65959	1257.65
1.66917	1260.23
1.6788	1262.8
1.6885	1265.38
1.69824	1267.96
1.70805	1270.54
1.71791	1273.12
1.72783	1275.7
1.7378	1278.28
1.74783	1280.87
1.75792	1283.45
1.76807	1286.04
1.77828	1288.63
1.78855	1291.21
1.79887	1293.8
1.80926	1296.39
1.8197	1298.98
1.83021	1301.57
1.84077	1304.16
1.8514	1306.75
1.86209	1309.34
1.87284	1311.93
1.88365	1314.52
1.89452	1317.11
1.90546	1319.7
1.91646	1322.29
1.92752	1324.88
1.93865	1327.46
1.94984	1330.05
1.9611	1332.64
1.97242	1335.22
1.98381	1337.8
1.99526	1340.39
2.00678	1342.97
2.01837	1345.55
2.03002	1348.13
2.04174	1350.7
2.05353	1353.28
2.06538	1355.85
2.0773	1358.42
2.0893	1360.99
2.10136	1363.56
2.11349	1366.12
2.12569	1368.68
2.13796	1371.24
2.1503	1373.8
2.16272	1376.35
2.1752	1378.9
2.18776	1381.45
2.20039	1384
2.21309	1386.54
2.22587	1389.43
2.23872	1396.68
2.25165	1403.97
2.26464	1411.3
2.27772	1418.67
2.29087	1426.07
2.30409	1433.52
2.31739	1441
2.33077	1448.52
2.34423	1456.08
2.35776	1463.67
2.37137	1471.31
2.38506	1478.98
2.39883	1486.69
2.41268	1494.45
2.42661	1502.23
2.44062	1510.06
2.45471	1517.93
2.46888	1525.84
2.48313	1533.78
2.49747	1541.76
2.51189	1549.79
2.52639	1557.85
2.54097	1565.95
2.55564	1574.09
2.5704	1582.27
2.58523	1590.48
2.60016	1598.74
2.61517	1607.04
2.63027	1615.37
2.64545	1623.75
2.66073	1632.16
2.67609	1640.61
2.69153	1649.1
2.70707	1657.63
2.7227	1666.2
2.73842	1674.81
2.75423	1683.46
2.77013	1692.14
2.78612	1700.87
2.80221	1709.63
2.81838	1718.43
2.83465	1727.28
2.85102	1736.16
2.86748	1745.08
2.88403	1754.03
2.90068	1763.03
2.91743	1772.07
2.93427	1781.14
2.95121	1790.25
2.96825	1799.4
2.98538	1808.59
3.00262	1817.82
3.01995	1827.09
3.03739	1836.39
3.05492	1845.73
3.07256	1855.11
3.0903	1864.53
3.10814	1873.99
3.12608	1883.48
3.14413	1893.01
3.16228	1902.58
3.18053	1912.19
3.1989	1921.83
3.21736	1931.51
3.23594	1941.23
3.25462	1950.98
3.27341	1960.78
3.2923	1970.6
3.31131	1980.47
3.33043	1990.37
3.34965	2000.31
3.36899	2010.28
3.38844	2020.29
3.408	2030.33
3.42768	2040.41
3.44747	2050.53
3.46737	2060.68
3.48739	2070.86
3.50752	2081.08
3.52777	2091.34
3.54813	2101.63
3.56862	2111.95
3.58922	2122.31
3.60994	2132.7
3.63078	2143.13
3.65174	2153.58
3.67282	2164.08
3.69403	2174.6
3.71535	2185.16
3.7368	2195.75
3.75837	2206.37
3.78007	2217.02
3.80189	2227.71
3.82384	2238.42
3.84592	2249.17
3.86812	2259.95
3.89045	2270.76
3.91291	2281.6
3.9355	2292.47
3.95822	2303.37
3.98107	2314.29
4.00405	2325.25
4.02717	2336.24
4.05042	2347.25
4.0738	2358.29
4.09732	2369.37
4.12098	2380.46
4.14477	2391.59
4.16869	2402.74
4.19276	2413.92
4.21697	2425.12
4.24131	2436.35
4.2658	2447.61
4.29042	2458.89
4.31519	2470.19
4.3401	2481.52
4.36516	2492.88
4.39036	2504.25
4.4157	2515.65
4.4412	2527.07
4.46684	2538.52
4.49262	2549.99
4.51856	2561.47
4.54465	2572.98
4.57088	2584.51
4.59727	2596.06
4.62381	2607.63
4.6505	2619.22
4.67735	2630.83
4.70435	2642.45
4.73151	2654.1
4.75883	2665.76
4.7863	2677.44
4.81393	2689.13
4.84172	2700.84
4.86968	2712.57
4.89779	2724.31
4.92606	2736.06
4.9545	2747.83
4.9831	2759.62
5.01187	2771.41
5.04081	2783.22
5.06991	2795.04
5.09918	2806.88
5.12861	2818.72
5.15822	2830.57
5.188	2842.44
5.21795	2854.31
5.24807	2866.19
5.27837	2878.08
5.30884	2889.98
5.33949	2901.89
5.37032	2913.8
5.40132	2925.72
5.4325	2937.64
5.46387	2949.57
5.49541	2961.5
5.52713	2973.44
5.55904	2985.38
5.59114	2997.32
5.62341	3009.27
5.65588	3021.21
5.68853	3033.16
5.72137	3045.1
5.7544	3057.05
5.78762	3069
5.82103	3080.94
5.85464	3092.88
5.88844	3104.82
5.92243	3116.76
5.95662	3128.69
5.99101	3140.61
6.0256	3152.53
6.06038	3164.45
6.09537	3176.36
6.13056	3188.26
6.16595	3200.15
6.20155	3212.04
6.23735	3223.91
6.27336	3235.78
6.30957	3247.64
6.346	3259.48
6.38263	3271.31
6.41948	3283.13
6.45654	3294.94
6.49382	3306.74
6.53131	3318.51
6.56901	3330.28
6.60693	3342.03
6.64508	3353.76
6.68344	3365.48
6.72202	3377.17
6.76083	3388.85
6.79986	3400.51
6.83912	3412.16
6.8786	3423.78
6.91831	3435.38
6.95825	3446.96
6.99842	3458.51
7.03882	3470.05
7.07946	3481.56
7.12033	3493.04
7.16143	3504.5
7.20278	3515.94
7.24436	3527.35
7.28618	3538.73
7.32825	3550.08
7.37055	3561.41
7.4131	3572.71
7.4559	3583.98
7.49894	3595.22
7.54223	3606.42
7.58578	3617.6
7.62957	3628.74
7.67361	3639.86
7.71792	3650.93
7.76247	3661.98
7.80728	3672.99
7.85236	3683.96
7.89769	3694.9
7.94328	3705.81
7.98914	3716.67
8.03526	3727.5
8.08165	3738.29
8.12831	3749.04
8.17523	3759.75
8.22243	3770.42
8.2699	3781.05
8.31764	3791.64
8.36566	3802.19
8.41395	3812.7
8.46253	3823.16
8.51138	3833.58
8.56052	3843.95
8.60994	3854.28
8.65964	3864.57
8.70964	3874.8
8.75992	3885
8.81049	3895.14
8.86135	3905.24
8.91251	3915.29
8.96396	3925.29
9.01571	3935.24
9.06776	3945.14
9.12011	3954.99
9.17276	3964.8
9.22571	3974.55
9.27897	3984.24
9.33254	3993.89
9.38642	4003.48
9.44061	4013.02
9.49511	4022.51
9.54993	4031.94
9.60506	4041.32
9.66051	4050.65
9.71628	4059.91
9.77237	4069.13
9.82879	4078.28
9.88553	4087.38
9.9426	4096.42
10	4105.41
10.0577	4114.33
10.1158	4123.2
10.1742	4132.01
10.2329	4140.76
10.292	4149.45
10.3514	4158.08
10.4112	4166.65
10.4713	4175.16
10.5317	4183.61
10.5925	4192
10.6537	4200.32
10.7152	4208.59
10.7771	4214.52
10.8393	4222.64
10.9018	4230.69
10.9648	4238.68
11.0281	4246.6
11.0917	4254.47
11.1558	4262.26
11.2202	4270
11.285	4277.67
11.3501	4285.27
11.4156	4292.81
11.4815	4300.28
11.5478	4307.69
11.6145	4315.03
11.6815	4322.31
11.749	4329.52
11.8168	4336.67
11.885	4343.75
11.9536	4350.76
12.0226	4357.7
12.0921	4364.58
12.1619	4371.39
12.2321	4378.13
12.3027	4384.81
12.3737	4391.42
12.4451	4397.96
12.517	4404.44
12.5893	4410.84
12.6619	4417.18
12.735	4423.45
12.8086	4429.66
12.8825	4435.79
12.9569	4441.86
13.0317	4447.86
13.1069	4453.79
13.1826	4459.66
13.2587	4465.45
13.3352	4471.18
13.4122	4476.84
13.4896	4482.43
13.5675	4487.96
13.6458	4493.41
13.7246	4498.8
13.8038	4504.12
13.8835	4509.37
13.9637	4514.56
14.0443	4519.68
14.1254	4524.73
14.2069	4529.71
14.2889	4534.62
14.3714	4539.47
14.4544	4544.25
14.5378	4548.97
14.6218	4553.61
14.7062	4558.19
14.7911	4562.71
14.8765	4567.15
14.9624	4571.54
15.0487	4575.85
15.1356	4580.1
15.223	4584.28
15.3109	4588.4
15.3993	4592.45
15.4882	4596.44
15.5776	4575.83
15.6675	4579.87
15.758	4583.85
15.8489	4587.76
15.9404	4591.61
16.0325	4595.4
16.125	4599.12
16.2181	4602.78
16.3117	4606.37
16.4059	4609.9
16.5006	4613.37
16.5959	4616.77
16.6917	4620.11
16.788	4623.39
16.885	4626.6
16.9824	4629.76
17.0805	4632.85
17.1791	4635.88
17.2783	4638.85
17.378	4641.76
17.4783	4644.61
17.5792	4647.4
17.6807	4650.13
17.7828	4652.8
17.8855	4655.41
17.9887	4657.97
18.0926	4660.46
18.197	4662.9
18.3021	4665.28
18.4077	4667.6
18.514	4669.87
18.6209	4672.08
18.7284	4674.23
18.8365	4676.33
18.9452	4678.37
19.0546	4680.36
19.1646	4682.29
19.2752	4684.17
19.3865	4685.99
19.4984	4687.76
19.611	4689.48
19.7242	4691.15
19.8381	4692.76
19.9526	4694.33
20.0678	4695.84
20.1837	4697.3
20.3002	4698.71
20.4174	4700.07
20.5353	4701.38
20.6538	4702.64
20.773	4703.85
20.893	4705.02
21.0136	4706.14
21.1349	4707.21
21.2569	4708.23
21.3796	4709.2
21.503	4710.13
21.6272	4711.02
21.752	4711.86
21.8776	4712.65
22.0039	4713.4
22.1309	4714.11
22.2587	4714.77
22.3872	4715.39
22.5165	4715.97
22.6464	4716.51
22.7772	4717
22.9087	4717.46
23.0409	4717.87
23.1739	4718.24
23.3077	4718.57
23.4423	4718.87
23.5776	4719.12
23.7137	4719.34
23.8506	4719.52
23.9883	4719.66
24.1268	4719.76
24.2661	4719.83
24.4062	4719.86
24.5471	4719.86
24.6888	4719.82
24.8313	4719.74
24.9747	4719.63
25.1189	4719.49
25.2639	4719.31
25.4097	4719.1
25.5564	4718.86
25.704	4718.59
25.8523	4718.28
26.0016	4717.94
26.1517	4717.58
26.3027	4717.18
26.4545	4716.75
26.6073	4716.29
26.7609	4715.8
26.9153	4715.29
27.0707	4714.74
27.227	4714.17
27.3842	4713.57
27.5423	4712.94
27.7013	4712.29
27.8612	4711.61
28.0221	4710.9
28.1838	4710.17
28.3465	4709.41
28.5102	4708.63
28.6748	4707.82
28.8403	4706.99
29.0068	4706.14
29.1743	4705.26
29.3427	4704.37
29.5121	4703.44
29.6825	4702.5
29.8538	4701.53
30.0262	4700.55
30.1995	4699.54
30.3739	4698.51
30.5492	4697.46
30.7256	4696.39
30.903	4695.3
31.0814	4694.2
31.2608	4693.07
31.4413	4691.92
31.6228	4690.76
31.8053	4689.58
31.989	4688.38
32.1736	4687.16
32.3594	4685.93
32.5462	4684.68
32.7341	4683.41
32.923	4682.13
33.1131	4680.83
33.3043	4679.51
33.4965	4678.18
33.6899	4676.84
33.8844	4675.48
34.08	4674.1
34.2768	4672.72
34.4747	4671.31
34.6737	4669.9
34.8739	4668.47
35.0752	4667.03
35.2777	4665.57
35.4813	4664.1
35.6862	4662.62
35.8922	4661.13
36.0994	4659.63
36.3078	4658.11
36.5174	4656.58
36.7282	4655.04
36.9403	4653.49
37.1535	4651.93
37.368	4650.36
37.5837	4648.77
37.8007	4647.18
38.0189	4645.58
38.2384	4643.96
38.4592	4642.34
38.6812	4640.71
38.9045	4639.07
39.1291	4637.42
39.355	4635.75
39.5822	4634.09
39.8107	4632.41
40.0405	4630.72
40.2717	4629.02
40.5042	4627.32
40.738	4625.61
40.9732	4623.89
41.2098	4622.16
41.4477	4620.42
41.6869	4618.68
41.9276	4616.93
42.1697	4615.17
42.4131	4613.4
42.658	4611.63
42.9042	4609.84
43.1519	4608.06
43.401	4606.26
43.6516	4604.46
43.9036	4602.65
44.157	4600.83
44.412	4599.01
44.6684	4597.18
44.9262	4595.34
45.1856	4593.5
45.4465	4591.65
45.7088	4589.79
45.9727	4587.93
46.2381	4586.06
46.505	4584.19
46.7735	4582.31
47.0435	4580.42
47.3151	4578.53
47.5883	4576.63
47.863	4574.72
48.1393	4572.81
48.4172	4570.89
48.6968	4568.97
48.9779	4567.04
49.2606	4565.11
49.545	4563.17
49.831	4561.22
50.1187	4559.27
50.4081	4557.31
50.6991	4555.34
50.9918	4553.37
51.2861	4551.39
51.5822	4549.41
51.88	4547.42
52.1795	4545.43
52.4807	4543.43
52.7837	4541.42
53.0884	4539.41
53.3949	4537.39
53.7032	4535.37
54.0132	4533.34
54.325	4531.3
54.6387	4529.26
54.9541	4527.21
55.2713	4525.16
55.5904	4523.1
55.9114	4521.03
56.2341	4518.96
56.5588	4516.88
56.8853	4514.79
57.2137	4512.7
57.544	4510.6
57.8762	4508.49
58.2103	4506.38
58.5464	4504.27
58.8844	4502.14
59.2243	4500.01
59.5662	4497.87
59.9101	4495.73
60.256	4493.57
60.6038	4491.42
60.9537	4489.25
61.3056	4487.08
61.6595	4484.9
62.0155	4482.71
62.3735	4480.52
62.7336	4478.32
63.0957	4476.11
63.46	4473.89
63.8263	4471.67
64.1948	4469.44
64.5654	4467.2
64.9382	4464.95
65.3131	4462.7
65.6901	4460.44
66.0693	4458.17
66.4508	4455.89
66.8344	4453.6
67.2202	4451.31
67.6083	4449.01
67.9986	4446.7
68.3912	4444.38
68.786	4442.05
69.1831	4439.71
69.5825	4437.37
69.9842	4435.02
70.3882	4432.65
70.7946	4430.28
71.2033	4427.91
71.6143	4425.52
72.0278	4423.12
72.4436	4420.71
72.8618	4418.29
73.2825	4415.87
73.7055	4413.43
74.131	4410.99
74.559	4408.53
74.9894	4406.07
75.4223	4403.59
75.8578	4401.11
76.2957	4398.62
76.7361	4396.11
77.1792	4393.6
77.6247	4391.07
78.0728	4388.54
78.5236	4385.99
78.9769	4383.44
79.4328	4380.87
79.8914	4378.29
80.3526	4375.7
80.8165	4373.1
81.2831	4370.49
81.7523	4367.87
82.2243	4365.24
82.699	4362.6
83.1764	4359.94
83.6566	4357.27
84.1395	4354.6
84.6253	4351.91
85.1138	4349.2
85.6052	4346.49
86.0994	4343.77
86.5964	4341.03
87.0964	4338.28
87.5992	4335.52
88.1049	4332.74
88.6135	4329.96
89.1251	4327.16
89.6396	4324.35
90.1571	4321.52
90.6776	4318.68
91.2011	4315.83
91.7276	4312.97
92.2571	4310.1
92.7897	4307.21
93.3254	4304.31
93.8642	4301.39
94.4061	4298.46
94.9511	4295.52
95.4993	4292.56
96.0506	4289.59
96.6051	4286.61
97.1628	4283.61
97.7237	4280.6
98.2879	4277.58
98.8553	4274.54
99.426	4271.48
100	4268.42
100.577	4265.33
101.158	4262.24
101.742	4259.13
102.329	4256
102.92	4252.86
103.514	4249.7
104.112	4246.53
104.713	4243.35
105.317	4240.15
105.925	4236.93
106.537	4233.7
107.152	4230.45
107.771	4227.19
108.393	4223.92
109.018	4220.62
109.648	4217.31
110.281	4213.99
110.917	4210.65
111.558	4204.26
112.202	4197.01
112.85	4189.78
113.501	4182.58
114.156	4175.39
114.815	4168.22
115.478	4161.05
116.145	4154.14
116.815	4146.99
117.49	4139.86
118.168	4132.73
118.85	4125.61
119.536	4118.49
120.226	4111.39
120.921	4104.29
121.619	4097.2
122.321	4090.12
123.027	4083.05
123.737	4075.98
124.451	4069.46
125.17	4062.57
125.893	4055.53
126.619	4048.48
127.35	4041.45
128.086	4034.42
128.825	4027.4
129.569	4020.38
130.317	4013.37
131.069	4006.36
131.826	3999.37
132.587	3992.37
133.352	3985.38
134.122	3978.39
134.896	3971.41
135.675	3964.43
136.458	3959.82
137.246	3952.83
138.038	3945.85
138.835	3938.86
139.637	3923.81
140.443	3917.42
141.254	3910.31
142.069	3903.2
142.889	3896.1
143.714	3888.99
144.544	3881.92
145.378	3874.84
146.218	3867.77
147.062	3860.7
147.911	3853.63
148.765	3846.56
149.624	3839.49
150.487	3832.42
151.356	3825.36
152.23	3818.29
153.109	3811.22
153.993	3804.15
154.882	3797.08
155.776	3790
156.675	3782.94
157.58	3775.86
158.489	3768.78
159.404	3761.7
160.325	3754.62
161.25	3747.53
162.181	3740.45
163.117	3733.35
164.059	3726.26
165.006	3719.16
165.959	3714.49
166.917	3707.38
167.88	3700.27
168.85	3693.15
169.824	3686.03
170.805	3678.91
171.791	3671.78
172.783	3664.65
173.78	3657.51
174.783	3650.38
175.792	3643.24
176.807	3636.09
177.828	3628.95
178.855	3621.8
179.887	3614.65
180.926	3607.49
181.97	3600.33
183.021	3593.17
184.077	3586.01
185.14	3578.85
186.209	3571.69
187.284	3564.52
188.365	3557.51
189.452	3550.33
190.546	3543.16
191.646	3535.98
192.752	3528.8
193.865	3521.62
194.984	3514.44
196.11	3507.61
197.242	3500.81
198.381	3494
199.526	3487.18
200.678	3480.36
201.837	3473.54
203.002	3466.71
204.174	3459.88
205.353	3453.04
206.538	3446.19
207.73	3439.35
208.93	3432.5
210.136	3425.64
211.349	3418.78
212.569	3411.92
213.796	3409.95
215.03	3403.05
216.272	3396.15
217.52	3389.25
218.776	3382.34
220.039	3375.44
221.309	3368.52
222.587	3361.61
223.872	3354.7
225.165	3347.78
226.464	3340.86
227.772	3334.9
229.087	3327.96
230.409	3321.02
231.739	3314.09
233.077	3307.14
234.423	3300.2
235.776	3293.26
237.137	3286.31
238.506	3279.37
239.883	3272.43
241.268	3265.48
242.661	3258.54
244.062	3251.6
245.471	3244.66
246.888	3237.72
248.313	3230.79
249.747	3226.16
251.189	3219.21
252.639	3212.25
254.097	3205.3
255.564	3198.35
257.04	3191.4
258.523	3184.46
260.016	3177.52
261.517	3170.58
263.027	3163.64
264.545	3156.71
266.073	3149.77
267.609	3142.84
269.153	3135.92
270.707	3129
272.27	3122.08
273.842	3115.16
275.423	3108.25
277.013	3101.34
278.612	3094.43
280.221	3087.53
281.838	3080.63
283.465	3073.74
285.102	3066.84
286.748	3059.95
288.403	3053.07
290.068	3046.18
291.743	3039.3
293.427	3032.43
295.121	3025.56
296.825	3018.69
298.538	3011.82
300.262	3004.96
301.995	2998.11
303.739	2991.25
305.492	2984.4
307.256	2977.56
309.03	2970.72
310.814	2963.88
312.608	2957.04
314.413	2950.28
316.228	2943.45
318.053	2936.62
319.89	2930.46
321.736	2923.64
323.594	2916.81
325.462	2909.99
327.341	2903.17
329.23	2896.35
331.131	2889.55
333.043	2882.74
334.965	2875.94
336.899	2869.13
338.844	2862.34
340.8	2855.54
342.768	2848.75
344.747	2841.96
346.737	2835.18
348.739	2828.4
350.752	2821.62
352.777	2814.84
354.813	2808.07
356.862	2801.3
358.922	2794.54
360.994	2787.77
363.078	2781.02
365.174	2774.26
367.282	2767.51
369.403	2760.76
371.535	2754.01
373.68	2747.27
375.837	2740.53
378.007	2733.79
380.189	2727.06
382.384	2720.33
384.592	2713.6
386.812	2706.88
389.045	2700.16
391.291	2693.44
393.55	2686.73
395.822	2680.02
398.107	2673.31
400.405	2666.61
402.717	2659.91
405.042	2653.21
407.38	2646.52
409.732	2639.83
412.098	2633.14
414.477	2626.46
416.869	2620.68
419.276	2613.99
421.697	2607.3
424.131	2600.61
426.58	2593.93
429.042	2587.25
431.519	2580.57
434.01	2573.9
436.516	2567.23
439.036	2560.57
441.57	2553.95
444.12	2547.29
446.684	2540.63
449.262	2533.97
451.856	2527.32
454.465	2520.68
457.088	2514.03
459.727	2507.39
462.381	2500.76
465.05	2494.13
467.735	2487.5
470.435	2480.88
473.151	2474.26
475.883	2467.64
478.63	2461.03
481.393	2454.41
484.172	2447.81
486.968	2441.2
489.779	2434.6
492.606	2428.01
495.45	2421.41
498.31	2414.82
501.187	2408.24
504.081	2401.65
506.991	2395.07
509.918	2388.5
512.861	2381.93
515.822	2375.36
518.8	2368.8
521.795	2362.24
524.807	2355.68
527.837	2349.13
530.884	2342.58
533.949	2336.04
537.032	2329.5
540.132	2322.96
543.25	2316.43
546.387	2309.9
549.541	2303.38
552.713	2296.86
555.904	2290.35
559.114	2283.84
562.341	2277.34
565.588	2270.84
568.853	2264.35
572.137	2257.86
575.44	2251.37
578.762	2244.89
582.103	2238.42
585.464	2232.55
588.844	2226.08
592.243	2219.61
595.662	2213.15
599.101	2206.7
602.56	2200.25
606.038	2193.8
609.537	2187.36
613.056	2180.93
616.595	2174.51
620.155	2168.09
623.735	2161.67
627.336	2155.26
630.957	2148.86
634.6	2142.47
638.263	2136.08
641.948	2129.7
645.654	2123.32
649.382	2116.95
653.131	2110.59
656.901	2104.23
660.693	2097.88
664.508	2091.54
668.344	2085.2
672.202	2078.88
676.083	2072.55
679.986	2066.24
683.912	2059.93
687.86	2053.63
691.831	2047.34
695.825	2041.06
699.842	2034.78
703.882	2028.52
707.946	2022.26
712.033	2016
716.143	2009.76
720.278	2003.52
724.436	1997.29
728.618	1991.07
732.825	1984.85
737.055	1978.65
741.31	1972.45
745.59	1966.26
749.894	1960.08
754.223	1953.91
758.578	1947.74
762.957	1941.59
767.361	1935.44
771.792	1929.3
776.247	1923.17
780.728	1917.05
785.236	1910.94
789.769	1904.83
794.328	1898.74
798.914	1892.65
803.526	1886.58
808.165	1880.51
812.831	1874.45
817.523	1868.4
822.243	1862.36
826.99	1856.33
831.764	1850.31
836.566	1844.3
841.395	1838.29
846.253	1832.3
851.138	1826.32
856.052	1820.35
860.994	1814.39
865.964	1808.44
870.964	1802.5
875.992	1796.56
881.049	1790.64
886.135	1784.73
891.251	1778.83
896.396	1772.93
901.571	1767.05
906.776	1761.18
912.011	1755.31
917.276	1749.46
922.571	1743.62
927.897	1737.79
933.254	1731.97
938.642	1726.16
944.061	1720.36
949.511	1714.57
954.993	1708.79
960.506	1703.02
966.051	1697.26
971.628	1691.51
977.237	1685.78
982.879	1680.05
988.553	1674.33
994.26	1668.63
1000	1662.93
1005.77	1657.25
1011.58	1651.57
1017.42	1645.91
1023.29	1640.26
1029.2	1634.62
1035.14	1628.99
1041.12	1623.37
1047.13	1617.76
1053.17	1612.16
1059.25	1606.58
1065.37	1601
1071.52	1595.44
1077.71	1589.88
1083.93	1584.34
1090.18	1578.81
1096.48	1573.29
1102.81	1567.78
1109.17	1562.29
1115.58	1556.8
1122.02	1551.33
1128.5	1545.86
1135.01	1540.41
1141.56	1534.97
1148.15	1529.54
1154.78	1524.13
1161.45	1518.72
1168.15	1513.33
1174.9	1507.95
1181.68	1502.58
1188.5	1497.22
1195.36	1491.87
1202.26	1486.54
1209.21	1481.21
1216.19	1475.9
1223.21	1470.6
1230.27	1465.31
1237.37	1460.04
1244.51	1454.77
1251.7	1449.52
1258.93	1444.28
1266.19	1439.05
1273.5	1433.84
1280.86	1428.63
1288.25	1423.44
1295.69	1418.26
1303.17	1413.09
1310.69	1407.94
1318.26	1402.79
1325.87	1397.66
1333.52	1392.54
1341.22	1387.44
1348.96	1382.34
1356.75	1377.26
1364.58	1372.19
1372.46	1367.14
1380.38	1362.09
1388.35	1357.06
1396.37	1352.04
1404.43	1347.03
1412.54	1342.04
1420.69	1337.05
1428.89	1332.08
1437.14	1327.71
1445.44	1322.76
1453.78	1317.82
1462.18	1312.9
1470.62	1307.99
1479.11	1303.09
1487.65	1298.2
1496.24	1293.33
1504.87	1288.47
1513.56	1283.62
1522.3	1278.79
1531.09	1273.97
1539.93	1269.16
1548.82	1264.36
1557.76	1259.58
1566.75	1254.81
1575.8	1250.05
1584.89	1245.3
1594.04	1240.57
1603.25	1235.85
1612.5	1231.15
1621.81	1226.46
1631.17	1221.78
1640.59	1217.11
1650.06	1212.45
1659.59	1207.81
1669.17	1203.19
1678.8	1198.57
1688.5	1193.97
1698.24	1189.38
1708.05	1184.81
1717.91	1180.24
1727.83	1175.69
1737.8	1171.16
1747.83	1166.64
1757.92	1162.13
1768.07	1157.63
1778.28	1153.15
1788.55	1148.67
1798.87	1144.22
1809.26	1139.77
1819.7	1135.34
1830.21	1130.92
1840.77	1126.52
1851.4	1122.13
1862.09	1117.75
1872.84	1113.38
1883.65	1109.03
1894.52	1104.69
1905.46	1100.37
1916.46	1096.06
1927.52	1091.76
1938.65	1087.47
1949.84	1083.2
1961.1	1078.94
1972.42	1074.69
1983.81	1070.46
1995.26	1066.24
2006.78	1062.03
2018.37	1057.83
2030.02	1053.65
2041.74	1049.49
2053.53	1045.33
2065.38	1041.19
2077.3	1037.06
2089.3	1032.95
2101.36	1028.84
2113.49	1024.76
2125.69	1020.68
2137.96	1016.62
2150.3	1012.57
2162.72	1008.53
2175.2	1004.51
2187.76	1000.5
2200.39	996.501
2213.09	992.517
2225.87	988.546
2238.72	984.588
2251.65	980.644
2264.64	976.712
2277.72	972.793
2290.87	968.888
2304.09	964.995
2317.39	961.116
2330.77	957.249
2344.23	953.396
2357.76	949.556
2371.37	945.728
2385.06	941.914
2398.83	938.113
2412.68	934.325
2426.61	930.549
2440.62	926.787
2454.71	923.037
2468.88	919.301
2483.13	915.577
2497.47	911.867
2511.89	908.169
2526.39	904.484
2540.97	900.812
2555.64	897.153
2570.4	893.507
2585.23	889.874
2600.16	886.253
2615.17	882.646
2630.27	879.051
2645.45	875.469
2660.73	871.9
2676.09	868.343
2691.53	864.799
2707.07	861.268
2722.7	857.75
2738.42	854.244
2754.23	850.752
2770.13	847.271
2786.12	843.804
2802.21	840.349
2818.38	836.907
2834.65	833.477
2851.02	830.06
2867.48	826.656
2884.03	823.264
2900.68	819.885
2917.43	816.518
2934.27	813.164
2951.21	809.822
2968.25	806.493
2985.38	803.176
3002.62	799.872
3019.95	796.58
3037.39	793.301
3054.92	790.033
3072.56	786.779
3090.3	783.536
3108.14	780.306
3126.08	777.089
3144.13	773.883
3162.28	770.69
3180.53	767.509
3198.9	764.341
3217.36	761.184
3235.94	758.04
3254.62	754.908
3273.41	751.788
3292.3	748.68
3311.31	745.584
3330.43	742.501
3349.65	739.429
3368.99	736.37
3388.44	733.322
3408	730.287
3427.68	727.263
3447.47	724.252
3467.37	721.252
3487.39	718.264
3507.52	715.288
3527.77	712.324
3548.13	709.372
3568.62	706.432
3589.22	703.503
3609.94	700.586
3630.78	697.681
3651.74	694.788
3672.82	691.906
3694.03	689.036
3715.35	686.178
3736.8	683.331
3758.37	680.496
3780.07	677.672
3801.89	674.86
3823.84	672.06
3845.92	669.271
3868.12	666.493
3890.45	663.727
3912.91	660.972
3935.5	658.229
3958.22	655.497
3981.07	652.776
4004.05	650.067
4027.17	647.369
4050.42	644.682
4073.8	642.006
4097.32	639.342
4120.98	636.688
4144.77	634.046
4168.69	631.415
4192.76	628.795
4216.97	626.186
4241.31	623.588
4265.8	621.002
4290.42	618.426
4315.19	615.861
4340.1	613.307
4365.16	610.764
4390.36	608.231
4415.7	605.71
4441.2	603.199
4466.84	600.7
4492.62	598.21
4518.56	595.732
4544.65	593.264
4570.88	590.807
4597.27	588.361
4623.81	585.925
4650.5	583.5
4677.35	581.085
4704.35	578.681
4731.51	576.287
4758.83	573.904
4786.3	571.531
4813.93	569.169
4841.72	566.817
4869.68	564.475
4897.79	562.143
4926.06	559.822
4954.5	557.511
4983.1	555.211
5011.87	552.92
5040.81	550.64
5069.91	548.369
5099.18	546.109
5128.61	543.859
5158.22	541.619
5188	539.389
5217.95	537.169
5248.07	534.959
5278.37	532.759
5308.84	530.568
5339.49	528.388
5370.32	526.217
5401.32	524.056
5432.5	521.905
5463.87	519.764
5495.41	517.632
5527.13	515.51
5559.04	513.398
5591.14	511.295
5623.41	509.202
5655.88	507.118
5688.53	505.044
5721.37	502.98
5754.4	500.925
5787.62	498.879
5821.03	496.842
5854.64	494.816
5888.44	492.798
5922.43	490.79
5956.62	488.79
5991.01	486.801
6025.6	484.82
6060.38	482.849
6095.37	480.886
6130.56	478.933
6165.95	476.989
6201.55	475.054
6237.35	473.128
6273.36	471.211
6309.57	469.303
6346	467.404
6382.63	465.513
6419.48	463.632
6456.54	461.76
6493.82	459.896
6531.31	458.041
6569.01	456.195
6606.93	454.357
6645.08	452.528
6683.44	450.708
6722.02	448.897
6760.83	447.094
6799.86	445.3
6839.12	443.514
6878.6	441.736
6918.31	439.968
6958.25	438.207
6998.42	436.455
7038.82	434.711
7079.46	432.976
7120.33	431.249
7161.43	429.531
7202.78	427.82
7244.36	426.118
7286.18	424.424
7328.25	422.738
7370.55	421.06
7413.1	419.391
7455.9	417.729
7498.94	416.076
7542.23	414.43
7585.78	412.793
7629.57	411.163
7673.61	409.542
7717.92	407.928
7762.47	406.322
7807.28	404.724
7852.36	403.134
7897.69	401.551
7943.28	399.976
7989.14	398.409
8035.26	396.85
8081.65	395.298
8128.31	393.754
8175.23	392.218
8222.43	390.689
8269.9	389.168
8317.64	387.654
8365.66	386.148
8413.95	384.649
8462.53	383.157
8511.38	381.673
8560.52	380.196
8609.94	378.727
8659.64	377.265
8709.64	375.81
8759.92	374.362
8810.49	372.922
8861.35	371.489
8912.51	370.063
8963.96	368.644
9015.71	367.232
9067.76	365.827
9120.11	364.43
9172.76	363.039
9225.71	361.655
9278.97	360.279
9332.54	358.909
9386.42	357.546
9440.61	356.19
9495.11	354.841
9549.93	353.498
9605.06	352.163
9660.51	350.834
9716.28	349.512
9772.37	348.197
9828.79	346.888
9885.53	345.586
9942.6	344.291
10000	343.002
10057.7	341.72
10115.8	340.444
10174.2	339.175
10232.9	337.912
10292	336.656
10351.4	335.407
10411.2	334.163
10471.3	332.926
10531.7	331.696
10592.5	330.471
10653.7	329.254
10715.2	328.042
10777.1	326.836
10839.3	325.637
10901.8	324.444
10964.8	323.257
11028.1	322.077
11091.7	320.902
11155.8	319.734
11220.2	318.571
11285	317.415
11350.1	316.265
11415.6	315.12
11481.5	313.982
11547.8	312.85
11614.5	311.723
11681.5	310.603
11749	309.488
11816.8	308.379
11885	307.276
11953.6	306.179
12022.6	305.087
12092.1	304.001
12161.9	302.921
12232.1	301.847
12302.7	300.778
12373.7	299.715
12445.1	298.658
12517	297.606
12589.3	296.56
12661.9	295.519
12735	294.484
12808.6	293.454
12882.5	292.43
12956.9	291.411
13031.7	290.398
13106.9	289.39
13182.6	288.388
13258.7	287.391
13335.2	286.399
13412.2	285.412
13489.6	284.431
13567.5	283.455
13645.8	282.485
13724.6	281.519
13803.8	280.559
13883.5	279.604
13963.7	278.654
14044.3	277.709
14125.4	276.769
14206.9	275.835
14288.9	274.905
14371.4	273.981
14454.4	273.061
14537.8	272.147
14621.8	271.237
14706.2	270.333
14791.1	269.433
14876.5	268.539
14962.4	267.649
15048.7	266.764
15135.6	265.884
15223	265.009
15310.9	264.138
15399.3	263.273
15488.2	262.412
15577.6	261.556
15667.5	260.704
15758	259.857
15848.9	259.015
15940.4	258.178
16032.5	257.345
16125	256.517
16218.1	255.694
16311.7	254.875
16405.9	254.06
16500.6	253.251
16595.9	252.445
16691.7	251.644
16788	250.848
16885	250.056
16982.4	249.269
17080.5	248.486
17179.1	247.707
17278.3	246.933
17378	246.163
17478.3	245.397
17579.2	244.636
17680.7	243.879
17782.8	243.127
17885.5	242.378
17988.7	241.634
18092.6	240.894
18197	240.159
18302.1	239.427
18407.7	238.7
18514	237.977
18620.9	237.258
18728.4	236.543
18836.5	235.832
18945.2	235.125
19054.6	234.422
19164.6	233.724
19275.2	233.029
19386.5	232.339
19498.4	231.652
19611	230.969
19724.2	230.291
19838.1	229.616
19952.6	228.945
20067.8	228.278
20183.7	227.615
20300.2	226.956
20417.4	226.301
20535.3	225.649
20653.8	225.001
20773	224.357
20893	223.717
21013.6	223.081
21134.9	222.448
21256.9	221.82
21379.6	221.194
21503	220.573
21627.2	219.955
21752	219.341
21877.6	218.731
22003.9	218.124
22130.9	217.521
22258.7	216.921
22387.2	216.325
22516.5	215.733
22646.4	215.144
22777.2	214.558
22908.7	213.977
23040.9	213.398
23173.9	212.823
23307.7	212.252
23442.3	211.684
23577.6	211.12
23713.7	210.559
23850.6	210.001
23988.3	209.447
24126.8	208.896
24266.1	208.348
24406.2	207.804
24547.1	207.264
24688.8	206.726
24831.3	206.192
24974.7	205.661
25118.9	205.133
25263.9	204.609
25409.7	204.088
25556.4	203.57
25704	203.056
25852.3	202.544
26001.6	202.036
26151.7	201.531
26302.7	201.029
26454.5	200.53
26607.3	200.035
26760.9	199.542
26915.3	199.053
27070.7	198.567
27227	198.083
27384.2	197.603
27542.3	197.126
27701.3	196.652
27861.2	196.181
28022.1	195.713
28183.8	195.248
28346.5	194.786
28510.2	194.327
28674.8	193.871
28840.3	193.418
29006.8	192.968
29174.3	192.521
29342.7	192.076
29512.1	191.635
29682.5	191.196
29853.8	190.76
30026.2	190.328
30199.5	189.898
30373.9	189.47
30549.2	189.046
30725.6	188.624
30903	188.205
31081.4	187.789
31260.8	187.376
31441.3	186.966
31622.8	186.558
31805.3	186.153
31989	185.751
32173.6	185.351
32359.4	184.954
32546.2	184.56
32734.1	184.168
32923	183.779
33113.1	183.393
33304.3	183.009
33496.5	182.628
33689.9	182.25
33884.4	181.874
34080	181.501
34276.8	181.13
34474.7	180.762
34673.7	180.397
34873.9	180.034
35075.2	179.674
35277.7	179.316
35481.3	178.96
35686.2	178.607
35892.2	178.257
36099.4	177.909
36307.8	177.563
36517.4	177.22
36728.2	176.88
36940.3	176.542
37153.5	176.206
37368	175.873
37583.7	175.542
37800.7	175.213
38018.9	174.887
38238.4	174.563
38459.2	174.242
38681.2	173.923
38904.5	173.606
39129.1	173.292
39355	172.98
39582.2	172.67
39810.7	172.362
40040.5	172.057
40271.7	171.754
40504.2	171.454
40738	171.155
40973.2	170.859
41209.8	170.565
41447.7	170.273
41686.9	169.984
41927.6	169.697
42169.7	169.412
42413.1	169.129
42658	168.848
42904.2	168.569
43151.9	168.293
43401	168.019
43651.6	167.747
43903.6	167.477
44157	167.209
44412	166.943
44668.4	166.679
44926.2	166.418
45185.6	166.158
45446.5	165.901
45708.8	165.646
45972.7	165.392
46238.1	165.141
46505	164.892
46773.5	164.645
47043.5	164.399
47315.1	164.156
47588.3	163.915
47863	163.676
48139.3	163.439
48417.2	163.204
48696.8	162.97
48977.9	162.739
49260.6	162.51
49545	162.282
49831	162.057
50118.7	161.833
50408.1	161.612
50699.1	161.392
50991.8	161.174
51286.1	160.958
51582.2	160.744
51880	160.532
52179.5	160.321
52480.7	160.113
52783.7	159.906
53088.4	159.701
53394.9	159.498
53703.2	159.297
54013.2	159.096
54325	158.882
54638.7	158.669
54954.1	158.459
55271.3	158.249
55590.4	158.042
55911.4	157.837
56234.1	157.633
56558.8	157.431
56885.3	157.23
57213.7	157.031
57544	156.834
57876.2	156.639
58210.3	156.445
58546.4	156.253
58884.4	156.063
59224.3	155.874
59566.2	155.687
59910.1	155.502
60256	155.318
60603.8	155.136
60953.7	154.955
61305.6	154.777
61659.5	154.599
62015.5	154.424
62373.5	154.249
62733.6	154.077
63095.7	153.906
63460	153.736
63826.3	153.569
64194.8	153.402
64565.4	153.237
64938.2	153.074
65313.1	152.912
65690.1	152.752
66069.3	152.594
66450.8	152.436
66834.4	152.281
67220.2	152.126
67608.3	151.974
67998.6	151.822
68391.2	151.673
68786	151.524
69183.1	151.377
69582.5	151.232
69984.2	151.088
70388.2	150.945
70794.6	150.804
71203.3	150.665
71614.3	150.526
72027.8	150.389
72443.6	150.254
72861.8	150.12
73282.5	149.987
73705.5	149.855
74131	149.725
74559	149.597
74989.4	149.469
75422.3	149.343
75857.8	149.219
76295.7	149.096
76736.1	148.974
77179.2	148.853
77624.7	148.734
78072.8	148.616
78523.6	148.499
78976.9	148.383
79432.8	148.269
79891.4	148.156
80352.6	148.045
80816.5	147.934
81283.1	147.825
81752.3	147.717
82224.3	147.611
82699	147.505
83176.4	147.401
83656.6	147.298
84139.5	147.197
84625.3	147.096
85113.8	146.997
85605.2	146.899
86099.4	146.802
86596.4	146.707
87096.4	146.612
87599.2	146.519
88104.9	146.427
88613.5	146.336
89125.1	146.246
89639.6	146.157
90157.1	146.07
90677.6	145.983
91201.1	145.898
91727.6	145.814
92257.1	145.731
92789.7	145.649
93325.4	145.568
93864.2	145.489
94406.1	145.41
94951.1	145.333
95499.3	145.256
96050.6	145.181
96605.1	145.107
97162.8	145.034
97723.7	144.962
98287.9	144.891
98855.3	144.821
99426	144.752
100000	144.684
100577	144.617
101158	144.551
101742	144.486
102329	144.422
102920	144.36
103514	144.298
104112	144.237
104713	144.177
105317	144.118
105925	144.061
106537	144.004
107152	143.948
107771	143.893
108393	143.839
109018	143.786
109648	143.734
110281	143.683
110917	143.633
111558	143.583
112202	143.535
112850	143.488
113501	143.441
114156	143.396
114815	143.351
115478	143.307
116145	143.265
116815	143.223
117490	143.182
118168	143.141
118850	143.102
119536	143.064
120226	143.026
120921	142.99
121619	142.954
122321	142.919
123027	142.885
123737	142.851
124451	142.819
125170	142.787
125893	142.756
126619	142.726
127350	142.697
128086	142.669
128825	142.641
129569	142.615
130317	142.589
131069	142.564
131826	142.539
132587	142.516
133352	142.493
134122	142.471
134896	142.45
135675	142.429
136458	142.409
137246	142.39
138038	142.372
138835	142.355
139637	142.338
140443	142.322
141254	142.307
142069	142.292
142889	142.278
143714	142.265
144544	142.253
145378	142.241
146218	142.23
147062	142.22
147911	142.21
148765	142.201
149624	142.193
150487	142.185
151356	142.179
152230	142.172
153109	142.167
153993	142.162
154882	142.158
155776	142.154
156675	142.152
157580	142.149
158489	142.148
159404	142.147
160325	142.146
161250	142.147
162181	142.148
163117	142.149
164059	142.152
165006	142.154
165959	142.158
166917	142.162
167880	142.166
168850	142.172
169824	142.178
170805	142.184
171791	142.191
172783	142.199
173780	142.207
174783	142.215
175792	142.225
176807	142.235
177828	142.245
178855	142.256
179887	142.268
180926	142.28
181970	142.292
183021	142.306
184077	142.319
185140	142.334
186209	142.348
187284	142.364
188365	142.38
189452	142.396
190546	142.413
191646	142.43
192752	142.448
193865	142.467
194984	142.486
196110	142.505
197242	142.525
198381	142.546
199526	142.567
200678	142.588
201837	142.61
203002	142.632
204174	142.655
205353	142.678
206538	142.702
207730	142.726
208930	142.751
210136	142.776
211349	142.802
212569	142.828
213796	142.855
215030	142.882
216272	142.909
217520	142.937
218776	142.965
220039	142.994
221309	143.023
222587	143.053
223872	143.083
225165	143.113
226464	143.144
227772	143.175
229087	143.207
230409	143.239
231739	143.272
233077	143.304
234423	143.338
235776	143.371
237137	143.405
238506	143.44
239883	143.475
241268	143.51
242661	143.546
244062	143.582
245471	143.618
246888	143.655
248313	143.692
249747	143.729
251189	143.767
252639	143.805
254097	143.844
255564	143.883
257040	143.922
258523	143.961
260016	144.001
261517	144.042
263027	144.082
264545	144.123
266073	144.165
267609	144.206
269153	144.248
270707	144.29
272270	144.333
273842	144.376
275423	144.419
277013	144.463
278612	144.507
280221	144.551
281838	144.595
283465	144.64
285102	144.685
286748	144.731
288403	144.776
290068	144.822
291743	144.869
293427	144.915
295121	144.962
296825	145.009
298538	145.057
300262	145.104
301995	145.152
303739	145.2
305492	145.249
307256	145.298
309030	145.347
310814	145.396
312608	145.446
314413	145.496
316228	145.546
318053	145.596
319890	145.647
321736	145.698
323594	145.749
325462	145.8
327341	145.852
329230	145.904
331131	145.956
333043	146.008
334965	146.061
336899	146.114
338844	146.167
340800	146.22
342768	146.274
344747	146.327
346737	146.381
348739	146.436
350752	146.49
352777	146.545
354813	146.6
356862	146.655
358922	146.71
360994	146.765
363078	146.821
365174	146.877
367282	146.933
369403	146.989
371535	147.046
373680	147.103
375837	147.16
378007	147.217
380189	147.274
382384	147.332
384592	147.389
386812	147.447
389045	147.505
391291	147.563
393550	147.622
395822	147.68
398107	147.739
400405	147.798
402717	147.857
405042	147.917
407380	147.976
409732	148.036
412098	148.096
414477	148.156
416869	148.216
419276	148.276
421697	148.336
424131	148.397
426580	148.458
429042	148.519
431519	148.58
434010	148.641
436516	148.703
439036	148.764
441570	148.826
444120	148.888
446684	148.95
449262	149.012
451856	149.074
454465	149.137
457088	149.199
459727	149.262
462381	149.325
465050	149.388
467735	149.451
470435	149.514
473151	149.578
475883	149.641
478630	149.705
481393	149.768
484172	149.832
486968	149.896
489779	149.96
492606	150.025
495450	150.089
498310	150.154
501187	150.218
504081	150.283
506991	150.348
509918	150.413
512861	150.478
515822	150.543
518800	150.608
521795	150.674
524807	150.739
527837	150.805
530884	150.87
533949	150.936
537032	151.002
540132	151.068
543250	151.134
546387	151.201
549541	151.267
552713	151.333
555904	151.4
559114	151.466
562341	151.533
565588	151.6
568853	151.667
572137	151.734
575440	151.801
578762	151.868
582103	151.935
585464	152.002
588844	152.07
592243	152.137
595662	152.205
599101	152.272
602560	152.34
606038	152.408
609537	152.476
613056	152.544
616595	152.612
620155	152.68
623735	152.748
627336	152.816
630957	152.884
634600	152.953
638263	153.021
641948	153.09
645654	153.158
649382	153.227
653131	153.296
656901	153.364
660693	153.433
664508	153.502
668344	153.571
672202	153.64
676083	153.709
679986	153.778
683912	153.848
687860	153.917
691831	153.986
695825	154.056
699842	154.125
703882	154.195
707946	154.264
712033	154.334
716143	154.403
720278	154.473
724436	154.543
728618	154.613
732825	154.682
737055	154.752
741310	154.822
745590	154.892
749894	154.962
754223	155.032
758578	155.102
762957	155.172
767361	155.243
771792	155.313
776247	155.383
780728	155.454
785236	155.524
789769	155.594
794328	155.665
798914	155.735
803526	155.806
808165	155.876
812831	155.947
817523	156.017
822243	156.088
826990	156.159
831764	156.229
836566	156.3
841395	156.371
846253	156.442
851138	156.513
856052	156.584
860994	156.654
865964	156.725
870964	156.796
875992	156.867
881049	156.938
886135	157.009
891251	157.08
896396	157.151
901571	157.223
906776	157.294
912011	157.365
917276	157.436
922571	157.507
927897	157.578
933254	157.65
938642	157.721
944061	157.792
949511	157.863
954993	157.935
960506	158.006
966051	158.077
971628	158.149
977237	158.22
982879	158.292
988553	158.363
994260	158.434
1e+06	158.506
1.00577e+06	158.577
1.01158e+06	158.649
1.01742e+06	158.72
1.02329e+06	158.792
1.0292e+06	158.863
1.03514e+06	158.935
1.04112e+06	159.006
1.04713e+06	159.078
1.05317e+06	159.149
1.05925e+06	159.221
1.06537e+06	159.293
1.07152e+06	159.364
1.07771e+06	159.436
1.08393e+06	159.507
1.09018e+06	159.579
1.09648e+06	159.651
1.10281e+06	159.722
1.10917e+06	159.794
1.11558e+06	159.865
1.12202e+06	159.937
1.1285e+06	160.009
1.13501e+06	160.08
1.14156e+06	160.152
1.14815e+06	160.224
1.15478e+06	160.295
1.16145e+06	160.367
1.16815e+06	160.439
1.1749e+06	160.51
1.18168e+06	160.582
1.1885e+06	160.654
1.19536e+06	160.725
1.20226e+06	160.797
1.20921e+06	160.869
1.21619e+06	160.94
1.22321e+06	161.012
1.23027e+06	161.084
1.23737e+06	161.155
1.24451e+06	161.227
1.2517e+06	161.299
1.25893e+06	161.371
1.26619e+06	161.442
1.2735e+06	161.514
1.28086e+06	161.586
1.28825e+06	161.657
1.29569e+06	161.729
1.30317e+06	161.801
1.31069e+06	161.872
1.31826e+06	161.944
1.32587e+06	162.015
1.33352e+06	162.087
1.34122e+06	162.159
1.34896e+06	162.23
1.35675e+06	162.302
1.36458e+06	162.374
1.37246e+06	162.445
1.38038e+06	162.517
1.38835e+06	162.588
1.39637e+06	162.66
1.40443e+06	162.732
1.41254e+06	162.803
1.42069e+06	162.875
1.42889e+06	162.946
1.43714e+06	163.018
1.44544e+06	163.089
1.45378e+06	163.161
1.46218e+06	163.232
1.47062e+06	163.304
1.47911e+06	163.376
1.48765e+06	163.447
1.49624e+06	163.519
1.50487e+06	163.59
1.51356e+06	163.661
1.5223e+06	163.733
1.53109e+06	163.804
1.53993e+06	163.876
1.54882e+06	163.947
1.55776e+06	164.019
1.56675e+06	164.09
1.5758e+06	164.161
1.58489e+06	164.233
1.59404e+06	164.304
1.60325e+06	164.376
1.6125e+06	164.447
1.62181e+06	164.518
1.63117e+06	164.589
1.64059e+06	164.661
1.65006e+06	164.732
1.65959e+06	164.803
1.66917e+06	164.875
1.6788e+06	164.946
1.6885e+06	165.017
1.69824e+06	165.088
1.70805e+06	165.159
1.71791e+06	165.231
1.72783e+06	165.302
1.7378e+06	165.373
1.74783e+06	165.444
1.75792e+06	165.515
1.76807e+06	165.586
1.77828e+06	165.657
1.78855e+06	165.728
1.79887e+06	165.8
1.80926e+06	165.871
1.8197e+06	165.942
1.83021e+06	166.013
1.84077e+06	166.084
1.8514e+06	166.155
1.86209e+06	166.225
1.87284e+06	166.296
1.88365e+06	166.367
1.89452e+06	166.438
1.90546e+06	166.509
1.91646e+06	166.58
1.92752e+06	166.651
1.93865e+06	166.722
1.94984e+06	166.792
1.9611e+06	166.863
1.97242e+06	166.934
1.98381e+06	167.005
1.99526e+06	167.075
2.00678e+06	167.146
2.01837e+06	167.217
2.03002e+06	167.288
2.04174e+06	167.358
2.05353e+06	167.429
2.06538e+06	167.499
2.0773e+06	167.57
2.0893e+06	167.641
2.10136e+06	167.711
2.11349e+06	167.782
2.12569e+06	167.852
2.13796e+06	167.923
2.1503e+06	167.993
2.16272e+06	168.064
2.1752e+06	168.134
2.18776e+06	168.204
2.20039e+06	168.275
2.21309e+06	168.345
2.22587e+06	168.415
2.23872e+06	168.486
2.25165e+06	168.556
2.26464e+06	168.626
2.27772e+06	168.697
2.29087e+06	168.767
2.30409e+06	168.837
2.31739e+06	168.907
2.33077e+06	168.977
2.34423e+06	169.047
2.35776e+06	169.118
2.37137e+06	169.188
2.38506e+06	169.258
2.39883e+06	169.328
2.41268e+06	169.398
2.42661e+06	169.468
2.44062e+06	169.538
2.45471e+06	169.608
2.46888e+06	169.678
2.48313e+06	169.748
2.49747e+06	169.817
2.51189e+06	169.887
2.52639e+06	169.957
2.54097e+06	170.027
2.55564e+06	170.097
2.5704e+06	170.166
2.58523e+06	170.236
2.60016e+06	170.306
2.61517e+06	170.376
2.63027e+06	170.445
2.64545e+06	170.515
2.66073e+06	170.585
2.67609e+06	170.654
2.69153e+06	170.724
2.70707e+06	170.793
2.7227e+06	170.863
2.73842e+06	170.932
2.75423e+06	171.002
2.77013e+06	171.071
2.78612e+06	171.141
2.80221e+06	171.21
2.81838e+06	171.279
2.83465e+06	171.349
2.85102e+06	171.418
2.86748e+06	171.487
2.88403e+06	171.557
2.90068e+06	171.626
2.91743e+06	171.695
2.93427e+06	171.764
2.95121e+06	171.833
2.96825e+06	171.902
2.98538e+06	171.972
3.00262e+06	172.041
3.01995e+06	172.11
3.03739e+06	172.179
3.05492e+06	172.248
3.07256e+06	172.317
3.0903e+06	172.386
3.10814e+06	172.455
3.12608e+06	172.523
3.14413e+06	172.592
3.16228e+06	172.661
3.18053e+06	172.73
3.1989e+06	172.799
3.21736e+06	172.868
3.23594e+06	172.936
3.25462e+06	173.005
3.27341e+06	173.074
3.2923e+06	173.142
3.31131e+06	173.211
3.33043e+06	173.28
3.34965e+06	173.348
3.36899e+06	173.417
3.38844e+06	173.485
3.408e+06	173.554
3.42768e+06	173.622
3.44747e+06	173.691
3.46737e+06	173.759
3.48739e+06	173.827
3.50752e+06	173.896
3.52777e+06	173.964
3.54813e+06	174.032
3.56862e+06	174.101
3.58922e+06	174.169
3.60994e+06	174.237
3.63078e+06	174.305
3.65174e+06	174.374
3.67282e+06	174.442
3.69403e+06	174.51
3.71535e+06	174.578
3.7368e+06	174.646
3.75837e+06	174.714
3.78007e+06	174.782
3.80189e+06	174.85
3.82384e+06	174.918
3.84592e+06	174.986
3.86812e+06	175.054
3.89045e+06	175.121
3.91291e+06	175.189
3.9355e+06	175.257
3.95822e+06	175.325
3.98107e+06	175.393
4.00405e+06	175.46
4.02717e+06	175.528
4.05042e+06	175.596
4.0738e+06	175.663
4.09732e+06	175.731
4.12098e+06	175.799
4.14477e+06	175.866
4.16869e+06	175.934
4.19276e+06	176.001
4.21697e+06	176.069
4.24131e+06	176.136
4.2658e+06	176.203
4.29042e+06	176.271
4.31519e+06	176.338
4.3401e+06	176.405
4.36516e+06	176.473
4.39036e+06	176.54
4.4157e+06	176.607
4.4412e+06	176.674
4.46684e+06	176.742
4.49262e+06	176.809
4.51856e+06	176.876
4.54465e+06	176.943
4.57088e+06	177.01
4.59727e+06	177.077
4.62381e+06	177.144
4.6505e+06	177.211
4.67735e+06	177.278
4.70435e+06	177.345
4.73151e+06	177.412
4.75883e+06	177.479
4.7863e+06	177.545
4.81393e+06	177.612
4.84172e+06	177.679
4.86968e+06	177.746
4.89779e+06	177.812
4.92606e+06	177.879
4.9545e+06	177.946
4.9831e+06	178.012
5.01187e+06	178.079
5.04081e+06	178.145
5.06991e+06	178.212
5.09918e+06	178.278
5.12861e+06	178.345
5.15822e+06	178.411
5.188e+06	178.478
5.21795e+06	178.544
5.24807e+06	178.61
5.27837e+06	178.677
5.30884e+06	178.743
5.33949e+06	178.809
5.37032e+06	178.876
5.40132e+06	178.942
5.4325e+06	179.008
5.46387e+06	179.074
5.49541e+06	179.14
5.52713e+06	179.206
5.55904e+06	179.272
5.59114e+06	179.338
5.62341e+06	179.404
5.65588e+06	179.47
5.68853e+06	179.536
5.72137e+06	179.602
5.7544e+06	179.668
5.78762e+06	179.734
5.82103e+06	179.8
5.85464e+06	179.866
5.88844e+06	179.931
5.92243e+06	179.997
5.95662e+06	180.063
5.99101e+06	180.128
6.0256e+06	180.194
6.06038e+06	180.26
6.09537e+06	180.325
6.13056e+06	180.391
6.16595e+06	180.456
6.20155e+06	180.522
6.23735e+06	180.587
6.27336e+06	180.653
6.30957e+06	180.718
6.346e+06	180.783
6.38263e+06	180.849
6.41948e+06	180.914
6.45654e+06	180.979
6.49382e+06	181.044
6.53131e+06	181.11
6.56901e+06	181.175
6.60693e+06	181.24
6.64508e+06	181.305
6.68344e+06	181.37
6.72202e+06	181.435
6.76083e+06	181.5
6.79986e+06	181.565
6.83912e+06	181.63
6.8786e+06	181.695
6.91831e+06	181.76
6.95825e+06	181.825
6.99842e+06	181.89
7.03882e+06	181.955
7.07946e+06	182.019
7.12033e+06	182.084
7.16143e+06	182.149
7.20278e+06	182.214
7.24436e+06	182.278
7.28618e+06	182.343
7.32825e+06	182.407
7.37055e+06	182.472
7.4131e+06	182.536
7.4559e+06	182.601
7.49894e+06	182.665
7.54223e+06	182.73
7.58578e+06	182.794
7.62957e+06	182.859
7.67361e+06	182.923
7.71792e+06	182.987
7.76247e+06	183.052
7.80728e+06	183.116
7.85236e+06	183.18
7.89769e+06	183.244
7.94328e+06	183.308
7.98914e+06	183.373
8.03526e+06	183.437
8.08165e+06	183.501
8.12831e+06	183.565
8.17523e+06	183.629
8.22243e+06	183.693
8.2699e+06	183.757
8.31764e+06	183.821
8.36566e+06	183.884
8.41395e+06	183.948
8.46253e+06	184.012
8.51138e+06	184.076
8.56052e+06	184.14
8.60994e+06	184.203
8.65964e+06	184.267
8.70964e+06	184.331
8.75992e+06	184.394
8.81049e+06	184.458
8.86135e+06	184.521
8.91251e+06	184.585
8.96396e+06	184.649
9.01571e+06	184.712
9.06776e+06	184.775
9.12011e+06	184.839
9.17276e+06	184.902
9.22571e+06	184.966
9.27897e+06	185.029
9.33254e+06	185.092
9.38642e+06	185.155
9.44061e+06	185.219
9.49511e+06	185.282
9.54993e+06	185.345
9.60506e+06	185.408
9.66051e+06	185.471
9.71628e+06	185.534
9.77237e+06	185.597
9.82879e+06	185.66
9.88553e+06	185.723
9.9426e+06	185.786
1e+07	185.849
