Stopping power dEdx from Ionisation for Fe56[0.0] Z = 26 in Water, process name: ionIoni
E [MeV]	dEdx [MeV/mm]
0.001	21.6738
0.00100577	21.7366
0.00101158	21.7996
0.00101742	21.8627
0.00102329	21.9261
0.0010292	21.9896
0.00103514	22.0534
0.00104112	22.1173
0.00104713	22.1814
0.00105317	22.2456
0.00105925	22.3101
0.00106537	22.3748
0.00107152	22.4396
0.00107771	22.5046
0.00108393	22.5698
0.00109018	22.6352
0.00109648	22.7008
0.00110281	22.7666
0.00110917	22.8325
0.00111558	22.8987
0.00112202	22.965
0.0011285	23.0316
0.00113501	23.0983
0.00114156	23.1652
0.00114815	23.2323
0.00115478	23.2996
0.00116145	23.3671
0.00116815	23.4348
0.0011749	23.5027
0.00118168	23.5708
0.0011885	23.6391
0.00119536	23.7076
0.00120226	23.7763
0.00120921	23.8451
0.00121619	23.9142
0.00122321	23.9835
0.00123027	24.0529
0.00123737	24.1226
0.00124451	24.1925
0.0012517	24.2626
0.00125893	24.3328
0.00126619	24.4033
0.0012735	24.474
0.00128086	24.5449
0.00128825	24.616
0.00129569	24.6873
0.00130317	24.7588
0.00131069	24.8305
0.00131826	24.9024
0.00132587	24.9745
0.00133352	25.0468
0.00134122	25.1194
0.00134896	25.1921
0.00135675	25.2651
0.00136458	25.3382
0.00137246	25.4116
0.00138038	25.4852
0.00138835	25.559
0.00139637	25.633
0.00140443	25.7072
0.00141254	25.7817
0.00142069	25.8563
0.00142889	25.9312
0.00143714	26.0063
0.00144544	26.0816
0.00145378	26.1571
0.00146218	26.2329
0.00147062	26.3088
0.00147911	26.385
0.00148765	26.4614
0.00149624	26.538
0.00150487	26.6148
0.00151356	26.6919
0.0015223	26.7692
0.00153109	26.8467
0.00153993	26.9244
0.00154882	27.0023
0.00155776	27.0805
0.00156675	27.1589
0.0015758	27.2375
0.00158489	27.3164
0.00159404	27.3955
0.00160325	27.4748
0.0016125	27.5543
0.00162181	27.6341
0.00163117	27.7141
0.00164059	27.7943
0.00165006	27.8747
0.00165959	27.9554
0.00166917	28.0363
0.0016788	28.1175
0.0016885	28.1989
0.00169824	28.2805
0.00170805	28.3624
0.00171791	28.4445
0.00172783	28.5268
0.0017378	28.6094
0.00174783	28.6922
0.00175792	28.7752
0.00176807	28.8585
0.00177828	28.942
0.00178855	29.0258
0.00179887	29.1098
0.00180926	29.194
0.0018197	29.2785
0.00183021	29.3633
0.00184077	29.4482
0.0018514	29.5335
0.00186209	29.6189
0.00187284	29.7046
0.00188365	29.7906
0.00189452	29.8768
0.00190546	29.9633
0.00191646	30.05
0.00192752	30.1369
0.00193865	30.2241
0.00194984	30.3116
0.0019611	30.3993
0.00197242	30.4873
0.00198381	30.5755
0.00199526	30.664
0.00200678	30.7527
0.00201837	30.8417
0.00203002	30.9309
0.00204174	31.0204
0.00205353	31.1102
0.00206538	31.2002
0.0020773	31.2905
0.0020893	31.381
0.00210136	31.4718
0.00211349	31.5628
0.00212569	31.6542
0.00213796	31.7457
0.0021503	31.8376
0.00216272	31.9297
0.0021752	32.0221
0.00218776	32.1147
0.00220039	32.2076
0.00221309	32.3008
0.00222587	32.3942
0.00223872	32.488
0.00225165	32.5819
0.00226464	32.6762
0.00227772	32.7707
0.00229087	32.8655
0.00230409	32.9606
0.00231739	33.0559
0.00233077	33.1516
0.00234423	33.2475
0.00235776	33.3436
0.00237137	33.4401
0.00238506	33.5368
0.00239883	33.6338
0.00241268	33.7311
0.00242661	33.8287
0.00244062	33.9265
0.00245471	34.0247
0.00246888	34.1231
0.00248313	34.2218
0.00249747	34.3208
0.00251189	34.42
0.00252639	34.5196
0.00254097	34.6194
0.00255564	34.7196
0.0025704	34.82
0.00258523	34.9207
0.00260016	35.0217
0.00261517	35.123
0.00263027	35.2245
0.00264545	35.3264
0.00266073	35.4286
0.00267609	35.531
0.00269153	35.6338
0.00270707	35.7368
0.0027227	35.8402
0.00273842	35.9438
0.00275423	36.0478
0.00277013	36.152
0.00278612	36.2566
0.00280221	36.3614
0.00281838	36.4666
0.00283465	36.572
0.00285102	36.6778
0.00286748	36.7838
0.00288403	36.8902
0.00290068	36.9969
0.00291743	37.1039
0.00293427	37.2112
0.00295121	37.3188
0.00296825	37.4267
0.00298538	37.5349
0.00300262	37.6434
0.00301995	37.7523
0.00303739	37.8614
0.00305492	37.9709
0.00307256	38.0807
0.0030903	38.1908
0.00310814	38.3012
0.00312608	38.412
0.00314413	38.523
0.00316228	38.6344
0.00318053	38.7461
0.0031989	38.8581
0.00321736	38.9705
0.00323594	39.0831
0.00325462	39.1961
0.00327341	39.3094
0.0032923	39.4231
0.00331131	39.5371
0.00333043	39.6514
0.00334965	39.766
0.00336899	39.881
0.00338844	39.9963
0.003408	40.1119
0.00342768	40.2278
0.00344747	40.3441
0.00346737	40.4608
0.00348739	40.5777
0.00350752	40.695
0.00352777	40.8127
0.00354813	40.9307
0.00356862	41.049
0.00358922	41.1676
0.00360994	41.2866
0.00363078	41.406
0.00365174	41.5257
0.00367282	41.6457
0.00369403	41.7661
0.00371535	41.8868
0.0037368	42.0079
0.00375837	42.1293
0.00378007	42.2511
0.00380189	42.3732
0.00382384	42.4957
0.00384592	42.6185
0.00386812	42.7417
0.00389045	42.8653
0.00391291	42.9892
0.0039355	43.1134
0.00395822	43.238
0.00398107	43.363
0.00400405	43.4883
0.00402717	43.614
0.00405042	43.7401
0.0040738	43.8665
0.00409732	43.9933
0.00412098	44.1204
0.00414477	44.2479
0.00416869	44.3758
0.00419276	44.5041
0.00421697	44.6327
0.00424131	44.7617
0.0042658	44.891
0.00429042	45.0208
0.00431519	45.1509
0.0043401	45.2814
0.00436516	45.4122
0.00439036	45.5435
0.0044157	45.6751
0.0044412	45.8071
0.00446684	45.9394
0.00449262	46.0722
0.00451856	46.2053
0.00454465	46.3389
0.00457088	46.4728
0.00459727	46.6071
0.00462381	46.7417
0.0046505	46.8768
0.00467735	47.0123
0.00470435	47.1481
0.00473151	47.2844
0.00475883	47.5397
0.0047863	47.6768
0.00481393	47.8142
0.00484172	47.952
0.00486968	48.0902
0.00489779	48.2288
0.00492606	48.3678
0.0049545	48.5073
0.0049831	48.6471
0.00501187	48.7873
0.00504081	48.9279
0.00506991	49.0689
0.00509918	49.2104
0.00512861	49.3522
0.00515822	49.4945
0.005188	49.6371
0.00521795	49.7802
0.00524807	49.9237
0.00527837	50.0676
0.00530884	50.2119
0.00533949	50.3566
0.00537032	50.5018
0.00540132	50.6473
0.0054325	50.7933
0.00546387	50.9397
0.00549541	51.0866
0.00552713	51.2338
0.00555904	51.3815
0.00559114	51.5296
0.00562341	51.6781
0.00565588	51.8271
0.00568853	51.9765
0.00572137	52.1263
0.0057544	52.2765
0.00578762	52.4272
0.00582103	52.5783
0.00585464	52.7299
0.00588844	52.8819
0.00592243	53.0343
0.00595662	53.1871
0.00599101	53.3405
0.0060256	53.4942
0.00606038	53.6484
0.00609537	53.803
0.00613056	53.9581
0.00616595	54.1136
0.00620155	54.2696
0.00623735	54.426
0.00627336	54.5829
0.00630957	54.7402
0.006346	54.898
0.00638263	55.0563
0.00641948	55.215
0.00645654	55.3741
0.00649382	55.5337
0.00653131	55.6938
0.00656901	55.8543
0.00660693	56.0153
0.00664508	56.1768
0.00668344	56.3387
0.00672202	56.5011
0.00676083	56.6639
0.00679986	56.8273
0.00683912	56.9911
0.0068786	57.1553
0.00691831	57.3201
0.00695825	57.4853
0.00699842	57.651
0.00703882	57.8172
0.00707946	57.9838
0.00712033	58.1509
0.00716143	58.3185
0.00720278	58.4866
0.00724436	58.6552
0.00728618	58.8243
0.00732825	58.9938
0.00737055	59.1639
0.0074131	59.3344
0.0074559	59.5054
0.00749894	59.677
0.00754223	59.849
0.00758578	60.0215
0.00762957	60.1945
0.00767361	60.368
0.00771792	60.542
0.00776247	60.7165
0.00780728	60.8915
0.00785236	61.067
0.00789769	61.243
0.00794328	61.4196
0.00798914	61.5966
0.00803526	61.7741
0.00808165	61.9522
0.00812831	62.1308
0.00817523	62.3098
0.00822243	62.4895
0.0082699	62.6696
0.00831764	62.8502
0.00836566	63.0314
0.00841395	63.213
0.00846253	63.3952
0.00851138	63.578
0.00856052	63.7612
0.00860994	63.945
0.00865964	64.1293
0.00870964	64.3142
0.00875992	64.4996
0.00881049	64.6855
0.00886135	64.8719
0.00891251	65.0589
0.00896396	65.2464
0.00901571	65.4345
0.00906776	65.6231
0.00912011	65.8122
0.00917276	66.0019
0.00922571	66.1922
0.00927897	66.383
0.00933254	66.5743
0.00938642	66.7662
0.00944061	66.9587
0.00949511	67.1517
0.00954993	67.3452
0.00960506	67.5393
0.00966051	67.734
0.00971628	67.9292
0.00977237	68.125
0.00982879	68.3214
0.00988553	68.5183
0.0099426	68.7158
0.01	68.9139
0.0100577	69.1125
0.0101158	69.3117
0.0101742	69.5115
0.0102329	69.7119
0.010292	69.9128
0.0103514	70.1143
0.0104112	70.3164
0.0104713	70.5191
0.0105317	70.7224
0.0105925	70.9262
0.0106537	71.1306
0.0107152	71.3357
0.0107771	71.5413
0.0108393	71.7475
0.0109018	71.9543
0.0109648	72.1617
0.0110281	72.3697
0.0110917	72.5783
0.0111558	72.7875
0.0112202	72.9973
0.011285	73.2077
0.0113501	73.4187
0.0114156	73.6303
0.0114815	73.8426
0.0115478	74.0554
0.0116145	74.2689
0.0116815	74.4829
0.011749	74.6976
0.0118168	74.9129
0.011885	75.1288
0.0119536	75.3454
0.0120226	75.5626
0.0120921	75.7804
0.0121619	75.9988
0.0122321	76.2179
0.0123027	76.4375
0.0123737	76.6579
0.0124451	76.8788
0.012517	77.1004
0.0125893	77.3226
0.0126619	77.5455
0.012735	77.769
0.0128086	77.9932
0.0128825	78.218
0.0129569	78.4435
0.0130317	78.6696
0.0131069	78.8963
0.0131826	79.1237
0.0132587	79.3518
0.0133352	79.5805
0.0134122	79.8099
0.0134896	80.0399
0.0135675	80.2706
0.0136458	80.502
0.0137246	80.734
0.0138038	80.9667
0.0138835	81.2001
0.0139637	81.4342
0.0140443	81.6689
0.0141254	81.9043
0.0142069	82.1404
0.0142889	82.3771
0.0143714	82.6146
0.0144544	82.8527
0.0145378	83.0915
0.0146218	83.331
0.0147062	83.5712
0.0147911	83.8121
0.0148765	84.0537
0.0149624	84.2959
0.0150487	84.5389
0.0151356	84.7826
0.015223	85.027
0.0153109	85.2721
0.0153993	85.5178
0.0154882	85.7643
0.0155776	86.0115
0.0156675	86.2595
0.015758	86.5081
0.0158489	86.7574
0.0159404	87.0075
0.0160325	87.2583
0.016125	87.5098
0.0162181	87.762
0.0163117	88.015
0.0164059	88.2687
0.0165006	88.5231
0.0165959	88.7783
0.0166917	89.0342
0.016788	89.2908
0.016885	89.5482
0.0169824	89.8063
0.0170805	90.0651
0.0171791	90.3247
0.0172783	90.5851
0.017378	90.8462
0.0174783	91.108
0.0175792	91.3706
0.0176807	91.634
0.0177828	91.8981
0.0178855	92.163
0.0179887	92.4287
0.0180926	92.6951
0.018197	92.9623
0.0183021	93.2302
0.0184077	93.4989
0.018514	93.7684
0.0186209	94.0387
0.0187284	94.3098
0.0188365	94.5816
0.0189452	94.8542
0.0190546	95.1276
0.0191646	95.4018
0.0192752	95.6768
0.0193865	95.9526
0.0194984	96.2292
0.019611	96.5065
0.0197242	96.7847
0.0198381	97.0637
0.0199526	97.3434
0.0200678	97.624
0.0201837	97.9054
0.0203002	98.1876
0.0204174	98.4706
0.0205353	98.7545
0.0206538	99.0391
0.020773	99.3246
0.020893	99.6109
0.0210136	99.898
0.0211349	100.186
0.0212569	100.475
0.0213796	100.764
0.021503	101.055
0.0216272	101.346
0.021752	101.638
0.0218776	101.931
0.0220039	102.225
0.0221309	102.52
0.0222587	102.815
0.0223872	103.111
0.0225165	103.409
0.0226464	103.707
0.0227772	104.006
0.0229087	104.305
0.0230409	104.606
0.0231739	104.908
0.0233077	105.21
0.0234423	105.513
0.0235776	105.817
0.0237137	106.122
0.0238506	106.428
0.0239883	106.735
0.0241268	107.043
0.0242661	107.351
0.0244062	107.661
0.0245471	107.971
0.0246888	108.282
0.0248313	108.594
0.0249747	108.907
0.0251189	109.221
0.0252639	109.536
0.0254097	109.852
0.0255564	110.168
0.025704	110.486
0.0258523	110.804
0.0260016	111.124
0.0261517	111.444
0.0263027	111.765
0.0264545	112.087
0.0266073	112.41
0.0267609	112.734
0.0269153	113.059
0.0270707	113.385
0.027227	113.712
0.0273842	114.04
0.0275423	114.369
0.0277013	114.698
0.0278612	115.029
0.0280221	115.36
0.0281838	115.693
0.0283465	116.026
0.0285102	116.361
0.0286748	116.696
0.0288403	117.033
0.0290068	117.37
0.0291743	117.708
0.0293427	118.047
0.0295121	118.388
0.0296825	118.729
0.0298538	119.071
0.0300262	119.414
0.0301995	119.759
0.0303739	120.104
0.0305492	120.45
0.0307256	120.797
0.030903	121.145
0.0310814	121.495
0.0312608	121.845
0.0314413	122.196
0.0316228	122.548
0.0318053	122.901
0.031989	123.256
0.0321736	123.611
0.0323594	123.967
0.0325462	124.324
0.0327341	124.683
0.032923	125.042
0.0331131	125.403
0.0333043	125.764
0.0334965	126.127
0.0336899	126.49
0.0338844	126.855
0.03408	127.22
0.0342768	127.587
0.0344747	127.955
0.0346737	128.324
0.0348739	128.694
0.0350752	129.064
0.0352777	129.436
0.0354813	129.81
0.0356862	130.184
0.0358922	130.559
0.0360994	130.935
0.0363078	131.313
0.0365174	131.691
0.0367282	132.071
0.0369403	132.451
0.0371535	132.833
0.037368	133.216
0.0375837	133.6
0.0378007	133.985
0.0380189	134.371
0.0382384	134.759
0.0384592	135.147
0.0386812	135.537
0.0389045	135.927
0.0391291	136.319
0.039355	136.712
0.0395822	137.106
0.0398107	137.501
0.0400405	137.898
0.0402717	138.295
0.0405042	138.694
0.040738	139.093
0.0409732	139.494
0.0412098	139.896
0.0414477	140.3
0.0416869	140.704
0.0419276	141.11
0.0421697	141.516
0.0424131	141.924
0.042658	142.333
0.0429042	142.744
0.0431519	143.155
0.043401	143.568
0.0436516	143.982
0.0439036	144.397
0.044157	144.813
0.044412	145.23
0.0446684	145.649
0.0449262	146.069
0.0451856	146.49
0.0454465	146.912
0.0457088	147.335
0.0459727	147.76
0.0462381	148.186
0.046505	148.613
0.0467735	149.041
0.0470435	149.471
0.0473151	149.902
0.0475883	150.334
0.047863	150.767
0.0481393	151.202
0.0484172	151.638
0.0486968	152.075
0.0489779	152.513
0.0492606	152.953
0.049545	153.393
0.049831	153.836
0.0501187	154.279
0.0504081	154.724
0.0506991	155.17
0.0509918	155.617
0.0512861	156.065
0.0515822	156.515
0.05188	156.966
0.0521795	157.419
0.0524807	157.873
0.0527837	158.328
0.0530884	158.784
0.0533949	159.242
0.0537032	159.701
0.0540132	160.161
0.054325	160.623
0.0546387	161.086
0.0549541	161.55
0.0552713	162.016
0.0555904	162.483
0.0559114	162.951
0.0562341	163.421
0.0565588	163.892
0.0568853	164.364
0.0572137	164.838
0.057544	165.313
0.0578762	165.789
0.0582103	166.267
0.0585464	166.746
0.0588844	167.227
0.0592243	167.709
0.0595662	168.193
0.0599101	168.677
0.060256	169.164
0.0606038	169.651
0.0609537	170.14
0.0613056	170.631
0.0616595	171.122
0.0620155	171.616
0.0623735	172.11
0.0627336	172.606
0.0630957	173.104
0.06346	173.603
0.0638263	174.103
0.0641948	174.605
0.0645654	175.108
0.0649382	175.613
0.0653131	176.119
0.0656901	176.627
0.0660693	177.136
0.0664508	177.647
0.0668344	178.159
0.0672202	178.672
0.0676083	179.187
0.0679986	179.704
0.0683912	180.222
0.068786	180.741
0.0691831	181.262
0.0695825	181.784
0.0699842	182.308
0.0703882	182.834
0.0707946	183.361
0.0712033	183.889
0.0716143	184.419
0.0720278	184.951
0.0724436	185.484
0.0728618	186.019
0.0732825	186.555
0.0737055	187.093
0.074131	187.632
0.074559	188.173
0.0749894	188.715
0.0754223	189.259
0.0758578	189.805
0.0762957	190.352
0.0767361	190.9
0.0771792	191.451
0.0776247	192.002
0.0780728	192.556
0.0785236	193.111
0.0789769	193.667
0.0794328	194.226
0.0798914	194.786
0.0803526	195.347
0.0808165	195.91
0.0812831	196.475
0.0817523	197.041
0.0822243	197.609
0.082699	198.179
0.0831764	198.75
0.0836566	199.323
0.0841395	199.897
0.0846253	200.473
0.0851138	201.051
0.0856052	201.631
0.0860994	202.212
0.0865964	202.795
0.0870964	203.379
0.0875992	203.965
0.0881049	204.553
0.0886135	205.143
0.0891251	205.734
0.0896396	206.327
0.0901571	206.922
0.0906776	207.518
0.0912011	208.117
0.0917276	208.716
0.0922571	209.318
0.0927897	209.921
0.0933254	210.526
0.0938642	211.133
0.0944061	211.742
0.0949511	212.352
0.0954993	212.964
0.0960506	213.578
0.0966051	214.194
0.0971628	214.811
0.0977237	215.43
0.0982879	216.051
0.0988553	216.674
0.099426	217.298
0.1	217.925
0.100577	218.553
0.101158	219.183
0.101742	219.815
0.102329	220.448
0.10292	221.084
0.103514	221.721
0.104112	222.36
0.104713	223.001
0.105317	223.644
0.105925	224.288
0.106537	224.935
0.107152	225.583
0.107771	226.233
0.108393	226.885
0.109018	227.539
0.109648	228.195
0.110281	228.853
0.110917	229.513
0.111558	230.174
0.112202	230.838
0.11285	231.503
0.113501	232.17
0.114156	232.84
0.114815	233.511
0.115478	234.184
0.116145	234.859
0.116815	235.536
0.11749	236.215
0.118168	236.895
0.11885	237.578
0.119536	238.263
0.120226	238.95
0.120921	239.639
0.121619	240.329
0.122321	241.022
0.123027	241.717
0.123737	242.413
0.124451	243.112
0.12517	243.813
0.125893	244.516
0.126619	245.22
0.12735	245.927
0.128086	246.636
0.128825	247.347
0.129569	248.06
0.130317	248.775
0.131069	249.492
0.131826	250.211
0.132587	250.932
0.133352	251.656
0.134122	252.381
0.134896	253.108
0.135675	253.838
0.136458	254.57
0.137246	255.303
0.138038	256.039
0.138835	256.777
0.139637	257.517
0.140443	258.26
0.141254	259.004
0.142069	259.751
0.142889	260.499
0.143714	261.25
0.144544	262.003
0.145378	262.758
0.146218	263.516
0.147062	264.275
0.147911	265.037
0.148765	265.801
0.149624	266.567
0.150487	267.336
0.151356	268.106
0.15223	268.879
0.153109	269.654
0.153993	270.431
0.154882	271.211
0.155776	271.992
0.156675	272.776
0.15758	273.563
0.158489	274.351
0.159404	275.142
0.160325	275.935
0.16125	276.73
0.162181	277.528
0.163117	278.328
0.164059	279.13
0.165006	279.935
0.165959	280.742
0.166917	281.551
0.16788	282.362
0.16885	283.176
0.169824	283.992
0.170805	284.811
0.171791	285.632
0.172783	286.455
0.17378	287.281
0.174783	288.109
0.175792	288.939
0.176807	289.772
0.177828	290.607
0.178855	291.445
0.179887	292.285
0.180926	293.128
0.18197	293.972
0.183021	294.82
0.184077	295.67
0.18514	296.522
0.186209	297.377
0.187284	298.234
0.188365	299.093
0.189452	299.955
0.190546	300.82
0.191646	301.687
0.192752	302.557
0.193865	303.429
0.194984	304.303
0.19611	305.18
0.197242	306.06
0.198381	306.942
0.199526	307.827
0.200678	308.714
0.201837	309.604
0.203002	310.496
0.204174	311.391
0.205353	312.289
0.206538	313.189
0.20773	314.092
0.20893	314.997
0.210136	315.905
0.211349	316.816
0.212569	317.729
0.213796	318.645
0.21503	319.563
0.216272	320.484
0.21752	321.408
0.218776	322.334
0.220039	323.264
0.221309	324.195
0.222587	325.13
0.223872	326.067
0.225165	327.007
0.226464	327.949
0.227772	328.895
0.229087	329.843
0.230409	330.793
0.231739	331.747
0.233077	332.703
0.234423	333.662
0.235776	334.624
0.237137	335.588
0.238506	336.556
0.239883	337.526
0.241268	338.498
0.242661	339.474
0.244062	340.453
0.245471	341.434
0.246888	342.418
0.248313	343.405
0.249747	344.395
0.251189	345.388
0.252639	346.383
0.254097	347.382
0.255564	348.383
0.25704	349.387
0.258523	350.394
0.260016	351.404
0.261517	352.417
0.263027	353.433
0.264545	354.451
0.266073	355.473
0.267609	356.498
0.269153	357.525
0.270707	358.556
0.27227	359.589
0.273842	360.626
0.275423	361.665
0.277013	362.708
0.278612	363.753
0.280221	364.802
0.281838	365.853
0.283465	366.908
0.285102	367.965
0.286748	369.026
0.288403	370.089
0.290068	371.156
0.291743	372.226
0.293427	373.299
0.295121	374.375
0.296825	375.454
0.298538	376.536
0.300262	377.621
0.301995	378.71
0.303739	379.802
0.305492	380.896
0.307256	381.994
0.30903	383.095
0.310814	384.199
0.312608	385.307
0.314413	386.417
0.316228	387.531
0.318053	388.648
0.31989	389.768
0.321736	390.892
0.323594	392.019
0.325462	393.149
0.327341	394.282
0.32923	395.418
0.331131	396.558
0.333043	397.701
0.334965	398.847
0.336899	399.997
0.338844	401.15
0.3408	402.306
0.342768	403.466
0.344747	404.629
0.346737	405.795
0.348739	406.965
0.350752	408.138
0.352777	409.314
0.354813	410.494
0.356862	411.677
0.358922	412.864
0.360994	414.054
0.363078	415.247
0.365174	416.444
0.367282	417.644
0.369403	418.848
0.371535	420.056
0.37368	421.266
0.375837	422.481
0.378007	423.698
0.380189	424.92
0.382384	426.144
0.384592	427.373
0.386812	428.604
0.389045	429.84
0.391291	431.079
0.39355	432.321
0.395822	433.567
0.398107	434.817
0.400405	436.07
0.402717	437.327
0.405042	438.588
0.40738	439.852
0.409732	441.12
0.412098	442.391
0.414477	443.667
0.416869	444.945
0.419276	446.228
0.421697	447.514
0.424131	448.804
0.42658	450.098
0.429042	451.395
0.431519	452.696
0.43401	454.001
0.436516	455.309
0.439036	456.622
0.44157	457.938
0.44412	459.258
0.446684	460.582
0.449262	461.909
0.451856	463.241
0.454465	464.576
0.457088	465.915
0.459727	467.258
0.462381	468.605
0.46505	469.955
0.467735	471.31
0.470435	472.669
0.473151	474.031
0.475883	475.397
0.47863	476.768
0.481393	478.142
0.484172	479.52
0.486968	480.902
0.489779	482.288
0.492606	483.678
0.49545	485.073
0.49831	486.471
0.501187	487.873
0.504081	489.279
0.506991	490.689
0.509918	492.104
0.512861	493.522
0.515822	494.945
0.5188	496.371
0.521795	497.802
0.524807	499.237
0.527837	500.676
0.530884	502.119
0.533949	503.566
0.537032	505.018
0.540132	506.473
0.54325	507.933
0.546387	509.397
0.549541	510.866
0.552713	512.338
0.555904	513.815
0.559114	515.296
0.562341	516.781
0.565588	518.271
0.568853	519.765
0.572137	521.263
0.57544	522.765
0.578762	524.272
0.582103	525.783
0.585464	527.299
0.588844	528.819
0.592243	530.343
0.595662	531.871
0.599101	533.405
0.60256	534.942
0.606038	536.484
0.609537	538.03
0.613056	539.581
0.616595	541.136
0.620155	542.696
0.623735	544.26
0.627336	545.829
0.630957	547.402
0.6346	548.98
0.638263	550.563
0.641948	552.15
0.645654	553.741
0.649382	555.337
0.653131	556.938
0.656901	558.543
0.660693	560.153
0.664508	561.768
0.668344	563.387
0.672202	565.011
0.676083	566.639
0.679986	568.273
0.683912	569.911
0.68786	571.553
0.691831	573.201
0.695825	574.853
0.699842	576.51
0.703882	578.172
0.707946	579.838
0.712033	581.509
0.716143	583.185
0.720278	584.866
0.724436	586.552
0.728618	588.243
0.732825	589.938
0.737055	591.639
0.74131	593.344
0.74559	595.054
0.749894	596.77
0.754223	598.49
0.758578	600.215
0.762957	601.945
0.767361	603.68
0.771792	605.42
0.776247	607.165
0.780728	608.915
0.785236	610.67
0.789769	612.43
0.794328	614.196
0.798914	615.966
0.803526	617.741
0.808165	619.522
0.812831	621.308
0.817523	623.098
0.822243	624.895
0.82699	626.696
0.831764	628.502
0.836566	630.314
0.841395	632.13
0.846253	633.952
0.851138	635.78
0.856052	637.612
0.860994	639.45
0.865964	641.293
0.870964	643.142
0.875992	644.996
0.881049	646.855
0.886135	648.719
0.891251	650.589
0.896396	652.464
0.901571	654.345
0.906776	656.231
0.912011	658.122
0.917276	660.019
0.922571	661.922
0.927897	663.83
0.933254	665.743
0.938642	667.662
0.944061	669.587
0.949511	671.517
0.954993	673.452
0.960506	675.393
0.966051	677.34
0.971628	679.292
0.977237	681.25
0.982879	683.214
0.988553	685.183
0.99426	687.158
1	689.139
1.00577	691.125
1.01158	693.117
1.01742	695.115
1.02329	697.119
1.0292	699.128
1.03514	701.143
1.04112	703.164
1.04713	705.191
1.05317	707.224
1.05925	709.262
1.06537	711.306
1.07152	713.357
1.07771	715.413
1.08393	717.475
1.09018	719.543
1.09648	721.617
1.10281	723.697
1.10917	725.783
1.11558	727.875
1.12202	729.973
1.1285	732.077
1.13501	734.187
1.14156	736.303
1.14815	738.426
1.15478	740.554
1.16145	742.689
1.16815	744.829
1.1749	746.976
1.18168	749.129
1.1885	751.288
1.19536	753.454
1.20226	755.626
1.20921	757.804
1.21619	759.988
1.22321	762.179
1.23027	764.375
1.23737	766.579
1.24451	768.788
1.2517	771.004
1.25893	773.226
1.26619	775.455
1.2735	777.69
1.28086	779.932
1.28825	782.18
1.29569	784.435
1.30317	786.696
1.31069	788.963
1.31826	791.237
1.32587	793.518
1.33352	795.805
1.34122	798.099
1.34896	800.399
1.35675	802.706
1.36458	805.02
1.37246	807.34
1.38038	809.667
1.38835	812.001
1.39637	814.342
1.40443	816.826
1.41254	819.436
1.42069	822.06
1.42889	824.697
1.43714	827.349
1.44544	830.014
1.45378	832.694
1.46218	835.387
1.47062	838.095
1.47911	840.817
1.48765	843.553
1.49624	846.303
1.50487	849.068
1.51356	851.847
1.5223	854.64
1.53109	857.448
1.53993	860.271
1.54882	863.107
1.55776	865.959
1.56675	868.824
1.5758	871.705
1.58489	874.6
1.59404	877.51
1.60325	880.435
1.6125	883.374
1.62181	886.328
1.63117	889.297
1.64059	892.281
1.65006	895.279
1.65959	898.293
1.66917	901.321
1.6788	904.365
1.6885	907.313
1.69824	910.26
1.70805	913.222
1.71791	916.197
1.72783	919.187
1.7378	922.192
1.74783	925.211
1.75792	928.244
1.76807	931.291
1.77828	934.353
1.78855	937.43
1.79887	940.52
1.80926	943.626
1.8197	946.745
1.83021	949.88
1.84077	953.028
1.8514	956.191
1.86209	959.369
1.87284	962.56
1.88365	965.767
1.89452	968.987
1.90546	972.222
1.91646	975.472
1.92752	978.736
1.93865	982.014
1.94984	985.307
1.9611	988.614
1.97242	991.935
1.98381	995.27
1.99526	998.62
2.00678	1001.98
2.01837	1005.36
2.03002	1008.75
2.04174	1012.16
2.05353	1015.58
2.06538	1019.02
2.0773	1022.47
2.0893	1025.93
2.10136	1029.4
2.11349	1032.9
2.12569	1036.4
2.13796	1039.92
2.1503	1043.45
2.16272	1046.99
2.1752	1050.55
2.18776	1054.13
2.20039	1057.71
2.21309	1061.31
2.22587	1064.92
2.23872	1068.55
2.25165	1072.16
2.26464	1075.77
2.27772	1079.41
2.29087	1083.05
2.30409	1086.71
2.31739	1090.38
2.33077	1094.06
2.34423	1097.76
2.35776	1101.47
2.37137	1105.19
2.38506	1108.93
2.39883	1112.68
2.41268	1116.44
2.42661	1120.22
2.44062	1124.01
2.45471	1127.81
2.46888	1131.63
2.48313	1135.46
2.49747	1139.31
2.51189	1143.17
2.52639	1147.04
2.54097	1150.93
2.55564	1154.83
2.5704	1158.75
2.58523	1162.68
2.60016	1166.62
2.61517	1170.58
2.63027	1174.55
2.64545	1178.54
2.66073	1182.55
2.67609	1186.56
2.69153	1190.6
2.70707	1194.64
2.7227	1198.71
2.73842	1202.79
2.75423	1206.88
2.77013	1210.99
2.78612	1215.11
2.80221	1219.25
2.81838	1223.41
2.83465	1227.58
2.85102	1231.76
2.86748	1235.97
2.88403	1240.19
2.90068	1244.42
2.91743	1248.67
2.93427	1252.94
2.95121	1257.22
2.96825	1261.52
2.98538	1265.83
3.00262	1270.17
3.01995	1274.51
3.03739	1278.88
3.05492	1283.26
3.07256	1287.66
3.0903	1292.08
3.10814	1296.51
3.12608	1300.96
3.14413	1305.42
3.16228	1309.91
3.18053	1314.41
3.1989	1318.93
3.21736	1323.47
3.23594	1328.02
3.25462	1332.59
3.27341	1337.18
3.2923	1341.79
3.31131	1346.41
3.33043	1351.06
3.34965	1355.72
3.36899	1360.4
3.38844	1365.1
3.408	1369.81
3.42768	1374.55
3.44747	1379.3
3.46737	1384.08
3.48739	1388.87
3.50752	1393.68
3.52777	1398.51
3.54813	1403.36
3.56862	1408.23
3.58922	1413.12
3.60994	1418.02
3.63078	1422.95
3.65174	1427.9
3.67282	1432.86
3.69403	1437.85
3.71535	1442.86
3.7368	1447.88
3.75837	1452.93
3.78007	1458
3.80189	1463.08
3.82384	1468.19
3.84592	1473.32
3.86812	1478.47
3.89045	1483.64
3.91291	1488.83
3.9355	1494.04
3.95822	1499.28
3.98107	1504.53
4.00405	1509.81
4.02717	1515.11
4.05042	1520.43
4.0738	1525.77
4.09732	1531.13
4.12098	1536.52
4.14477	1541.92
4.16869	1547.35
4.19276	1552.8
4.21697	1558.28
4.24131	1563.77
4.2658	1569.29
4.29042	1574.83
4.31519	1580.39
4.3401	1585.97
4.36516	1591.58
4.39036	1597.21
4.4157	1602.86
4.4412	1608.54
4.46684	1614.24
4.49262	1619.96
4.51856	1625.7
4.54465	1631.47
4.57088	1637.26
4.59727	1643.07
4.62381	1648.91
4.6505	1654.77
4.67735	1660.65
4.70435	1666.56
4.73151	1672.49
4.75883	1678.44
4.7863	1684.41
4.81393	1690.41
4.84172	1696.43
4.86968	1702.48
4.89779	1708.55
4.92606	1714.64
4.9545	1720.75
4.9831	1726.89
5.01187	1733.05
5.04081	1739.23
5.06991	1745.44
5.09918	1751.67
5.12861	1757.93
5.15822	1764.2
5.188	1770.5
5.21795	1776.83
5.24807	1783.17
5.27837	1789.54
5.30884	1795.94
5.33949	1802.35
5.37032	1808.79
5.40132	1815.25
5.4325	1821.74
5.46387	1828.25
5.49541	1834.78
5.52713	1841.34
5.55904	1847.91
5.59114	1854.52
5.62341	1861.14
5.65588	1867.79
5.68853	1874.47
5.72137	1881.16
5.7544	1887.88
5.78762	1894.63
5.82103	1901.39
5.85464	1908.18
5.88844	1915
5.92243	1921.83
5.95662	1928.69
5.99101	1935.57
6.0256	1942.48
6.06038	1949.4
6.09537	1956.36
6.13056	1963.33
6.16595	1970.33
6.20155	1977.34
6.23735	1984.39
6.27336	1991.45
6.30957	1998.54
6.346	2005.65
6.38263	2012.78
6.41948	2019.94
6.45654	2027.12
6.49382	2034.32
6.53131	2041.54
6.56901	2048.79
6.60693	2056.06
6.64508	2063.35
6.68344	2070.66
6.72202	2078
6.76083	2085.36
6.79986	2092.74
6.83912	2100.14
6.8786	2107.57
6.91831	2115.01
6.95825	2122.48
6.99842	2129.97
7.03882	2137.49
7.07946	2145.02
7.12033	2152.58
7.16143	2160.16
7.20278	2167.76
7.24436	2175.38
7.28618	2183.02
7.32825	2190.68
7.37055	2198.37
7.4131	2206.08
7.4559	2213.81
7.49894	2221.56
7.54223	2229.33
7.58578	2237.12
7.62957	2244.93
7.67361	2252.77
7.71792	2260.62
7.76247	2268.5
7.80728	2276.39
7.85236	2284.31
7.89769	2292.25
7.94328	2300.2
7.98914	2308.18
8.03526	2316.18
8.08165	2324.2
8.12831	2332.24
8.17523	2340.3
8.22243	2348.37
8.2699	2356.47
8.31764	2364.59
8.36566	2372.72
8.41395	2380.87
8.46253	2389
8.51138	2397.16
8.56052	2405.33
8.60994	2413.52
8.65964	2421.73
8.70964	2429.95
8.75992	2438.2
8.81049	2446.46
8.86135	2454.74
8.91251	2463.04
8.96396	2471.35
9.01571	2479.68
9.06776	2488.03
9.12011	2496.4
9.17276	2504.78
9.22571	2513.17
9.27897	2521.59
9.33254	2530.01
9.38642	2538.46
9.44061	2546.91
9.49511	2555.39
9.54993	2563.87
9.60506	2572.38
9.66051	2580.89
9.71628	2589.42
9.77237	2597.96
9.82879	2606.52
9.88553	2615.09
9.9426	2623.67
10	2632.26
10.0577	2640.87
10.1158	2649.49
10.1742	2658.11
10.2329	2666.75
10.292	2675.4
10.3514	2684.06
10.4112	2692.74
10.4713	2701.42
10.5317	2710.1
10.5925	2718.8
10.6537	2727.51
10.7152	2736.23
10.7771	2744.95
10.8393	2753.68
10.9018	2762.42
10.9648	2771.16
11.0281	2779.91
11.0917	2788.67
11.1558	2797.43
11.2202	2806.2
11.285	2814.99
11.3501	2823.79
11.4156	2832.59
11.4815	2841.39
11.5478	2850.19
11.6145	2859
11.6815	2867.81
11.749	2876.63
11.8168	2885.44
11.885	2894.26
11.9536	2903.08
12.0226	2911.9
12.0921	2920.72
12.1619	2929.54
12.2321	2938.36
12.3027	2947.18
12.3737	2956
12.4451	2964.82
12.517	2973.64
12.5893	2982.45
12.6619	2991.26
12.735	3000.07
12.8086	3008.88
12.8825	3017.68
12.9569	3026.48
13.0317	3035.27
13.1069	3044.06
13.1826	3052.84
13.2587	3061.62
13.3352	3070.39
13.4122	3079.15
13.4896	3087.91
13.5675	3096.66
13.6458	3105.4
13.7246	3114.14
13.8038	3122.86
13.8835	3131.58
13.9637	3140.28
14.0443	3148.98
14.1254	3157.67
14.2069	3166.34
14.2889	3175.01
14.3714	3183.66
14.4544	3192.3
14.5378	3200.93
14.6218	3209.54
14.7062	3218.14
14.7911	3226.72
14.8765	3235.29
14.9624	3243.84
15.0487	3252.38
15.1356	3260.89
15.223	3269.39
15.3109	3277.87
15.3993	3286.33
15.4882	3294.77
15.5776	3303.19
15.6675	3311.59
15.758	3319.97
15.8489	3328.32
15.9404	3336.65
16.0325	3344.96
16.125	3353.24
16.2181	3361.5
16.3117	3369.73
16.4059	3377.93
16.5006	3386.11
16.5959	3394.26
16.6917	3402.38
16.788	3410.47
16.885	3418.54
16.9824	3426.59
17.0805	3434.6
17.1791	3442.58
17.2783	3450.53
17.378	3458.44
17.4783	3466.33
17.5792	3474.18
17.6807	3481.99
17.7828	3489.78
17.8855	3497.53
17.9887	3505.24
18.0926	3512.92
18.197	3520.56
18.3021	3528.17
18.4077	3535.74
18.514	3543.28
18.6209	3550.78
18.7284	3558.24
18.8365	3565.66
18.9452	3573.05
19.0546	3580.4
19.1646	3587.71
19.2752	3594.98
19.3865	3602.22
19.4984	3609.41
19.611	3616.57
19.7242	3623.68
19.8381	3630.76
19.9526	3637.8
20.0678	3644.79
20.1837	3651.75
20.3002	3658.67
20.4174	3665.55
20.5353	3672.38
20.6538	3679.18
20.773	3685.94
20.893	3692.65
21.0136	3699.33
21.1349	3705.96
21.2569	3712.56
21.3796	3719.12
21.503	3725.63
21.6272	3732.11
21.752	3738.54
21.8776	3744.94
22.0039	3751.3
22.1309	3757.62
22.2587	3763.9
22.3872	3770.14
22.5165	3776.29
22.6464	3782.4
22.7772	3788.47
22.9087	3794.51
23.0409	3800.5
23.1739	3806.45
23.3077	3812.36
23.4423	3818.23
23.5776	3824.05
23.7137	3829.84
23.8506	3835.58
23.9883	3841.28
24.1268	3846.94
24.2661	3852.55
24.4062	3858.12
24.5471	3863.64
24.6888	3869.12
24.8313	3874.55
24.9747	3879.94
25.1189	3885.28
25.2639	3890.58
25.4097	3895.83
25.5564	3901.03
25.704	3906.19
25.8523	3911.29
26.0016	3916.36
26.1517	3921.37
26.3027	3926.33
26.4545	3931.25
26.6073	3936.12
26.7609	3940.94
26.9153	3945.71
27.0707	3950.43
27.227	3955.11
27.3842	3959.73
27.5423	3964.31
27.7013	3968.84
27.8612	3973.32
28.0221	3977.75
28.1838	3982.14
28.3465	3986.49
28.5102	3990.79
28.6748	3995.04
28.8403	3999.24
29.0068	4003.39
29.1743	4007.49
29.3427	4011.54
29.5121	4015.54
29.6825	4019.5
29.8538	4023.4
30.0262	4027.26
30.1995	4031.07
30.3739	4034.83
30.5492	4038.54
30.7256	4042.2
30.903	4045.82
31.0814	4049.39
31.2608	4052.91
31.4413	4056.38
31.6228	4059.81
31.8053	4063.19
31.989	4066.53
32.1736	4069.83
32.3594	4073.08
32.5462	4076.28
32.7341	4079.44
32.923	4082.57
33.1131	4085.65
33.3043	4088.68
33.4965	4091.68
33.6899	4094.64
33.8844	4097.57
34.08	4100.45
34.2768	4103.3
34.4747	4106.1
34.6737	4108.87
34.8739	4111.59
35.0752	4114.28
35.2777	4116.93
35.4813	4119.53
35.6862	4122.1
35.8922	4124.63
36.0994	4127.11
36.3078	4129.56
36.5174	4131.96
36.7282	4134.33
36.9403	4136.65
37.1535	4138.93
37.368	4141.17
37.5837	4143.37
37.8007	4145.53
38.0189	4147.65
38.2384	4149.73
38.4592	4151.76
38.6812	4153.76
38.9045	4155.71
39.1291	4157.63
39.355	4159.5
39.5822	4161.33
39.8107	4163.13
40.0405	4164.88
40.2717	4166.59
40.5042	4168.26
40.738	4169.89
40.9732	4171.48
41.2098	4173.02
41.4477	4174.53
41.6869	4175.99
41.9276	4177.41
42.1697	4178.79
42.4131	4180.12
42.658	4181.42
42.9042	4182.67
43.1519	4183.89
43.401	4185.06
43.6516	4186.18
43.9036	4187.27
44.157	4188.32
44.412	4189.32
44.6684	4190.28
44.9262	4191.2
45.1856	4192.08
45.4465	4192.92
45.7088	4193.72
45.9727	4194.48
46.2381	4195.19
46.505	4195.87
46.7735	4196.5
47.0435	4197.09
47.3151	4197.65
47.5883	4198.16
47.863	4198.63
48.1393	4199.06
48.4172	4199.45
48.6968	4199.81
48.9779	4200.12
49.2606	4200.39
49.545	4200.63
49.831	4200.82
50.1187	4200.98
50.4081	4201.1
50.6991	4201.18
50.9918	4201.23
51.2861	4201.24
51.5822	4201.21
51.88	4201.14
52.1795	4201.04
52.4807	4200.9
52.7837	4200.73
53.0884	4200.52
53.3949	4200.28
53.7032	4200.01
54.0132	4199.7
54.325	4199.35
54.6387	4198.98
54.9541	4198.57
55.2713	4198.13
55.5904	4197.66
55.9114	4197.16
56.2341	4196.63
56.5588	4196.08
56.8853	4195.49
57.2137	4194.88
57.544	4194.24
57.8762	4193.57
58.2103	4192.86
58.5464	4192.13
58.8844	4191.36
59.2243	4190.57
59.5662	4189.74
59.9101	4188.88
60.256	4187.99
60.6038	4187.07
60.9537	4186.11
61.3056	4185.13
61.6595	4184.11
62.0155	4183.06
62.3735	4181.98
62.7336	4180.87
63.0957	4179.72
63.46	4178.54
63.8263	4177.33
64.1948	4176.08
64.5654	4174.8
64.9382	4173.49
65.3131	4172.15
65.6901	4170.77
66.0693	4169.36
66.4508	4167.92
66.8344	4166.45
67.2202	4164.94
67.6083	4163.39
67.9986	4161.82
68.3912	4160.21
68.786	4158.57
69.1831	4156.9
69.5825	4155.19
69.9842	4153.45
70.3882	4151.68
70.7946	4149.87
71.2033	4148.03
71.6143	4146.16
72.0278	4144.26
72.4436	4142.32
72.8618	4140.36
73.2825	4138.36
73.7055	4136.32
74.131	4134.26
74.559	4132.17
74.9894	4130.04
75.4223	4127.89
75.8578	4125.7
76.2957	4123.49
76.7361	4121.24
77.1792	4118.96
77.6247	4116.66
78.0728	4114.33
78.5236	4111.96
78.9769	4109.57
79.4328	4107.16
79.8914	4104.71
80.3526	4102.24
80.8165	4099.74
81.2831	4097.22
81.7523	4094.67
82.2243	4092.1
82.699	4089.51
83.1764	4086.89
83.6566	4084.25
84.1395	4081.57
84.6253	4078.83
85.1138	4076.06
85.6052	4073.28
86.0994	4070.47
86.5964	4067.64
87.0964	4064.79
87.5992	4061.92
88.1049	4059.02
88.6135	4056.11
89.1251	4053.17
89.6396	4050.2
90.1571	4047.22
90.6776	4044.21
91.2011	4041.18
91.7276	4038.13
92.2571	4035.05
92.7897	4031.95
93.3254	4028.83
93.8642	4025.68
94.4061	4022.51
94.9511	4019.32
95.4993	4016.1
96.0506	4012.86
96.6051	4009.6
97.1628	4006.31
97.7237	4003
98.2879	3999.67
98.8553	3996.31
99.426	3992.93
100	3989.52
100.577	3986.09
101.158	3982.64
101.742	3979.16
102.329	3975.66
102.92	3972.14
103.514	3968.59
104.112	3965.01
104.713	3961.42
105.317	3957.79
105.925	3954.15
106.537	3950.48
107.152	3946.79
107.771	3943.07
108.393	3939.33
109.018	3935.56
109.648	3931.77
110.281	3927.96
110.917	3924.12
111.558	3920.26
112.202	3916.37
112.85	3912.47
113.501	3908.54
114.156	3904.58
114.815	3900.61
115.478	3896.61
116.145	3892.58
116.815	3888.53
117.49	3884.46
118.168	3880.37
118.85	3876.25
119.536	3872.11
120.226	3867.94
120.921	3863.75
121.619	3859.54
122.321	3855.31
123.027	3851.05
123.737	3846.77
124.451	3842.46
125.17	3838.14
125.893	3833.79
126.619	3829.42
127.35	3825.02
128.086	3820.61
128.825	3816.17
129.569	3811.71
130.317	3807.23
131.069	3802.73
131.826	3798.2
132.587	3793.66
133.352	3789.09
134.122	3784.5
134.896	3779.9
135.675	3775.27
136.458	3770.62
137.246	3765.95
138.038	3761.27
138.835	3756.56
139.637	3751.84
140.443	3747.09
141.254	3742.33
142.069	3737.55
142.889	3732.75
143.714	3727.94
144.544	3723.1
145.378	3718.25
146.218	3713.38
147.062	3708.49
147.911	3703.58
148.765	3698.65
149.624	3693.71
150.487	3688.74
151.356	3683.76
152.23	3678.77
153.109	3673.75
153.993	3668.72
154.882	3663.66
155.776	3658.59
156.675	3653.51
157.58	3648.4
158.489	3643.28
159.404	3638.14
160.325	3632.98
161.25	3627.81
162.181	3622.62
163.117	3617.41
164.059	3612.19
165.006	3606.94
165.959	3601.69
166.917	3596.41
167.88	3591.12
168.85	3585.81
169.824	3580.48
170.805	3575.14
171.791	3569.78
172.783	3564.41
173.78	3559.01
174.783	3553.61
175.792	3548.18
176.807	3542.74
177.828	3537.29
178.855	3531.82
179.887	3526.33
180.926	3520.83
181.97	3515.31
183.021	3509.77
184.077	3504.22
185.14	3498.66
186.209	3493.08
187.284	3487.48
188.365	3481.87
189.452	3476.24
190.546	3470.6
191.646	3464.94
192.752	3459.27
193.865	3453.58
194.984	3447.88
196.11	3442.17
197.242	3436.43
198.381	3430.69
199.526	3424.93
200.678	3419.15
201.837	3413.36
203.002	3407.56
204.174	3401.74
205.353	3395.91
206.538	3390.07
207.73	3384.21
208.93	3378.33
210.136	3372.45
211.349	3366.55
212.569	3360.63
213.796	3354.71
215.03	3348.77
216.272	3342.81
217.52	3336.85
218.776	3330.87
220.039	3324.88
221.309	3318.87
222.587	3312.86
223.872	3306.83
225.165	3300.8
226.464	3294.75
227.772	3288.7
229.087	3282.63
230.409	3276.56
231.739	3270.47
233.077	3264.37
234.423	3258.26
235.776	3252.13
237.137	3246
238.506	3239.85
239.883	3233.7
241.268	3227.53
242.661	3221.35
244.062	3215.16
245.471	3208.96
246.888	3202.75
248.313	3196.53
249.747	3190.3
251.189	3184.06
252.639	3177.81
254.097	3171.56
255.564	3165.29
257.04	3159.01
258.523	3152.72
260.016	3146.42
261.517	3140.12
263.027	3133.8
264.545	3127.47
266.073	3121.14
267.609	3114.8
269.153	3108.45
270.707	3102.09
272.27	3095.72
273.842	3089.35
275.423	3082.96
277.013	3076.57
278.612	3070.17
280.221	3063.76
281.838	3057.34
283.465	3050.92
285.102	3044.48
286.748	3038.04
288.403	3031.59
290.068	3025.14
291.743	3018.67
293.427	3012.2
295.121	3005.73
296.825	2999.24
298.538	2992.75
300.262	2986.26
301.995	2979.76
303.739	2973.25
305.492	2966.73
307.256	2960.21
309.03	2953.69
310.814	2947.15
312.608	2940.62
314.413	2934.07
316.228	2927.53
318.053	2920.97
319.89	2914.41
321.736	2907.85
323.594	2901.28
325.462	2894.7
327.341	2888.12
329.23	2881.54
331.131	2874.95
333.043	2868.35
334.965	2861.75
336.899	2855.15
338.844	2848.54
340.8	2841.93
342.768	2835.31
344.747	2828.69
346.737	2822.06
348.739	2815.43
350.752	2808.79
352.777	2802.16
354.813	2795.51
356.862	2788.87
358.922	2782.22
360.994	2775.57
363.078	2768.91
365.174	2762.26
367.282	2755.59
369.403	2748.93
371.535	2742.26
373.68	2735.59
375.837	2728.92
378.007	2722.25
380.189	2715.57
382.384	2708.89
384.592	2702.21
386.812	2695.53
389.045	2688.84
391.291	2682.15
393.55	2675.46
395.822	2668.77
398.107	2662.08
400.405	2655.38
402.717	2648.68
405.042	2641.99
407.38	2635.29
409.732	2628.59
412.098	2621.88
414.477	2615.18
416.869	2608.48
419.276	2601.78
421.697	2595.08
424.131	2588.37
426.58	2581.67
429.042	2574.97
431.519	2568.26
434.01	2561.56
436.516	2554.86
439.036	2548.16
441.57	2541.46
444.12	2534.76
446.684	2528.06
449.262	2521.36
451.856	2514.67
454.465	2507.97
457.088	2501.28
459.727	2494.59
462.381	2487.9
465.05	2481.21
467.735	2474.52
470.435	2467.84
473.151	2461.15
475.883	2454.47
478.63	2447.79
481.393	2441.11
484.172	2434.44
486.968	2427.76
489.779	2421.09
492.606	2414.42
495.45	2407.75
498.31	2401.08
501.187	2394.42
504.081	2387.76
506.991	2381.1
509.918	2374.44
512.861	2367.78
515.822	2361.13
518.8	2354.48
521.795	2347.83
524.807	2341.18
527.837	2334.54
530.884	2327.9
533.949	2321.26
537.032	2314.63
540.132	2307.99
543.25	2301.36
546.387	2294.74
549.541	2288.11
552.713	2281.49
555.904	2274.87
559.114	2268.26
562.341	2261.64
565.588	2255.02
568.853	2248.41
572.137	2241.8
575.44	2235.19
578.762	2228.59
582.103	2221.99
585.464	2215.39
588.844	2208.8
592.243	2202.22
595.662	2195.64
599.101	2189.06
602.56	2182.49
606.038	2175.93
609.537	2169.37
613.056	2162.82
616.595	2156.27
620.155	2149.73
623.735	2143.2
627.336	2136.67
630.957	2130.15
634.6	2123.63
638.263	2117.13
641.948	2110.63
645.654	2104.13
649.382	2097.65
653.131	2091.17
656.901	2084.7
660.693	2078.24
664.508	2071.79
668.344	2065.34
672.202	2058.9
676.083	2052.47
679.986	2046.05
683.912	2039.64
687.86	2033.24
691.831	2026.84
695.825	2020.45
699.842	2014.08
703.882	2007.71
707.946	2001.35
712.033	1995
716.143	1988.66
720.278	1982.32
724.436	1976
728.618	1969.68
732.825	1963.38
737.055	1957.08
741.31	1950.79
745.59	1944.51
749.894	1938.24
754.223	1931.97
758.578	1925.72
762.957	1919.47
767.361	1913.23
771.792	1907
776.247	1900.78
780.728	1894.56
785.236	1888.36
789.769	1882.16
794.328	1875.96
798.914	1869.78
803.526	1863.6
808.165	1857.42
812.831	1851.25
817.523	1845.09
822.243	1838.94
826.99	1832.78
831.764	1826.64
836.566	1820.49
841.395	1814.38
846.253	1808.35
851.138	1802.31
856.052	1796.29
860.994	1790.26
865.964	1784.24
870.964	1778.23
875.992	1772.22
881.049	1766.22
886.135	1760.23
891.251	1754.24
896.396	1748.25
901.571	1742.28
906.776	1736.31
912.011	1730.35
917.276	1724.39
922.571	1718.44
927.897	1712.5
933.254	1706.57
938.642	1700.65
944.061	1694.73
949.511	1688.83
954.993	1682.93
960.506	1677.04
966.051	1671.17
971.628	1665.3
977.237	1659.44
982.879	1653.59
988.553	1647.75
994.26	1641.92
1000	1636.11
1005.77	1630.3
1011.58	1624.51
1017.42	1618.72
1023.29	1612.95
1029.2	1607.19
1035.14	1601.44
1041.12	1595.7
1047.13	1589.98
1053.17	1584.26
1059.25	1578.56
1065.37	1572.87
1071.52	1567.2
1077.71	1561.54
1083.93	1555.89
1090.18	1550.25
1096.48	1544.63
1102.81	1539.02
1109.17	1533.42
1115.58	1527.84
1122.02	1522.26
1128.5	1516.68
1135.01	1511.12
1141.56	1505.57
1148.15	1500.03
1154.78	1494.5
1161.45	1489
1168.15	1483.5
1174.9	1478.02
1181.68	1472.55
1188.5	1467.1
1195.36	1461.67
1202.26	1456.24
1209.21	1450.84
1216.19	1445.45
1223.21	1440.07
1230.27	1434.71
1237.37	1429.36
1244.51	1424.03
1251.7	1418.71
1258.93	1413.41
1266.19	1408.12
1273.5	1402.85
1280.86	1397.59
1288.25	1392.35
1295.69	1387.12
1303.17	1381.91
1310.69	1376.71
1318.26	1371.53
1325.87	1366.36
1333.52	1361.21
1341.22	1356.06
1348.96	1350.94
1356.75	1345.82
1364.58	1340.72
1372.46	1335.64
1380.38	1330.56
1388.35	1325.5
1396.37	1320.45
1404.43	1315.42
1412.54	1310.39
1420.69	1305.38
1428.89	1300.38
1437.14	1295.39
1445.44	1290.41
1453.78	1285.45
1462.18	1280.5
1470.62	1275.56
1479.11	1270.63
1487.65	1265.72
1496.24	1260.82
1504.87	1255.94
1513.56	1251.07
1522.3	1246.21
1531.09	1241.36
1539.93	1236.53
1548.82	1231.72
1557.76	1226.91
1566.75	1222.12
1575.8	1217.35
1584.89	1212.59
1594.04	1207.84
1603.25	1203.1
1612.5	1198.38
1621.81	1193.68
1631.17	1188.98
1640.59	1184.31
1650.06	1179.64
1659.59	1174.99
1669.17	1170.35
1678.8	1165.73
1688.5	1161.11
1698.24	1156.5
1708.05	1151.91
1717.91	1147.33
1727.83	1142.77
1737.8	1138.21
1747.83	1133.68
1757.92	1129.16
1768.07	1124.65
1778.28	1120.15
1788.55	1115.68
1798.87	1111.21
1809.26	1106.76
1819.7	1102.33
1830.21	1097.91
1840.77	1093.51
1851.4	1089.12
1862.09	1084.74
1872.84	1080.38
1883.65	1076.04
1894.52	1071.71
1905.46	1067.4
1916.46	1063.11
1927.52	1058.83
1938.65	1054.56
1949.84	1050.31
1961.1	1046.08
1972.42	1041.86
1983.81	1037.65
1995.26	1033.47
2006.78	1029.29
2018.37	1025.14
2030.02	1020.99
2041.74	1016.87
2053.53	1012.75
2065.38	1008.66
2077.3	1004.57
2089.3	1000.5
2101.36	996.449
2113.49	992.408
2125.69	988.382
2137.96	984.369
2150.3	980.369
2162.72	976.383
2175.2	972.409
2187.76	968.448
2200.39	964.498
2213.09	960.561
2225.87	956.635
2238.72	952.721
2251.65	948.842
2264.64	944.976
2277.72	941.122
2290.87	937.279
2304.09	933.448
2317.39	929.628
2330.77	925.819
2344.23	922.023
2357.76	918.238
2371.37	914.466
2385.06	910.705
2398.83	906.957
2412.68	903.222
2426.61	899.499
2440.62	895.789
2454.71	892.092
2468.88	888.407
2483.13	884.736
2497.47	881.078
2511.89	877.433
2526.39	873.801
2540.97	870.183
2555.64	866.578
2570.4	862.986
2585.23	859.408
2600.16	855.844
2615.17	852.293
2630.27	848.756
2645.45	845.232
2660.73	841.723
2676.09	838.227
2691.53	834.744
2707.07	831.276
2722.7	827.82
2738.42	824.379
2754.23	820.951
2770.13	817.537
2786.12	814.136
2802.21	810.747
2818.38	807.366
2834.65	803.998
2851.02	800.644
2867.48	797.303
2884.03	793.975
2900.68	790.661
2917.43	787.361
2934.27	784.075
2951.21	780.802
2968.25	777.543
2985.38	774.298
3002.62	771.066
3019.95	767.848
3037.39	764.644
3054.92	761.454
3072.56	758.277
3090.3	755.114
3108.14	751.965
3126.08	748.829
3144.13	745.706
3162.28	742.597
3180.53	739.501
3198.9	736.419
3217.36	733.349
3235.94	730.292
3254.62	727.249
3273.41	724.217
3292.3	721.198
3311.31	718.192
3330.43	715.197
3349.65	712.215
3368.99	709.243
3388.44	706.283
3408	703.335
3427.68	700.398
3447.47	697.473
3467.37	694.56
3487.39	691.658
3507.52	688.769
3527.77	685.891
3548.13	683.025
3568.62	680.171
3589.22	677.329
3609.94	674.499
3630.78	671.681
3651.74	668.875
3672.82	666.081
3694.03	663.299
3715.35	660.528
3736.8	657.77
3758.37	655.023
3780.07	652.289
3801.89	649.565
3823.84	646.854
3845.92	644.154
3868.12	641.465
3890.45	638.788
3912.91	636.122
3935.5	633.467
3958.22	630.823
3981.07	628.19
4004.05	625.569
4027.17	622.958
4050.42	620.359
4073.8	617.771
4097.32	615.194
4120.98	612.629
4144.77	610.075
4168.69	607.532
4192.76	605.001
4216.97	602.481
4241.31	599.972
4265.8	597.474
4290.42	594.988
4315.19	592.513
4340.1	590.049
4365.16	587.596
4390.36	585.154
4415.7	582.723
4441.2	580.303
4466.84	577.893
4492.62	575.494
4518.56	573.106
4544.65	570.728
4570.88	568.361
4597.27	566.005
4623.81	563.659
4650.5	561.324
4677.35	559
4704.35	556.686
4731.51	554.383
4758.83	552.091
4786.3	549.81
4813.93	547.539
4841.72	545.279
4869.68	543.029
4897.79	540.79
4926.06	538.561
4954.5	536.343
4983.1	534.135
5011.87	531.937
5040.81	529.749
5069.91	527.571
5099.18	525.404
5128.61	523.246
5158.22	521.098
5188	518.96
5217.95	516.831
5248.07	514.712
5278.37	512.603
5308.84	510.503
5339.49	508.413
5370.32	506.332
5401.32	504.245
5432.5	502.024
5463.87	499.813
5495.41	497.613
5527.13	495.422
5559.04	493.242
5591.14	491.071
5623.41	488.906
5655.88	486.749
5688.53	484.602
5721.37	482.464
5754.4	480.336
5787.62	478.218
5821.03	476.11
5854.64	474.011
5888.44	471.922
5922.43	469.844
5956.62	467.775
5991.01	465.717
6025.6	463.668
6060.38	461.63
6095.37	459.603
6130.56	457.586
6165.95	455.579
6201.55	453.583
6237.35	451.598
6273.36	449.623
6309.57	447.659
6346	445.706
6382.63	443.763
6419.48	441.831
6456.54	439.91
6493.82	438
6531.31	436.101
6569.01	434.212
6606.93	432.335
6645.08	430.468
6683.44	428.613
6722.02	426.768
6760.83	424.934
6799.86	423.112
6839.12	421.3
6878.6	419.498
6918.31	417.708
6958.25	415.929
6998.42	414.16
7038.82	412.402
7079.46	410.654
7120.33	408.917
7161.43	407.191
7202.78	405.475
7244.36	403.77
7286.18	402.074
7328.25	400.389
7370.55	398.714
7413.1	397.049
7455.9	395.393
7498.94	393.748
7542.23	392.111
7585.78	390.485
7629.57	388.867
7673.61	387.258
7717.92	385.658
7762.47	384.067
7807.28	382.484
7852.36	380.91
7897.69	379.343
7943.28	377.784
7989.14	376.233
8035.26	374.689
8081.65	373.151
8128.31	371.621
8175.23	370.096
8222.43	368.578
8269.9	367.065
8317.64	365.558
8365.66	364.055
8413.95	362.57
8462.53	361.121
8511.38	359.676
8560.52	358.236
8609.94	356.801
8659.64	355.37
8709.64	353.945
8759.92	352.524
8810.49	351.108
8861.35	349.698
8912.51	348.292
8963.96	346.892
9015.71	345.498
9067.76	344.108
9120.11	342.724
9172.76	341.346
9225.71	339.973
9278.97	338.605
9332.54	337.244
9386.42	335.888
9440.61	334.538
9495.11	333.194
9549.93	331.856
9605.06	330.523
9660.51	329.197
9716.28	327.877
9772.37	326.563
9828.79	325.255
9885.53	323.954
9942.6	322.659
10000	321.37
10057.7	320.088
10115.8	318.812
10174.2	317.543
10232.9	316.28
10292	315.024
10351.4	313.775
10411.2	312.532
10471.3	311.296
10531.7	310.066
10592.5	308.844
10653.7	307.628
10715.2	306.419
10777.1	305.217
10839.3	304.021
10901.8	302.833
10964.8	301.652
11028.1	300.477
11091.7	299.31
11155.8	298.149
11220.2	296.993
11285	295.839
11350.1	294.692
11415.6	293.552
11481.5	292.419
11547.8	291.293
11614.5	290.174
11681.5	289.062
11749	287.957
11816.8	286.859
11885	285.768
11953.6	284.683
12022.6	283.606
12092.1	282.535
12161.9	281.471
12232.1	280.414
12302.7	279.364
12373.7	278.321
12445.1	277.284
12517	276.254
12589.3	275.231
12661.9	274.214
12735	273.203
12808.6	272.199
12882.5	271.202
12956.9	270.21
13031.7	269.225
13106.9	268.246
13182.6	267.272
13258.7	266.305
13335.2	265.343
13412.2	264.387
13489.6	263.437
13567.5	262.492
13645.8	261.552
13724.6	260.617
13803.8	259.687
13883.5	258.762
13963.7	257.841
14044.3	256.925
14125.4	256.012
14206.9	255.105
14288.9	254.201
14371.4	253.302
14454.4	252.407
14537.8	251.517
14621.8	250.631
14706.2	249.75
14791.1	248.873
14876.5	248.001
14962.4	247.133
15048.7	246.27
15135.6	245.411
15223	244.557
15310.9	243.707
15399.3	242.862
15488.2	242.022
15577.6	241.186
15667.5	240.354
15758	239.528
15848.9	238.705
15940.4	237.887
16032.5	237.074
16125	236.265
16218.1	235.461
16311.7	234.661
16405.9	233.866
16500.6	233.075
16595.9	232.288
16691.7	231.505
16788	230.727
16885	229.952
16982.4	229.18
17080.5	228.413
17179.1	227.65
17278.3	226.891
17378	226.137
17478.3	225.387
17579.2	224.641
17680.7	223.9
17782.8	223.163
17885.5	222.431
17988.7	221.703
18092.6	220.979
18197	220.26
18302.1	219.545
18407.7	218.835
18514	218.129
18620.9	217.428
18728.4	216.731
18836.5	216.039
18945.2	215.35
19054.6	214.667
19164.6	213.988
19275.2	213.313
19386.5	212.643
19498.4	211.976
19611	211.315
19724.2	210.657
19838.1	210.004
19952.6	209.355
20067.8	208.711
20183.7	208.07
20300.2	207.434
20417.4	206.802
20535.3	206.174
20653.8	205.549
20773	204.929
20893	204.313
21013.6	203.7
21134.9	203.091
21256.9	202.486
21379.6	201.884
21503	201.286
21627.2	200.691
21752	200.099
21877.6	199.511
22003.9	198.926
22130.9	198.343
22258.7	197.764
22387.2	197.187
22516.5	196.618
22646.4	196.053
22777.2	195.49
22908.7	194.93
23040.9	194.372
23173.9	193.817
23307.7	193.265
23442.3	192.716
23577.6	192.17
23713.7	191.626
23850.6	191.086
23988.3	190.548
24126.8	190.013
24266.1	189.481
24406.2	188.952
24547.1	188.426
24688.8	187.903
24831.3	187.383
24974.7	186.866
25118.9	186.352
25263.9	185.841
25409.7	185.332
25556.4	184.827
25704	184.325
25852.3	183.826
26001.6	183.331
26151.7	182.838
26302.7	182.348
26454.5	181.861
26607.3	181.377
26760.9	180.896
26915.3	180.419
27070.7	179.944
27227	179.472
27384.2	179.003
27542.3	178.538
27701.3	178.075
27861.2	177.615
28022.1	177.158
28183.8	176.703
28346.5	176.25
28510.2	175.801
28674.8	175.354
28840.3	174.91
29006.8	174.469
29174.3	174.032
29342.7	173.597
29512.1	173.164
29682.5	172.735
29853.8	172.309
30026.2	171.886
30199.5	171.465
30373.9	171.047
30549.2	170.632
30725.6	170.22
30903	169.811
31081.4	169.405
31260.8	169.001
31441.3	168.6
31622.8	168.202
31805.3	167.807
31989	167.414
32173.6	167.024
32359.4	166.636
32546.2	166.251
32734.1	165.869
32923	165.489
33113.1	165.111
33304.3	164.736
33496.5	164.363
33689.9	163.993
33884.4	163.624
34080	163.258
34276.8	162.894
34474.7	162.533
34673.7	162.173
34873.9	161.816
35075.2	161.461
35277.7	161.109
35481.3	160.759
35686.2	160.411
35892.2	160.065
36099.4	159.722
36307.8	159.381
36517.4	159.042
36728.2	158.706
36940.3	158.371
37153.5	158.04
37368	157.71
37583.7	157.382
37800.7	157.057
38018.9	156.734
38238.4	156.414
38459.2	156.095
38681.2	155.779
38904.5	155.465
39129.1	155.152
39355	154.843
39582.2	154.535
39810.7	154.229
40040.5	153.925
40271.7	153.624
40504.2	153.324
40738	153.027
40973.2	152.732
41209.8	152.439
41447.7	152.148
41686.9	151.859
41927.6	151.572
42169.7	151.287
42413.1	151.004
42658	150.724
42904.2	150.445
43151.9	150.168
43401	149.894
43651.6	149.621
43903.6	149.35
44157	149.082
44412	148.815
44668.4	148.55
44926.2	148.287
45185.6	148.026
45446.5	147.766
45708.8	147.509
45972.7	147.253
46238.1	146.999
46505	146.747
46773.5	146.497
47043.5	146.249
47315.1	146.002
47588.3	145.758
47863	145.515
48139.3	145.274
48417.2	145.035
48696.8	144.797
48977.9	144.561
49260.6	144.327
49545	144.095
49831	143.865
50118.7	143.636
50408.1	143.409
50699.1	143.183
50991.8	142.959
51286.1	142.737
51582.2	142.516
51880	142.297
52179.5	142.079
52480.7	141.863
52783.7	141.648
53088.4	141.434
53394.9	141.222
53703.2	141.011
54013.2	140.802
54325	140.593
54638.7	140.386
54954.1	140.18
55271.3	139.975
55590.4	139.771
55911.4	139.567
56234.1	139.354
56558.8	139.139
56885.3	138.925
57213.7	138.713
57544	138.502
57876.2	138.293
58210.3	138.086
58546.4	137.88
58884.4	137.675
59224.3	137.472
59566.2	137.271
59910.1	137.071
60256	136.873
60603.8	136.676
60953.7	136.481
61305.6	136.287
61659.5	136.094
62015.5	135.903
62373.5	135.714
62733.6	135.526
63095.7	135.339
63460	135.154
63826.3	134.97
64194.8	134.788
64565.4	134.607
64938.2	134.427
65313.1	134.249
65690.1	134.072
66069.3	133.897
66450.8	133.723
66834.4	133.55
67220.2	133.379
67608.3	133.209
67998.6	133.04
68391.2	132.872
68786	132.706
69183.1	132.542
69582.5	132.378
69984.2	132.216
70388.2	132.055
70794.6	131.896
71203.3	131.738
71614.3	131.581
72027.8	131.425
72443.6	131.27
72861.8	131.117
73282.5	130.965
73705.5	130.814
74131	130.665
74559	130.516
74989.4	130.369
75422.3	130.223
75857.8	130.078
76295.7	129.935
76736.1	129.792
77179.2	129.651
77624.7	129.511
78072.8	129.372
78523.6	129.234
78976.9	129.098
79432.8	128.962
79891.4	128.828
80352.6	128.695
80816.5	128.563
81283.1	128.432
81752.3	128.302
82224.3	128.173
82699	128.045
83176.4	127.919
83656.6	127.793
84139.5	127.669
84625.3	127.545
85113.8	127.423
85605.2	127.302
86099.4	127.181
86596.4	127.062
87096.4	126.944
87599.2	126.827
88104.9	126.711
88613.5	126.596
89125.1	126.482
89639.6	126.368
90157.1	126.256
90677.6	126.145
91201.1	126.035
91727.6	125.926
92257.1	125.818
92789.7	125.71
93325.4	125.604
93864.2	125.499
94406.1	125.394
94951.1	125.291
95499.3	125.188
96050.6	125.087
96605.1	124.986
97162.8	124.886
97723.7	124.788
98287.9	124.69
98855.3	124.593
99426	124.496
100000	124.401
100577	124.307
101158	124.213
101742	124.121
102329	124.029
102920	123.938
103514	123.848
104112	123.759
104713	123.67
105317	123.583
105925	123.496
106537	123.41
107152	123.325
107771	123.241
108393	123.158
109018	123.075
109648	122.993
110281	122.912
110917	122.832
111558	122.752
112202	122.674
112850	122.596
113501	122.519
114156	122.442
114815	122.367
115478	122.292
116145	122.218
116815	122.144
117490	122.072
118168	122
118850	121.929
119536	121.858
120226	121.788
120921	121.719
121619	121.651
122321	121.583
123027	121.517
123737	121.45
124451	121.385
125170	121.32
125893	121.256
126619	121.192
127350	121.129
128086	121.067
128825	121.006
129569	120.945
130317	120.885
131069	120.825
131826	120.766
132587	120.708
133352	120.65
134122	120.593
134896	120.537
135675	120.481
136458	120.426
137246	120.371
138038	120.317
138835	120.264
139637	120.211
140443	120.159
141254	120.107
142069	120.056
142889	120.006
143714	119.956
144544	119.907
145378	119.858
146218	119.81
147062	119.762
147911	119.715
148765	119.669
149624	119.623
150487	119.577
151356	119.532
152230	119.488
153109	119.444
153993	119.401
154882	119.358
155776	119.316
156675	119.274
157580	119.233
158489	119.192
159404	119.152
160325	119.112
161250	119.073
162181	119.034
163117	118.996
164059	118.958
165006	118.921
165959	118.884
166917	118.848
167880	118.812
168850	118.776
169824	118.741
170805	118.707
171791	118.673
172783	118.639
173780	118.606
174783	118.573
175792	118.541
176807	118.509
177828	118.478
178855	118.447
179887	118.416
180926	118.386
181970	118.356
183021	118.327
184077	118.298
185140	118.269
186209	118.241
187284	118.213
188365	118.186
189452	118.159
190546	118.133
191646	118.106
192752	118.081
193865	118.055
194984	118.03
196110	118.006
197242	117.981
198381	117.957
199526	117.934
200678	117.911
201837	117.888
203002	117.865
204174	117.843
205353	117.821
206538	117.8
207730	117.779
208930	117.758
210136	117.738
211349	117.718
212569	117.698
213796	117.679
215030	117.659
216272	117.641
217520	117.622
218776	117.604
220039	117.586
221309	117.569
222587	117.551
223872	117.534
225165	117.518
226464	117.501
227772	117.485
229087	117.47
230409	117.454
231739	117.439
233077	117.424
234423	117.41
235776	117.395
237137	117.381
238506	117.367
239883	117.354
241268	117.341
242661	117.328
244062	117.315
245471	117.303
246888	117.29
248313	117.278
249747	117.267
251189	117.255
252639	117.244
254097	117.233
255564	117.223
257040	117.212
258523	117.202
260016	117.192
261517	117.182
263027	117.173
264545	117.163
266073	117.154
267609	117.145
269153	117.137
270707	117.128
272270	117.12
273842	117.112
275423	117.104
277013	117.097
278612	117.089
280221	117.082
281838	117.075
283465	117.069
285102	117.062
286748	117.056
288403	117.05
290068	117.044
291743	117.038
293427	117.032
295121	117.027
296825	117.022
298538	117.017
300262	117.012
301995	117.007
303739	117.003
305492	116.998
307256	116.994
309030	116.99
310814	116.986
312608	116.983
314413	116.979
316228	116.976
318053	116.973
319890	116.97
321736	116.967
323594	116.964
325462	116.962
327341	116.959
329230	116.957
331131	116.955
333043	116.953
334965	116.951
336899	116.95
338844	116.948
340800	116.947
342768	116.946
344747	116.944
346737	116.943
348739	116.943
350752	116.942
352777	116.941
354813	116.941
356862	116.941
358922	116.94
360994	116.94
363078	116.94
365174	116.94
367282	116.941
369403	116.941
371535	116.942
373680	116.942
375837	116.943
378007	116.944
380189	116.945
382384	116.946
384592	116.947
386812	116.948
389045	116.949
391291	116.951
393550	116.952
395822	116.954
398107	116.956
400405	116.958
402717	116.96
405042	116.962
407380	116.964
409732	116.966
412098	116.968
414477	116.971
416869	116.973
419276	116.976
421697	116.978
424131	116.981
426580	116.984
429042	116.987
431519	116.989
434010	116.993
436516	116.996
439036	116.999
441570	117.002
444120	117.005
446684	117.009
449262	117.012
451856	117.016
454465	117.019
457088	117.023
459727	117.027
462381	117.03
465050	117.034
467735	117.038
470435	117.042
473151	117.046
475883	117.05
478630	117.054
481393	117.058
484172	117.063
486968	117.067
489779	117.071
492606	117.076
495450	117.08
498310	117.085
501187	117.089
504081	117.094
506991	117.098
509918	117.103
512861	117.108
515822	117.113
518800	117.117
521795	117.122
524807	117.127
527837	117.132
530884	117.137
533949	117.142
537032	117.147
540132	117.152
543250	117.157
546387	117.162
549541	117.168
552713	117.173
555904	117.178
559114	117.183
562341	117.189
565588	117.194
568853	117.199
572137	117.205
575440	117.21
578762	117.216
582103	117.221
585464	117.227
588844	117.232
592243	117.238
595662	117.243
599101	117.249
602560	117.254
606038	117.26
609537	117.266
613056	117.271
616595	117.277
620155	117.283
623735	117.288
627336	117.294
630957	117.3
634600	117.306
638263	117.311
641948	117.317
645654	117.323
649382	117.329
653131	117.335
656901	117.341
660693	117.346
664508	117.352
668344	117.358
672202	117.364
676083	117.37
679986	117.376
683912	117.382
687860	117.387
691831	117.393
695825	117.399
699842	117.405
703882	117.411
707946	117.417
712033	117.423
716143	117.429
720278	117.435
724436	117.441
728618	117.447
732825	117.452
737055	117.458
741310	117.464
745590	117.47
749894	117.476
754223	117.482
758578	117.488
762957	117.494
767361	117.5
771792	117.506
776247	117.512
780728	117.517
785236	117.523
789769	117.529
794328	117.535
798914	117.541
803526	117.547
808165	117.553
812831	117.558
817523	117.564
822243	117.57
826990	117.576
831764	117.582
836566	117.588
841395	117.593
846253	117.599
851138	117.605
856052	117.611
860994	117.616
865964	117.622
870964	117.628
875992	117.633
881049	117.639
886135	117.645
891251	117.65
896396	117.656
901571	117.662
906776	117.667
912011	117.673
917276	117.678
922571	117.684
927897	117.69
933254	117.695
938642	117.701
944061	117.706
949511	117.712
954993	117.717
960506	117.723
966051	117.728
971628	117.733
977237	117.739
982879	117.744
988553	117.749
994260	117.755
1e+06	117.76
1.00577e+06	117.765
1.01158e+06	117.771
1.01742e+06	117.776
1.02329e+06	117.781
1.0292e+06	117.786
1.03514e+06	117.792
1.04112e+06	117.797
1.04713e+06	117.802
1.05317e+06	117.807
1.05925e+06	117.812
1.06537e+06	117.817
1.07152e+06	117.822
1.07771e+06	117.827
1.08393e+06	117.832
1.09018e+06	117.837
1.09648e+06	117.842
1.10281e+06	117.847
1.10917e+06	117.852
1.11558e+06	117.857
1.12202e+06	117.862
1.1285e+06	117.867
1.13501e+06	117.872
1.14156e+06	117.877
1.14815e+06	117.881
1.15478e+06	117.886
1.16145e+06	117.891
1.16815e+06	117.896
1.1749e+06	117.9
1.18168e+06	117.905
1.1885e+06	117.91
1.19536e+06	117.914
1.20226e+06	117.919
1.20921e+06	117.923
1.21619e+06	117.928
1.22321e+06	117.932
1.23027e+06	117.937
1.23737e+06	117.941
1.24451e+06	117.946
1.2517e+06	117.95
1.25893e+06	117.955
1.26619e+06	117.959
1.2735e+06	117.963
1.28086e+06	117.968
1.28825e+06	117.972
1.29569e+06	117.976
1.30317e+06	117.98
1.31069e+06	117.985
1.31826e+06	117.989
1.32587e+06	117.993
1.33352e+06	117.997
1.34122e+06	118.001
1.34896e+06	118.005
1.35675e+06	118.009
1.36458e+06	118.013
1.37246e+06	118.017
1.38038e+06	118.021
1.38835e+06	118.025
1.39637e+06	118.029
1.40443e+06	118.033
1.41254e+06	118.037
1.42069e+06	118.041
1.42889e+06	118.045
1.43714e+06	118.048
1.44544e+06	118.052
1.45378e+06	118.056
1.46218e+06	118.059
1.47062e+06	118.063
1.47911e+06	118.067
1.48765e+06	118.07
1.49624e+06	118.074
1.50487e+06	118.078
1.51356e+06	118.081
1.5223e+06	118.085
1.53109e+06	118.088
1.53993e+06	118.091
1.54882e+06	118.095
1.55776e+06	118.098
1.56675e+06	118.102
1.5758e+06	118.105
1.58489e+06	118.108
1.59404e+06	118.112
1.60325e+06	118.115
1.6125e+06	118.118
1.62181e+06	118.121
1.63117e+06	118.124
1.64059e+06	118.128
1.65006e+06	118.131
1.65959e+06	118.134
1.66917e+06	118.137
1.6788e+06	118.14
1.6885e+06	118.143
1.69824e+06	118.146
1.70805e+06	118.149
1.71791e+06	118.152
1.72783e+06	118.155
1.7378e+06	118.158
1.74783e+06	118.16
1.75792e+06	118.163
1.76807e+06	118.166
1.77828e+06	118.169
1.78855e+06	118.172
1.79887e+06	118.174
1.80926e+06	118.177
1.8197e+06	118.18
1.83021e+06	118.182
1.84077e+06	118.185
1.8514e+06	118.187
1.86209e+06	118.19
1.87284e+06	118.192
1.88365e+06	118.195
1.89452e+06	118.197
1.90546e+06	118.2
1.91646e+06	118.202
1.92752e+06	118.205
1.93865e+06	118.207
1.94984e+06	118.209
1.9611e+06	118.212
1.97242e+06	118.214
1.98381e+06	118.216
1.99526e+06	118.219
2.00678e+06	118.221
2.01837e+06	118.223
2.03002e+06	118.225
2.04174e+06	118.227
2.05353e+06	118.229
2.06538e+06	118.231
2.0773e+06	118.233
2.0893e+06	118.236
2.10136e+06	118.238
2.11349e+06	118.24
2.12569e+06	118.241
2.13796e+06	118.243
2.1503e+06	118.245
2.16272e+06	118.247
2.1752e+06	118.249
2.18776e+06	118.251
2.20039e+06	118.253
2.21309e+06	118.254
2.22587e+06	118.256
2.23872e+06	118.258
2.25165e+06	118.26
2.26464e+06	118.261
2.27772e+06	118.263
2.29087e+06	118.265
2.30409e+06	118.266
2.31739e+06	118.268
2.33077e+06	118.27
2.34423e+06	118.271
2.35776e+06	118.273
2.37137e+06	118.274
2.38506e+06	118.276
2.39883e+06	118.277
2.41268e+06	118.278
2.42661e+06	118.28
2.44062e+06	118.281
2.45471e+06	118.283
2.46888e+06	118.284
2.48313e+06	118.285
2.49747e+06	118.287
2.51189e+06	118.288
2.52639e+06	118.289
2.54097e+06	118.29
2.55564e+06	118.292
2.5704e+06	118.293
2.58523e+06	118.294
2.60016e+06	118.295
2.61517e+06	118.296
2.63027e+06	118.297
2.64545e+06	118.298
2.66073e+06	118.3
2.67609e+06	118.301
2.69153e+06	118.302
2.70707e+06	118.303
2.7227e+06	118.304
2.73842e+06	118.305
2.75423e+06	118.306
2.77013e+06	118.306
2.78612e+06	118.307
2.80221e+06	118.308
2.81838e+06	118.309
2.83465e+06	118.31
2.85102e+06	118.311
2.86748e+06	118.312
2.88403e+06	118.312
2.90068e+06	118.313
2.91743e+06	118.314
2.93427e+06	118.315
2.95121e+06	118.315
2.96825e+06	118.316
2.98538e+06	118.317
3.00262e+06	118.318
3.01995e+06	118.318
3.03739e+06	118.319
3.05492e+06	118.319
3.07256e+06	118.32
3.0903e+06	118.321
3.10814e+06	118.321
3.12608e+06	118.322
3.14413e+06	118.322
3.16228e+06	118.323
3.18053e+06	118.323
3.1989e+06	118.324
3.21736e+06	118.324
3.23594e+06	118.325
3.25462e+06	118.325
3.27341e+06	118.326
3.2923e+06	118.326
3.31131e+06	118.326
3.33043e+06	118.327
3.34965e+06	118.327
3.36899e+06	118.327
3.38844e+06	118.328
3.408e+06	118.328
3.42768e+06	118.328
3.44747e+06	118.329
3.46737e+06	118.329
3.48739e+06	118.329
3.50752e+06	118.33
3.52777e+06	118.33
3.54813e+06	118.33
3.56862e+06	118.33
3.58922e+06	118.33
3.60994e+06	118.331
3.63078e+06	118.331
3.65174e+06	118.331
3.67282e+06	118.331
3.69403e+06	118.331
3.71535e+06	118.331
3.7368e+06	118.331
3.75837e+06	118.332
3.78007e+06	118.332
3.80189e+06	118.332
3.82384e+06	118.332
3.84592e+06	118.332
3.86812e+06	118.332
3.89045e+06	118.332
3.91291e+06	118.332
3.9355e+06	118.332
3.95822e+06	118.332
3.98107e+06	118.332
4.00405e+06	118.332
4.02717e+06	118.332
4.05042e+06	118.332
4.0738e+06	118.332
4.09732e+06	118.332
4.12098e+06	118.332
4.14477e+06	118.332
4.16869e+06	118.332
4.19276e+06	118.332
4.21697e+06	118.332
4.24131e+06	118.332
4.2658e+06	118.331
4.29042e+06	118.331
4.31519e+06	118.331
4.3401e+06	118.331
4.36516e+06	118.331
4.39036e+06	118.331
4.4157e+06	118.331
4.4412e+06	118.331
4.46684e+06	118.33
4.49262e+06	118.33
4.51856e+06	118.33
4.54465e+06	118.33
4.57088e+06	118.33
4.59727e+06	118.33
4.62381e+06	118.329
4.6505e+06	118.329
4.67735e+06	118.329
4.70435e+06	118.329
4.73151e+06	118.329
4.75883e+06	118.329
4.7863e+06	118.328
4.81393e+06	118.328
4.84172e+06	118.328
4.86968e+06	118.328
4.89779e+06	118.327
4.92606e+06	118.327
4.9545e+06	118.327
4.9831e+06	118.327
5.01187e+06	118.327
5.04081e+06	118.326
5.06991e+06	118.326
5.09918e+06	118.326
5.12861e+06	118.326
5.15822e+06	118.325
5.188e+06	118.325
5.21795e+06	118.325
5.24807e+06	118.325
5.27837e+06	118.324
5.30884e+06	118.324
5.33949e+06	118.324
5.37032e+06	118.324
5.40132e+06	118.324
5.4325e+06	118.323
5.46387e+06	118.323
5.49541e+06	118.323
5.52713e+06	118.323
5.55904e+06	118.322
5.59114e+06	118.322
5.62341e+06	118.322
5.65588e+06	118.322
5.68853e+06	118.321
5.72137e+06	118.321
5.7544e+06	118.321
5.78762e+06	118.321
5.82103e+06	118.321
5.85464e+06	118.32
5.88844e+06	118.32
5.92243e+06	118.32
5.95662e+06	118.32
5.99101e+06	118.32
6.0256e+06	118.319
6.06038e+06	118.319
6.09537e+06	118.319
6.13056e+06	118.319
6.16595e+06	118.319
6.20155e+06	118.318
6.23735e+06	118.318
6.27336e+06	118.318
6.30957e+06	118.318
6.346e+06	118.318
6.38263e+06	118.317
6.41948e+06	118.317
6.45654e+06	118.317
6.49382e+06	118.317
6.53131e+06	118.317
6.56901e+06	118.316
6.60693e+06	118.316
6.64508e+06	118.316
6.68344e+06	118.316
6.72202e+06	118.316
6.76083e+06	118.316
6.79986e+06	118.315
6.83912e+06	118.315
6.8786e+06	118.315
6.91831e+06	118.315
6.95825e+06	118.315
6.99842e+06	118.315
7.03882e+06	118.314
7.07946e+06	118.314
7.12033e+06	118.314
7.16143e+06	118.314
7.20278e+06	118.314
7.24436e+06	118.314
7.28618e+06	118.313
7.32825e+06	118.313
7.37055e+06	118.313
7.4131e+06	118.313
7.4559e+06	118.313
7.49894e+06	118.313
7.54223e+06	118.313
7.58578e+06	118.312
7.62957e+06	118.312
7.67361e+06	118.312
7.71792e+06	118.312
7.76247e+06	118.312
7.80728e+06	118.312
7.85236e+06	118.312
7.89769e+06	118.311
7.94328e+06	118.311
7.98914e+06	118.311
8.03526e+06	118.311
8.08165e+06	118.311
8.12831e+06	118.311
8.17523e+06	118.311
8.22243e+06	118.311
8.2699e+06	118.31
8.31764e+06	118.31
8.36566e+06	118.31
8.41395e+06	118.31
8.46253e+06	118.31
8.51138e+06	118.31
8.56052e+06	118.31
8.60994e+06	118.31
8.65964e+06	118.309
8.70964e+06	118.309
8.75992e+06	118.309
8.81049e+06	118.309
8.86135e+06	118.309
8.91251e+06	118.309
8.96396e+06	118.309
9.01571e+06	118.309
9.06776e+06	118.308
9.12011e+06	118.308
9.17276e+06	118.308
9.22571e+06	118.308
9.27897e+06	118.308
9.33254e+06	118.308
9.38642e+06	118.308
9.44061e+06	118.308
9.49511e+06	118.308
9.54993e+06	118.307
9.60506e+06	118.307
9.66051e+06	118.307
9.71628e+06	118.307
9.77237e+06	118.307
9.82879e+06	118.307
9.88553e+06	118.307
9.9426e+06	118.307
1e+07	118.307
