Stopping power dEdx from Ionisation for He3 Z = 2 in Water, process name: ionIoni
E [MeV]	dEdx [MeV/mm]
0.001	13.5966
0.00100577	13.6367
0.00101158	13.6769
0.00101742	13.7172
0.00102329	13.7577
0.0010292	13.7983
0.00103514	13.839
0.00104112	13.8798
0.00104713	13.9207
0.00105317	13.9618
0.00105925	14.003
0.00106537	14.0443
0.00107152	14.0857
0.00107771	14.1273
0.00108393	14.1689
0.00109018	14.2108
0.00109648	14.2527
0.00110281	14.2947
0.00110917	14.3369
0.00111558	14.3792
0.00112202	14.4217
0.0011285	14.4642
0.00113501	14.5069
0.00114156	14.5498
0.00114815	14.5927
0.00115478	14.6358
0.00116145	14.679
0.00116815	14.7224
0.0011749	14.7658
0.00118168	14.8094
0.0011885	14.8532
0.00119536	14.897
0.00120226	14.941
0.00120921	14.9852
0.00121619	15.0294
0.00122321	15.0738
0.00123027	15.1183
0.00123737	15.163
0.00124451	15.2078
0.0012517	15.2527
0.00125893	15.2978
0.00126619	15.343
0.0012735	15.3883
0.00128086	15.4338
0.00128825	15.4794
0.00129569	15.5252
0.00130317	15.5711
0.00131069	15.6171
0.00131826	15.6632
0.00132587	15.7095
0.00133352	15.756
0.00134122	15.8026
0.00134896	15.8493
0.00135675	15.8962
0.00136458	15.9432
0.00137246	15.9903
0.00138038	16.0376
0.00138835	16.085
0.00139637	16.1326
0.00140443	16.1803
0.00141254	16.2282
0.00142069	16.2762
0.00142889	16.3243
0.00143714	16.3726
0.00144544	16.4211
0.00145378	16.4696
0.00146218	16.5184
0.00147062	16.5673
0.00147911	16.6163
0.00148765	16.6654
0.00149624	16.7148
0.00150487	16.7642
0.00151356	16.8139
0.0015223	16.8636
0.00153109	16.9136
0.00153993	16.9636
0.00154882	17.0138
0.00155776	17.0642
0.00156675	17.1147
0.0015758	17.1654
0.00158489	17.2162
0.00159404	17.2672
0.00160325	17.3184
0.0016125	17.3697
0.00162181	17.4211
0.00163117	17.4727
0.00164059	17.5245
0.00165006	17.5764
0.00165959	17.6284
0.00166917	17.6807
0.0016788	17.7331
0.0016885	17.7856
0.00169824	17.8383
0.00170805	17.8912
0.00171791	17.9442
0.00172783	17.9974
0.0017378	18.0507
0.00174783	18.1042
0.00175792	18.1579
0.00176807	18.2117
0.00177828	18.2657
0.00178855	18.3198
0.00179887	18.3741
0.00180926	18.4286
0.0018197	18.4833
0.00183021	18.5381
0.00184077	18.593
0.0018514	18.6482
0.00186209	18.7035
0.00187284	18.759
0.00188365	18.8146
0.00189452	18.8704
0.00190546	18.9264
0.00191646	18.9825
0.00192752	19.0389
0.00193865	19.0953
0.00194984	19.152
0.0019611	19.2088
0.00197242	19.2658
0.00198381	19.323
0.00199526	19.3803
0.00200678	19.4379
0.00201837	19.4956
0.00203002	19.5534
0.00204174	19.6115
0.00205353	19.6697
0.00206538	19.7281
0.0020773	19.7867
0.0020893	19.8454
0.00210136	19.9043
0.00211349	19.9634
0.00212569	20.0227
0.00213796	20.0822
0.0021503	20.1418
0.00216272	20.2016
0.0021752	20.2617
0.00218776	20.3218
0.00220039	20.3822
0.00221309	20.4428
0.00222587	20.5035
0.00223872	20.5644
0.00225165	20.6255
0.00226464	20.6868
0.00227772	20.7483
0.00229087	20.8099
0.00230409	20.8718
0.00231739	20.9338
0.00233077	20.996
0.00234423	21.0584
0.00235776	21.121
0.00237137	21.1838
0.00238506	21.2468
0.00239883	21.31
0.00241268	21.3733
0.00242661	21.4369
0.00244062	21.5006
0.00245471	21.5646
0.00246888	21.6287
0.00248313	21.693
0.00249747	21.7576
0.00251189	21.8223
0.00252639	21.8872
0.00254097	21.9523
0.00255564	22.0176
0.0025704	22.0831
0.00258523	22.1488
0.00260016	22.2147
0.00261517	22.2808
0.00263027	22.3471
0.00264545	22.4136
0.00266073	22.4803
0.00267609	22.5473
0.00269153	22.6144
0.00270707	22.6817
0.0027227	22.7492
0.00273842	22.8169
0.00275423	22.8849
0.00277013	22.953
0.00278612	23.0213
0.00280221	23.0899
0.00281838	23.1586
0.00283465	23.2276
0.00285102	23.2968
0.00286748	23.3662
0.00288403	23.4358
0.00290068	23.5056
0.00291743	23.5756
0.00293427	23.6458
0.00295121	23.7163
0.00296825	23.7869
0.00298538	23.8578
0.00300262	23.9289
0.00301995	23.985
0.00303739	24.0354
0.00305492	24.1072
0.00307256	24.1793
0.0030903	24.2516
0.00310814	24.3241
0.00312608	24.3968
0.00314413	24.4697
0.00316228	24.5428
0.00318053	24.6162
0.0031989	24.6898
0.00321736	24.7636
0.00323594	24.8376
0.00325462	24.9119
0.00327341	24.9864
0.0032923	25.0611
0.00331131	25.136
0.00333043	25.2112
0.00334965	25.2866
0.00336899	25.3622
0.00338844	25.438
0.003408	25.5141
0.00342768	25.5904
0.00344747	25.6669
0.00346737	25.7437
0.00348739	25.8207
0.00350752	25.8979
0.00352777	25.9754
0.00354813	26.053
0.00356862	26.131
0.00358922	26.2091
0.00360994	26.2875
0.00363078	26.3662
0.00365174	26.4451
0.00367282	26.5242
0.00369403	26.6035
0.00371535	26.6831
0.0037368	26.763
0.00375837	26.843
0.00378007	26.9234
0.00380189	27.0039
0.00382384	27.0847
0.00384592	27.1658
0.00386812	27.2471
0.00389045	27.3286
0.00391291	27.4104
0.0039355	27.4925
0.00395822	27.5747
0.00398107	27.6573
0.00400405	27.7401
0.00402717	27.8231
0.00405042	27.9064
0.0040738	27.99
0.00409732	28.0738
0.00412098	28.1578
0.00414477	28.2421
0.00416869	28.3267
0.00419276	28.4115
0.00421697	28.4966
0.00424131	28.5819
0.0042658	28.6675
0.00429042	28.7534
0.00431519	28.8395
0.0043401	28.9259
0.00436516	29.0125
0.00439036	29.0994
0.0044157	29.1866
0.0044412	29.2741
0.00446684	29.3618
0.00449262	29.4497
0.00451856	29.538
0.00454465	29.6265
0.00457088	29.7153
0.00459727	29.8043
0.00462381	29.8936
0.0046505	29.9832
0.00467735	30.0731
0.00470435	30.1632
0.00473151	30.2536
0.00475883	30.3443
0.0047863	30.4353
0.00481393	30.5265
0.00484172	30.618
0.00486968	30.7098
0.00489779	30.8019
0.00492606	30.8943
0.0049545	30.9869
0.0049831	31.0798
0.00501187	31.173
0.00504081	31.2665
0.00506991	31.3603
0.00509918	31.4543
0.00512861	31.5487
0.00515822	31.6433
0.005188	31.7382
0.00521795	31.8335
0.00524807	31.929
0.00527837	32.0248
0.00530884	32.1208
0.00533949	32.2172
0.00537032	32.3139
0.00540132	32.4109
0.0054325	32.5081
0.00546387	32.6057
0.00549541	32.7036
0.00552713	32.8017
0.00555904	32.9002
0.00559114	32.9989
0.00562341	33.098
0.00565588	33.1974
0.00568853	33.297
0.00572137	33.397
0.0057544	33.4973
0.00578762	33.5979
0.00582103	33.6987
0.00585464	33.7999
0.00588844	33.9015
0.00592243	34.0033
0.00595662	34.1054
0.00599101	34.2078
0.0060256	34.3106
0.00606038	34.4137
0.00609537	34.5171
0.00613056	34.6208
0.00616595	34.7248
0.00620155	34.8291
0.00623735	34.9338
0.00627336	35.0387
0.00630957	35.144
0.006346	35.2496
0.00638263	35.3556
0.00641948	35.4618
0.00645654	35.5684
0.00649382	35.6753
0.00653131	35.7826
0.00656901	35.8902
0.00660693	35.9981
0.00664508	36.1063
0.00668344	36.2148
0.00672202	36.3237
0.00676083	36.433
0.00679986	36.5425
0.00683912	36.6524
0.0068786	36.7627
0.00691831	36.8732
0.00695825	36.9841
0.00699842	37.0954
0.00703882	37.207
0.00707946	37.3189
0.00712033	37.4312
0.00716143	37.5438
0.00720278	37.6567
0.00724436	37.77
0.00728618	37.8837
0.00732825	37.9977
0.00737055	38.112
0.0074131	38.2267
0.0074559	38.3418
0.00749894	38.4572
0.00754223	38.573
0.00758578	38.6891
0.00762957	38.8055
0.00767361	38.9224
0.00771792	39.0395
0.00776247	39.1571
0.00780728	39.275
0.00785236	39.3932
0.00789769	39.5119
0.00794328	39.6308
0.00798914	39.7502
0.00803526	39.8699
0.00808165	39.99
0.00812831	40.1104
0.00817523	40.2313
0.00822243	40.3525
0.0082699	40.474
0.00831764	40.596
0.00836566	40.7183
0.00841395	40.8409
0.00846253	40.964
0.00851138	41.0874
0.00856052	41.2112
0.00860994	41.3354
0.00865964	41.46
0.00870964	41.585
0.00875992	41.7103
0.00881049	41.836
0.00886135	41.9621
0.00891251	42.0886
0.00896396	42.2155
0.00901571	42.3428
0.00906776	42.4705
0.00912011	42.5985
0.00917276	42.7269
0.00922571	42.8558
0.00927897	42.985
0.00933254	43.1146
0.00938642	43.2447
0.00944061	43.3751
0.00949511	43.5059
0.00954993	43.6372
0.00960506	43.7688
0.00966051	43.9008
0.00971628	44.0333
0.00977237	44.1661
0.00982879	44.2993
0.00988553	44.433
0.0099426	44.5671
0.01	44.7016
0.0100577	44.8364
0.0101158	44.9718
0.0101742	45.1075
0.0102329	45.2436
0.010292	45.3802
0.0103514	45.5171
0.0104112	45.6545
0.0104713	45.7923
0.0105317	45.9306
0.0105925	46.0692
0.0106537	46.2083
0.0107152	46.3478
0.0107771	46.4878
0.0108393	46.6281
0.0109018	46.7689
0.0109648	46.9102
0.0110281	47.0518
0.0110917	47.1939
0.0111558	47.3365
0.0112202	47.4794
0.011285	47.6228
0.0113501	47.7667
0.0114156	47.911
0.0114815	48.0557
0.0115478	48.2009
0.0116145	48.3465
0.0116815	48.4926
0.011749	48.6391
0.0118168	48.7861
0.011885	48.9335
0.0119536	49.0813
0.0120226	49.2297
0.0120921	49.3784
0.0121619	49.5277
0.0122321	49.6773
0.0123027	49.8275
0.0123737	49.9781
0.0124451	50.1292
0.012517	50.2807
0.0125893	50.4327
0.0126619	50.5852
0.012735	50.7381
0.0128086	50.8915
0.0128825	51.0454
0.0129569	51.1997
0.0130317	51.3545
0.0131069	51.5098
0.0131826	51.6656
0.0132587	51.8218
0.0133352	51.9785
0.0134122	52.1357
0.0134896	52.2934
0.0135675	52.4516
0.0136458	52.6102
0.0137246	52.7693
0.0138038	52.929
0.0138835	53.0891
0.0139637	53.2497
0.0140443	53.4108
0.0141254	53.5724
0.0142069	53.7344
0.0142889	53.897
0.0143714	54.0601
0.0144544	54.2237
0.0145378	54.3878
0.0146218	54.5523
0.0147062	54.7174
0.0147911	54.883
0.0148765	55.0491
0.0149624	55.2157
0.0150487	55.3828
0.0151356	55.5504
0.015223	55.7186
0.0153109	55.8872
0.0153993	56.0564
0.0154882	56.2261
0.0155776	56.3963
0.0156675	56.567
0.015758	56.7383
0.0158489	56.9101
0.0159404	57.0824
0.0160325	57.2552
0.016125	57.4285
0.0162181	57.6024
0.0163117	57.7769
0.0164059	57.9518
0.0165006	58.1273
0.0165959	58.3033
0.0166917	58.4799
0.016788	58.657
0.016885	58.8346
0.0169824	59.0128
0.0170805	59.1916
0.0171791	59.3708
0.0172783	59.5507
0.017378	59.731
0.0174783	59.912
0.0175792	60.0934
0.0176807	60.2755
0.0177828	60.4581
0.0178855	60.6412
0.0179887	60.8249
0.0180926	61.0092
0.018197	61.194
0.0183021	61.3794
0.0184077	61.5654
0.018514	61.7519
0.0186209	61.939
0.0187284	62.1267
0.0188365	62.3149
0.0189452	62.5038
0.0190546	62.6932
0.0191646	62.8831
0.0192752	63.0737
0.0193865	63.2648
0.0194984	63.4565
0.019611	63.6488
0.0197242	63.8417
0.0198381	64.0352
0.0199526	64.2293
0.0200678	64.4239
0.0201837	64.6192
0.0203002	64.815
0.0204174	65.0115
0.0205353	65.2085
0.0206538	65.4061
0.020773	65.6044
0.020893	65.8032
0.0210136	66.0027
0.0211349	66.2027
0.0212569	66.4034
0.0213796	66.6047
0.021503	66.8066
0.0216272	67.0091
0.021752	67.2122
0.0218776	67.416
0.0220039	67.6203
0.0221309	67.8253
0.0222587	68.0309
0.0223872	68.2371
0.0225165	68.444
0.0226464	68.6515
0.0227772	68.8596
0.0229087	69.0683
0.0230409	69.2777
0.0231739	69.4877
0.0233077	69.6984
0.0234423	69.9097
0.0235776	70.1216
0.0237137	70.3342
0.0238506	70.5474
0.0239883	70.7613
0.0241268	70.9758
0.0242661	71.191
0.0244062	71.4068
0.0245471	71.6233
0.0246888	71.8404
0.0248313	72.0582
0.0249747	72.2766
0.0251189	72.4957
0.0252639	72.7155
0.0254097	72.9359
0.0255564	73.157
0.025704	73.3788
0.0258523	73.6013
0.0260016	73.8244
0.0261517	74.0482
0.0263027	74.2726
0.0264545	74.4978
0.0266073	74.7236
0.0267609	74.9501
0.0269153	75.1773
0.0270707	75.4052
0.027227	75.6337
0.0273842	75.863
0.0275423	76.0929
0.0277013	76.3235
0.0278612	76.5549
0.0280221	76.7869
0.0281838	77.0196
0.0283465	77.253
0.0285102	77.4872
0.0286748	77.722
0.0288403	77.9575
0.0290068	78.1938
0.0291743	78.4308
0.0293427	78.6684
0.0295121	78.9068
0.0296825	79.1459
0.0298538	79.3857
0.0300262	79.6263
0.0301995	79.8675
0.0303739	80.1095
0.0305492	80.3522
0.0307256	80.5956
0.030903	80.8398
0.0310814	81.0847
0.0312608	81.3303
0.0314413	81.5767
0.0316228	81.8238
0.0318053	82.0716
0.031989	82.3202
0.0321736	82.5695
0.0323594	82.8196
0.0325462	83.0704
0.0327341	83.3219
0.032923	83.5742
0.0331131	83.8273
0.0333043	84.0811
0.0334965	84.3357
0.0336899	84.591
0.0338844	84.8471
0.03408	85.1039
0.0342768	85.3615
0.0344747	85.6199
0.0346737	85.8791
0.0348739	86.139
0.0350752	86.3997
0.0352777	86.6611
0.0354813	86.9234
0.0356862	87.1864
0.0358922	87.4502
0.0360994	87.7147
0.0363078	87.9801
0.0365174	88.2462
0.0367282	88.5131
0.0369403	88.7808
0.0371535	89.0493
0.037368	89.3186
0.0375837	89.5887
0.0378007	89.8596
0.0380189	90.1313
0.0382384	90.4038
0.0384592	90.677
0.0386812	90.9511
0.0389045	91.226
0.0391291	91.5017
0.039355	91.7782
0.0395822	92.0555
0.0398107	92.3337
0.0400405	92.6126
0.0402717	92.8924
0.0405042	93.1729
0.040738	93.4543
0.0409732	93.7366
0.0412098	94.0196
0.0414477	94.3035
0.0416869	94.5882
0.0419276	94.8737
0.0421697	95.16
0.0424131	95.4472
0.042658	95.7352
0.0429042	96.0241
0.0431519	96.3138
0.043401	96.6043
0.0436516	96.8957
0.0439036	97.1879
0.044157	97.481
0.044412	97.7749
0.0446684	98.0697
0.0449262	98.3653
0.0451856	98.6617
0.0454465	98.959
0.0457088	99.2572
0.0459727	99.5562
0.0462381	99.8561
0.046505	100.157
0.0467735	100.458
0.0470435	100.761
0.0473151	101.064
0.0475883	101.369
0.047863	101.674
0.0481393	101.98
0.0484172	102.286
0.0486968	102.594
0.0489779	102.903
0.0492606	103.212
0.049545	103.522
0.049831	103.834
0.0501187	104.146
0.0504081	104.459
0.0506991	104.772
0.0509918	105.087
0.0512861	105.403
0.0515822	105.719
0.05188	106.037
0.0521795	106.355
0.0524807	106.674
0.0527837	106.994
0.0530884	107.315
0.0533949	107.637
0.0537032	107.96
0.0540132	108.284
0.054325	108.608
0.0546387	108.934
0.0549541	109.26
0.0552713	109.587
0.0555904	109.916
0.0559114	110.245
0.0562341	110.575
0.0565588	110.906
0.0568853	111.238
0.0572137	111.57
0.057544	111.904
0.0578762	112.239
0.0582103	112.574
0.0585464	112.911
0.0588844	113.248
0.0592243	113.586
0.0595662	113.925
0.0599101	114.265
0.060256	114.606
0.0606038	114.948
0.0609537	115.291
0.0613056	115.635
0.0616595	115.98
0.0620155	116.326
0.0623735	116.672
0.0627336	117.02
0.0630957	117.368
0.06346	117.718
0.0638263	118.068
0.0641948	118.419
0.0645654	118.771
0.0649382	119.124
0.0653131	119.478
0.0656901	119.833
0.0660693	120.189
0.0664508	120.546
0.0668344	120.904
0.0672202	121.263
0.0676083	121.623
0.0679986	121.983
0.0683912	122.345
0.068786	122.707
0.0691831	123.071
0.0695825	123.435
0.0699842	123.8
0.0703882	124.167
0.0707946	124.534
0.0712033	124.902
0.0716143	125.271
0.0720278	125.641
0.0724436	126.012
0.0728618	126.384
0.0732825	126.757
0.0737055	127.131
0.074131	127.506
0.074559	127.881
0.0749894	128.258
0.0754223	128.636
0.0758578	129.014
0.0762957	129.394
0.0767361	129.774
0.0771792	130.155
0.0776247	130.538
0.0780728	130.921
0.0785236	131.305
0.0789769	131.69
0.0794328	132.076
0.0798914	132.463
0.0803526	132.851
0.0808165	133.24
0.0812831	133.63
0.0817523	134.021
0.0822243	134.412
0.082699	134.805
0.0831764	135.199
0.0836566	135.593
0.0841395	135.989
0.0846253	136.385
0.0851138	136.782
0.0856052	137.18
0.0860994	137.579
0.0865964	137.98
0.0870964	138.381
0.0875992	138.782
0.0881049	139.185
0.0886135	139.589
0.0891251	139.994
0.0896396	140.399
0.0901571	140.806
0.0906776	141.213
0.0912011	141.621
0.0917276	142.031
0.0922571	142.441
0.0927897	142.852
0.0933254	143.264
0.0938642	143.676
0.0944061	144.09
0.0949511	144.505
0.0954993	144.92
0.0960506	145.337
0.0966051	145.754
0.0971628	146.172
0.0977237	146.591
0.0982879	147.011
0.0988553	147.432
0.099426	147.854
0.1	148.276
0.100577	148.7
0.101158	149.124
0.101742	149.549
0.102329	149.975
0.10292	150.402
0.103514	150.829
0.104112	151.258
0.104713	151.687
0.105317	152.118
0.105925	152.549
0.106537	152.981
0.107152	153.413
0.107771	153.847
0.108393	154.281
0.109018	154.716
0.109648	155.152
0.110281	155.589
0.110917	156.027
0.111558	156.465
0.112202	156.904
0.11285	157.344
0.113501	157.785
0.114156	158.226
0.114815	158.668
0.115478	159.111
0.116145	159.555
0.116815	160
0.11749	160.445
0.118168	160.891
0.11885	161.338
0.119536	161.785
0.120226	162.233
0.120921	162.682
0.121619	163.132
0.122321	163.582
0.123027	164.033
0.123737	164.485
0.124451	164.937
0.12517	165.39
0.125893	165.844
0.126619	166.298
0.12735	166.753
0.128086	167.209
0.128825	167.665
0.129569	168.122
0.130317	168.58
0.131069	169.038
0.131826	169.497
0.132587	169.956
0.133352	170.416
0.134122	170.877
0.134896	171.338
0.135675	171.799
0.136458	172.262
0.137246	172.724
0.138038	173.188
0.138835	173.651
0.139637	174.116
0.140443	174.58
0.141254	175.046
0.142069	175.511
0.142889	175.978
0.143714	176.444
0.144544	176.912
0.145378	177.379
0.146218	177.847
0.147062	178.316
0.147911	178.784
0.148765	179.254
0.149624	179.723
0.150487	180.193
0.151356	180.664
0.15223	181.134
0.153109	181.605
0.153993	182.076
0.154882	182.548
0.155776	183.02
0.156675	183.492
0.15758	183.965
0.158489	184.437
0.159404	184.91
0.160325	185.384
0.16125	185.857
0.162181	186.33
0.163117	186.804
0.164059	187.278
0.165006	187.752
0.165959	188.226
0.166917	188.701
0.16788	189.175
0.16885	189.65
0.169824	190.124
0.170805	190.599
0.171791	191.074
0.172783	191.548
0.17378	192.023
0.174783	192.498
0.175792	192.973
0.176807	193.447
0.177828	193.922
0.178855	194.396
0.179887	194.871
0.180926	195.345
0.18197	195.819
0.183021	196.293
0.184077	196.767
0.18514	197.241
0.186209	197.714
0.187284	198.187
0.188365	198.66
0.189452	199.133
0.190546	199.605
0.191646	200.078
0.192752	200.549
0.193865	201.021
0.194984	201.492
0.19611	201.962
0.197242	202.433
0.198381	202.902
0.199526	203.372
0.200678	203.841
0.201837	204.309
0.203002	204.777
0.204174	205.244
0.205353	205.711
0.206538	206.177
0.20773	206.642
0.20893	207.107
0.210136	207.571
0.211349	208.035
0.212569	208.497
0.213796	208.959
0.21503	209.421
0.216272	209.881
0.21752	210.341
0.218776	210.8
0.220039	211.258
0.221309	211.715
0.222587	212.171
0.223872	212.626
0.225165	213.08
0.226464	213.533
0.227772	213.985
0.229087	214.436
0.230409	214.886
0.231739	215.335
0.233077	215.783
0.234423	216.23
0.235776	216.675
0.237137	217.119
0.238506	217.562
0.239883	218.004
0.241268	218.444
0.242661	218.883
0.244062	219.321
0.245471	219.757
0.246888	220.192
0.248313	220.625
0.249747	221.057
0.251189	221.487
0.252639	221.916
0.254097	222.343
0.255564	222.768
0.25704	223.192
0.258523	223.614
0.260016	224.035
0.261517	224.454
0.263027	224.871
0.264545	225.286
0.266073	225.699
0.267609	226.11
0.269153	226.52
0.270707	226.927
0.27227	227.333
0.273842	227.736
0.275423	228.138
0.277013	228.537
0.278612	228.935
0.280221	229.33
0.281838	229.723
0.283465	230.113
0.285102	230.502
0.286748	230.888
0.288403	231.272
0.290068	231.654
0.291743	232.033
0.293427	232.409
0.295121	232.784
0.296825	233.155
0.298538	233.525
0.300262	233.891
0.301995	234.255
0.303739	234.617
0.305492	234.975
0.307256	235.331
0.30903	235.684
0.310814	236.035
0.312608	236.382
0.314413	236.727
0.316228	237.069
0.318053	237.408
0.31989	237.744
0.321736	238.077
0.323594	238.407
0.325462	238.734
0.327341	239.057
0.32923	239.378
0.331131	239.695
0.333043	240.009
0.334965	240.32
0.336899	240.628
0.338844	240.932
0.3408	241.233
0.342768	241.53
0.344747	241.824
0.346737	242.115
0.348739	242.402
0.350752	242.685
0.352777	242.965
0.354813	243.241
0.356862	243.514
0.358922	243.783
0.360994	244.048
0.363078	244.309
0.365174	244.567
0.367282	244.82
0.369403	245.07
0.371535	245.316
0.37368	245.558
0.375837	245.796
0.378007	246.03
0.380189	246.26
0.382384	246.485
0.384592	246.707
0.386812	246.925
0.389045	247.138
0.391291	247.347
0.39355	247.552
0.395822	247.752
0.398107	247.948
0.400405	248.14
0.402717	248.328
0.405042	248.511
0.40738	248.689
0.409732	248.863
0.412098	249.033
0.414477	249.198
0.416869	249.358
0.419276	249.514
0.421697	249.665
0.424131	249.812
0.42658	249.954
0.429042	250.091
0.431519	250.223
0.43401	250.35
0.436516	250.473
0.439036	250.591
0.44157	250.704
0.44412	250.812
0.446684	250.915
0.449262	251.013
0.451856	251.106
0.454465	251.195
0.457088	251.278
0.459727	251.356
0.462381	251.429
0.46505	251.497
0.467735	251.56
0.470435	251.617
0.473151	251.67
0.475883	251.717
0.47863	251.759
0.481393	251.796
0.484172	251.828
0.486968	251.854
0.489779	251.875
0.492606	251.891
0.49545	251.901
0.49831	251.906
0.501187	251.906
0.504081	251.9
0.506991	251.889
0.509918	251.872
0.512861	251.85
0.515822	251.823
0.5188	251.79
0.521795	251.752
0.524807	251.708
0.527837	251.659
0.530884	251.604
0.533949	251.544
0.537032	251.478
0.540132	251.406
0.54325	251.329
0.546387	251.247
0.549541	251.159
0.552713	251.065
0.555904	250.966
0.559114	250.861
0.562341	250.751
0.565588	250.635
0.568853	250.514
0.572137	250.386
0.57544	250.254
0.578762	250.115
0.582103	249.971
0.585464	249.822
0.588844	249.667
0.592243	249.506
0.595662	249.34
0.599101	249.168
0.60256	248.99
0.606038	248.807
0.609537	248.619
0.613056	248.425
0.616595	248.225
0.620155	248.019
0.623735	247.808
0.627336	247.592
0.630957	247.37
0.6346	247.142
0.638263	246.909
0.641948	246.671
0.645654	246.427
0.649382	246.177
0.653131	245.922
0.656901	245.662
0.660693	245.396
0.664508	245.125
0.668344	244.848
0.672202	244.566
0.676083	244.278
0.679986	243.985
0.683912	243.687
0.68786	243.384
0.691831	243.075
0.695825	242.761
0.699842	242.441
0.703882	242.117
0.707946	241.787
0.712033	241.452
0.716143	241.112
0.720278	240.767
0.724436	240.416
0.728618	240.061
0.732825	239.7
0.737055	239.335
0.74131	238.964
0.74559	238.588
0.749894	238.208
0.754223	237.822
0.758578	237.432
0.762957	237.037
0.767361	236.637
0.771792	236.232
0.776247	235.823
0.780728	235.408
0.785236	234.989
0.789769	234.566
0.794328	234.138
0.798914	233.705
0.803526	233.268
0.808165	232.826
0.812831	232.379
0.817523	231.929
0.822243	231.473
0.82699	231.014
0.831764	230.55
0.836566	230.082
0.841395	229.61
0.846253	229.133
0.851138	228.653
0.856052	228.168
0.860994	227.679
0.865964	227.186
0.870964	226.689
0.875992	226.189
0.881049	225.684
0.886135	225.175
0.891251	224.663
0.896396	224.147
0.901571	223.627
0.906776	223.104
0.912011	222.577
0.917276	222.047
0.922571	221.512
0.927897	220.975
0.933254	220.434
0.938642	219.89
0.944061	219.342
0.949511	218.791
0.954993	218.237
0.960506	217.68
0.966051	217.119
0.971628	216.556
0.977237	215.989
0.982879	215.42
0.988553	214.847
0.99426	214.272
1	213.694
1.00577	213.113
1.01158	212.53
1.01742	211.944
1.02329	211.355
1.0292	210.763
1.03514	210.17
1.04112	209.573
1.04713	208.975
1.05317	208.374
1.05925	207.77
1.06537	207.165
1.07152	206.557
1.07771	205.947
1.08393	205.335
1.09018	204.721
1.09648	204.105
1.10281	203.487
1.10917	202.868
1.11558	202.246
1.12202	201.623
1.1285	200.998
1.13501	200.371
1.14156	199.743
1.14815	199.113
1.15478	198.482
1.16145	197.849
1.16815	197.215
1.1749	196.58
1.18168	195.943
1.1885	195.305
1.19536	194.666
1.20226	194.026
1.20921	193.385
1.21619	192.742
1.22321	192.099
1.23027	191.455
1.23737	190.81
1.24451	190.164
1.2517	189.517
1.25893	188.87
1.26619	188.222
1.2735	187.573
1.28086	186.924
1.28825	186.275
1.29569	185.624
1.30317	184.974
1.31069	184.323
1.31826	183.672
1.32587	183.02
1.33352	182.368
1.34122	181.716
1.34896	181.064
1.35675	180.412
1.36458	179.76
1.37246	179.108
1.38038	178.456
1.38835	177.803
1.39637	177.152
1.40443	176.5
1.41254	175.848
1.42069	175.197
1.42889	174.546
1.43714	173.896
1.44544	173.246
1.45378	172.596
1.46218	171.947
1.47062	171.298
1.47911	170.65
1.48765	170.002
1.49624	169.355
1.50487	168.709
1.51356	168.064
1.5223	167.419
1.53109	166.775
1.53993	166.132
1.54882	165.49
1.55776	164.848
1.56675	164.208
1.5758	163.569
1.58489	162.93
1.59404	162.293
1.60325	161.657
1.6125	161.021
1.62181	160.387
1.63117	159.755
1.64059	159.123
1.65006	158.493
1.65959	157.863
1.66917	157.236
1.6788	156.609
1.6885	155.984
1.69824	155.36
1.70805	154.738
1.71791	154.117
1.72783	153.497
1.7378	152.879
1.74783	152.263
1.75792	151.648
1.76807	151.035
1.77828	150.423
1.78855	149.813
1.79887	149.204
1.80926	148.597
1.8197	147.992
1.83021	147.389
1.84077	146.787
1.8514	146.187
1.86209	145.589
1.87284	144.992
1.88365	144.398
1.89452	143.805
1.90546	143.214
1.91646	142.625
1.92752	142.038
1.93865	141.452
1.94984	140.869
1.9611	140.287
1.97242	139.708
1.98381	139.13
1.99526	138.555
2.00678	137.981
2.01837	137.409
2.03002	136.84
2.04174	136.272
2.05353	135.706
2.06538	135.143
2.0773	134.581
2.0893	134.022
2.10136	133.464
2.11349	132.909
2.12569	132.356
2.13796	131.805
2.1503	131.256
2.16272	130.709
2.1752	130.164
2.18776	129.622
2.20039	129.081
2.21309	128.543
2.22587	128.007
2.23872	127.473
2.25165	126.941
2.26464	126.411
2.27772	125.883
2.29087	125.358
2.30409	124.835
2.31739	124.314
2.33077	123.795
2.34423	123.278
2.35776	122.764
2.37137	122.252
2.38506	121.742
2.39883	121.234
2.41268	120.728
2.42661	120.224
2.44062	119.723
2.45471	119.224
2.46888	118.727
2.48313	118.232
2.49747	117.74
2.51189	117.249
2.52639	116.761
2.54097	116.275
2.55564	115.792
2.5704	115.31
2.58523	114.83
2.60016	114.353
2.61517	113.878
2.63027	113.405
2.64545	112.934
2.66073	112.466
2.67609	111.999
2.69153	111.535
2.70707	111.073
2.7227	110.613
2.73842	110.155
2.75423	109.699
2.77013	109.246
2.78612	108.794
2.80221	108.345
2.81838	107.898
2.83465	107.453
2.85102	107.01
2.86748	106.569
2.88403	106.13
2.90068	105.693
2.91743	105.258
2.93427	104.826
2.95121	104.395
2.96825	103.966
2.98538	103.54
3.00262	103.115
3.01995	102.693
3.03739	102.272
3.05492	101.854
3.07256	101.438
3.0903	101.023
3.10814	100.611
3.12608	100.2
3.14413	99.7917
3.16228	99.3852
3.18053	98.9806
3.1989	98.5779
3.21736	98.1772
3.23594	97.7783
3.25462	97.3815
3.27341	96.9865
3.2923	96.5934
3.31131	96.2021
3.33043	95.8128
3.34965	95.4253
3.36899	95.0397
3.38844	94.656
3.408	94.274
3.42768	93.8939
3.44747	93.5157
3.46737	93.1392
3.48739	92.7645
3.50752	92.3916
3.52777	92.0205
3.54813	91.6512
3.56862	91.2836
3.58922	90.9178
3.60994	90.5537
3.63078	90.1913
3.65174	89.8307
3.67282	89.4718
3.69403	89.1145
3.71535	88.759
3.7368	88.4051
3.75837	88.0529
3.78007	87.7024
3.80189	87.3535
3.82384	87.0063
3.84592	86.6607
3.86812	86.3182
3.89045	85.9757
3.91291	85.6348
3.9355	85.2955
3.95822	84.9578
3.98107	84.6216
4.00405	84.2871
4.02717	83.9541
4.05042	83.6226
4.0738	83.2927
4.09732	82.9643
4.12098	82.6374
4.14477	82.312
4.16869	81.9881
4.19276	81.6657
4.21697	81.3448
4.24131	81.0253
4.2658	80.7073
4.29042	80.3908
4.31519	80.0756
4.3401	79.7619
4.36516	79.4497
4.39036	79.1388
4.4157	78.8293
4.4412	78.5213
4.46684	78.2146
4.49262	77.9092
4.51856	77.6053
4.54465	77.3027
4.57088	77.0014
4.59727	76.7014
4.62381	76.4028
4.6505	76.1055
4.67735	75.8096
4.70435	75.5149
4.73151	75.2215
4.75883	74.9293
4.7863	74.6385
4.81393	74.3489
4.84172	74.0606
4.86968	73.7735
4.89779	73.4877
4.92606	73.2031
4.9545	72.9197
4.9831	72.6375
5.01187	72.3565
5.04081	72.0768
5.06991	71.7982
5.09918	71.5208
5.12861	71.2446
5.15822	70.9695
5.188	70.6956
5.21795	70.4229
5.24807	70.1513
5.27837	69.8808
5.30884	69.6114
5.33949	69.3432
5.37032	69.0761
5.40132	68.8101
5.4325	68.5452
5.46387	68.2814
5.49541	68.0187
5.52713	67.757
5.55904	67.4964
5.59114	67.2369
5.62341	66.9784
5.65588	66.721
5.68853	66.4647
5.72137	66.2093
5.7544	65.955
5.78762	65.7017
5.82103	65.4495
5.85464	65.1982
5.88844	64.9479
5.92243	64.6987
5.95662	64.4504
5.99101	64.1999
6.0256	63.9317
6.06038	63.6644
6.09537	63.398
6.13056	63.1325
6.16595	62.868
6.20155	62.6043
6.23735	62.347
6.27336	62.0853
6.30957	61.8244
6.346	61.5645
6.38263	61.3054
6.41948	61.0472
6.45654	60.79
6.49382	60.5336
6.53131	60.2781
6.56901	60.0235
6.60693	59.7698
6.64508	59.517
6.68344	59.2766
6.72202	59.0255
6.76083	58.7753
6.79986	58.526
6.83912	58.2776
6.8786	58.03
6.91831	57.7834
6.95825	57.5376
6.99842	57.2927
7.03882	57.0486
7.07946	56.8054
7.12033	56.5631
7.16143	56.3217
7.20278	56.0811
7.24436	55.8414
7.28618	55.6025
7.32825	55.3645
7.37055	55.1274
7.4131	54.8911
7.4559	54.6557
7.49894	54.4211
7.54223	54.0266
7.58578	53.8058
7.62957	53.5715
7.67361	53.3381
7.71792	53.1055
7.76247	52.8738
7.80728	52.643
7.85236	52.413
7.89769	52.1838
7.94328	51.9555
7.98914	51.7281
8.03526	51.5015
8.08165	51.2757
8.12831	51.0507
8.17523	50.8267
8.22243	50.6034
8.2699	50.381
8.31764	50.1594
8.36566	49.9386
8.41395	49.7187
8.46253	49.4995
8.51138	49.2812
8.56052	49.0638
8.60994	48.8471
8.65964	48.6313
8.70964	48.4162
8.75992	48.202
8.81049	47.9886
8.86135	47.7761
8.91251	47.6085
8.96396	47.3973
9.01571	47.1869
9.06776	46.9773
9.12011	46.7686
9.17276	46.5606
9.22571	46.3534
9.27897	46.147
9.33254	45.9415
9.38642	45.7367
9.44061	45.5318
9.49511	45.3286
9.54993	45.1261
9.60506	44.9244
9.66051	44.7235
9.71628	44.5234
9.77237	44.324
9.82879	44.1255
9.88553	43.9277
9.9426	43.7307
10	43.5344
10.0577	43.339
10.1158	43.1443
10.1742	42.9503
10.2329	42.7572
10.292	42.5648
10.3514	42.3731
10.4112	42.1822
10.4713	41.9921
10.5317	41.8043
10.5925	41.622
10.6537	41.4405
10.7152	41.2595
10.7771	41.0792
10.8393	40.8996
10.9018	40.7206
10.9648	40.5423
11.0281	40.3646
11.0917	40.1876
11.1558	40.0112
11.2202	39.8354
11.285	39.6603
11.3501	39.4859
11.4156	39.3121
11.4815	39.1389
11.5478	38.9664
11.6145	38.7946
11.6815	38.6234
11.749	38.4528
11.8168	38.2829
11.885	38.1136
11.9536	37.9449
12.0226	37.777
12.0921	37.6096
12.1619	37.4429
12.2321	37.2768
12.3027	37.1114
12.3737	36.9466
12.4451	36.7824
12.517	36.6189
12.5893	36.456
12.6619	36.2938
12.735	36.1322
12.8086	35.9712
12.8825	35.8108
12.9569	35.6511
13.0317	35.4921
13.1069	35.3336
13.1826	35.1758
13.2587	35.0186
13.3352	34.8621
13.4122	34.7409
13.4896	34.5852
13.5675	34.4301
13.6458	34.2756
13.7246	34.1218
13.8038	33.9686
13.8835	33.816
13.9637	33.6641
14.0443	33.5127
14.1254	33.362
14.2069	33.2119
14.2889	33.0624
14.3714	32.9135
14.4544	32.7653
14.5378	32.6176
14.6218	32.4706
14.7062	32.3241
14.7911	32.1783
14.8765	32.0331
14.9624	31.8885
15.0487	31.7445
15.1356	31.601
15.223	31.4582
15.3109	31.316
15.3993	31.1744
15.4882	31.0334
15.5776	30.8929
15.6675	30.7531
15.758	30.6138
15.8489	30.4752
15.9404	30.3371
16.0325	30.1996
16.125	30.0627
16.2181	29.9263
16.3117	29.7906
16.4059	29.6554
16.5006	29.5208
16.5959	29.3868
16.6917	29.2533
16.788	29.1204
16.885	28.9881
16.9824	28.8563
17.0805	28.7251
17.1791	28.5945
17.2783	28.4644
17.378	28.3349
17.4783	28.206
17.5792	28.0776
17.6807	27.9497
17.7828	27.8224
17.8855	27.6957
17.9887	27.5695
18.0926	27.4438
18.197	27.3187
18.3021	27.1941
18.4077	27.0701
18.514	26.9466
18.6209	26.8237
18.7284	26.7013
18.8365	26.5794
18.9452	26.458
19.0546	26.3372
19.1646	26.2169
19.2752	26.0971
19.3865	25.9778
19.4984	25.8591
19.611	25.7409
19.7242	25.6232
19.8381	25.506
19.9526	25.3894
20.0678	25.2732
20.1837	25.1575
20.3002	25.0424
20.4174	24.9278
20.5353	24.8136
20.6538	24.7
20.773	24.5869
20.893	24.4742
21.0136	24.3621
21.1349	24.2505
21.2569	24.1393
21.3796	24.0287
21.503	23.9185
21.6272	23.8088
21.752	23.6996
21.8776	23.5909
22.0039	23.4826
22.1309	23.3749
22.2587	23.2676
22.3872	23.1608
22.5165	23.0654
22.6464	22.9594
22.7772	22.8538
22.9087	22.7486
23.0409	22.644
23.1739	22.5398
23.3077	22.4361
23.4423	22.3328
23.5776	22.23
23.7137	22.1276
23.8506	22.0258
23.9883	21.9243
24.1268	21.8233
24.2661	21.7228
24.4062	21.6227
24.5471	21.523
24.6888	21.4238
24.8313	21.3251
24.9747	21.2268
25.1189	21.1289
25.2639	21.0315
25.4097	20.9345
25.5564	20.8379
25.704	20.7417
25.8523	20.646
26.0016	20.5508
26.1517	20.4559
26.3027	20.3615
26.4545	20.2675
26.6073	20.1739
26.7609	20.0807
26.9153	19.988
27.0707	19.8956
27.227	19.8037
27.3842	19.7122
27.5423	19.6211
27.7013	19.5304
27.8612	19.4402
28.0221	19.3503
28.1838	19.2608
28.3465	19.1718
28.5102	19.0831
28.6748	18.9948
28.8403	18.907
29.0068	18.8195
29.1743	18.7324
29.3427	18.6457
29.5121	18.5594
29.6825	18.4735
29.8538	18.388
30.0262	18.3029
30.1995	18.2181
30.3739	18.1338
30.5492	18.0498
30.7256	17.9662
30.903	17.8829
31.0814	17.8001
31.2608	17.7176
31.4413	17.6355
31.6228	17.5603
31.8053	17.4788
31.989	17.3978
32.1736	17.317
32.3594	17.2367
32.5462	17.1567
32.7341	17.077
32.923	16.9978
33.1131	16.9188
33.3043	16.8403
33.4965	16.7621
33.6899	16.6842
33.8844	16.6067
34.08	16.5296
34.2768	16.4528
34.4747	16.3764
34.6737	16.3003
34.8739	16.2246
35.0752	16.1492
35.2777	16.0741
35.4813	15.9994
35.6862	15.925
35.8922	15.851
36.0994	15.7773
36.3078	15.7039
36.5174	15.6309
36.7282	15.5582
36.9403	15.4859
37.1535	15.4139
37.368	15.3422
37.5837	15.2708
37.8007	15.1997
38.0189	15.129
38.2384	15.0586
38.4592	14.9886
38.6812	14.9188
38.9045	14.8494
39.1291	14.7803
39.355	14.7115
39.5822	14.643
39.8107	14.5748
40.0405	14.507
40.2717	14.4394
40.5042	14.3722
40.738	14.3053
40.9732	14.2387
41.2098	14.1723
41.4477	14.1063
41.6869	14.0406
41.9276	13.9752
42.1697	13.9101
42.4131	13.8453
42.658	13.7808
42.9042	13.7166
43.1519	13.6527
43.401	13.5891
43.6516	13.5258
43.9036	13.4628
44.157	13.4
44.412	13.3376
44.6684	13.2754
44.9262	13.2135
45.1856	13.1519
45.4465	13.0906
45.7088	13.0296
45.9727	12.9689
46.2381	12.9085
46.505	12.8483
46.7735	12.7885
47.0435	12.7289
47.3151	12.6695
47.5883	12.6105
47.863	12.5517
48.1393	12.4932
48.4172	12.4349
48.6968	12.377
48.9779	12.3193
49.2606	12.2618
49.545	12.2047
49.831	12.1477
50.1187	12.0911
50.4081	12.0347
50.6991	11.9786
50.9918	11.9227
51.2861	11.8671
51.5822	11.8118
51.88	11.7567
52.1795	11.7019
52.4807	11.6473
52.7837	11.593
53.0884	11.5389
53.3949	11.4851
53.7032	11.4315
54.0132	11.3782
54.325	11.3251
54.6387	11.2723
54.9541	11.2197
55.2713	11.1673
55.5904	11.1152
55.9114	11.0634
56.2341	11.0118
56.5588	10.9604
56.8853	10.9093
57.2137	10.8584
57.544	10.8077
57.8762	10.7573
58.2103	10.7071
58.5464	10.6571
58.8844	10.6074
59.2243	10.5579
59.5662	10.5087
59.9101	10.4596
60.256	10.4108
60.6038	10.3623
60.9537	10.3139
61.3056	10.2658
61.6595	10.2179
62.0155	10.1702
62.3735	10.1228
62.7336	10.0755
63.0957	10.0285
63.46	9.98174
63.8263	9.93517
64.1948	9.88882
64.5654	9.84268
64.9382	9.79676
65.3131	9.75106
65.6901	9.70557
66.0693	9.6603
66.4508	9.61524
66.8344	9.57038
67.2202	9.52574
67.6083	9.48131
67.9986	9.43709
68.3912	9.39307
68.786	9.34926
69.1831	9.30566
69.5825	9.26226
69.9842	9.21907
70.3882	9.17608
70.7946	9.13329
71.2033	9.0907
71.6143	9.04832
72.0278	9.00613
72.4436	8.96414
72.8618	8.92235
73.2825	8.88076
73.7055	8.83936
74.131	8.79816
74.559	8.75715
74.9894	8.71634
75.4223	8.67571
75.8578	8.63528
76.2957	8.59505
76.7361	8.555
77.1792	8.51514
77.6247	8.47547
78.0728	8.43598
78.5236	8.39669
78.9769	8.35758
79.4328	8.31865
79.8914	8.27991
80.3526	8.24135
80.8165	8.20298
81.2831	8.16478
81.7523	8.12677
82.2243	8.08894
82.699	8.05129
83.1764	8.01381
83.6566	7.97652
84.1395	7.9394
84.6253	7.90245
85.1138	7.86569
85.6052	7.82909
86.0994	7.79268
86.5964	7.75643
87.0964	7.72036
87.5992	7.68446
88.1049	7.64873
88.6135	7.61316
89.1251	7.57777
89.6396	7.54255
90.1571	7.5075
90.6776	7.47261
91.2011	7.43789
91.7276	7.40333
92.2571	7.36894
92.7897	7.33471
93.3254	7.30065
93.8642	7.26675
94.4061	7.23301
94.9511	7.19943
95.4993	7.16601
96.0506	7.13275
96.6051	7.09966
97.1628	7.06671
97.7237	7.03393
98.2879	7.0013
98.8553	6.96883
99.426	6.93652
100	6.90436
100.577	6.87235
101.158	6.8405
101.742	6.8088
102.329	6.77725
102.92	6.74586
103.514	6.71461
104.112	6.68351
104.713	6.65257
105.317	6.62177
105.925	6.59112
106.537	6.56062
107.152	6.53026
107.771	6.50005
108.393	6.46998
109.018	6.44006
109.648	6.41028
110.281	6.38065
110.917	6.35116
111.558	6.32181
112.202	6.2926
112.85	6.26354
113.501	6.23461
114.156	6.20582
114.815	6.17717
115.478	6.14866
116.145	6.12029
116.815	6.09205
117.49	6.06395
118.168	6.03599
118.85	6.00816
119.536	5.98047
120.226	5.95289
120.921	5.92547
121.619	5.89817
122.321	5.87101
123.027	5.84398
123.737	5.81708
124.451	5.79031
125.17	5.76367
125.893	5.73715
126.619	5.71077
127.35	5.68452
128.086	5.65839
128.825	5.63239
129.569	5.60651
130.317	5.58076
131.069	5.55514
131.826	5.52963
132.587	5.50426
133.352	5.479
134.122	5.45387
134.896	5.42886
135.675	5.40398
136.458	5.37921
137.246	5.35457
138.038	5.33004
138.835	5.30563
139.637	5.28135
140.443	5.25718
141.254	5.23312
142.069	5.20919
142.889	5.18537
143.714	5.16167
144.544	5.13808
145.378	5.11461
146.218	5.09126
147.062	5.06801
147.911	5.04488
148.765	5.02187
149.624	4.99896
150.487	4.97617
151.356	4.95349
152.23	4.93092
153.109	4.90846
153.993	4.88611
154.882	4.86387
155.776	4.84174
156.675	4.81972
157.58	4.7978
158.489	4.776
159.404	4.7543
160.325	4.7327
161.25	4.71121
162.181	4.68983
163.117	4.66855
164.059	4.64738
165.006	4.62631
165.959	4.60534
166.917	4.58448
167.88	4.56372
168.85	4.54306
169.824	4.5225
170.805	4.50204
171.791	4.48169
172.783	4.46143
173.78	4.44128
174.783	4.42122
175.792	4.40126
176.807	4.3814
177.828	4.36164
178.855	4.34198
179.887	4.32241
180.926	4.30294
181.97	4.28356
183.021	4.26428
184.077	4.2451
185.14	4.22601
186.209	4.20701
187.284	4.18811
188.365	4.16931
189.452	4.15059
190.546	4.13197
191.646	4.11344
192.752	4.095
193.865	4.07665
194.984	4.0584
196.11	4.04023
197.242	4.02215
198.381	4.00417
199.526	3.98627
200.678	3.96846
201.837	3.95074
203.002	3.93311
204.174	3.91556
205.353	3.89811
206.538	3.88074
207.73	3.86345
208.93	3.84625
210.136	3.82914
211.349	3.81211
212.569	3.79517
213.796	3.77831
215.03	3.76153
216.272	3.74484
217.52	3.72823
218.776	3.71171
220.039	3.69526
221.309	3.6789
222.587	3.66262
223.872	3.64642
225.165	3.6303
226.464	3.61427
227.772	3.59831
229.087	3.58243
230.409	3.56663
231.739	3.55091
233.077	3.53527
234.423	3.51971
235.776	3.50422
237.137	3.48881
238.506	3.47348
239.883	3.45823
241.268	3.44305
242.661	3.42795
244.062	3.41293
245.471	3.39798
246.888	3.3831
248.313	3.3683
249.747	3.35357
251.189	3.33892
252.639	3.32434
254.097	3.30984
255.564	3.2954
257.04	3.28104
258.523	3.26675
260.016	3.25254
261.517	3.23839
263.027	3.22432
264.545	3.21032
266.073	3.19638
267.609	3.18252
269.153	3.16873
270.707	3.15501
272.27	3.14135
273.842	3.12777
275.423	3.11425
277.013	3.10081
278.612	3.08743
280.221	3.07411
281.838	3.06087
283.465	3.04769
285.102	3.03458
286.748	3.02153
288.403	3.00855
290.068	2.99564
291.743	2.98279
293.427	2.97001
295.121	2.95729
296.825	2.94464
298.538	2.93205
300.262	2.91952
301.995	2.90706
303.739	2.89466
305.492	2.88233
307.256	2.87005
309.03	2.85784
310.814	2.84569
312.608	2.83361
314.413	2.82158
316.228	2.80962
318.053	2.79772
319.89	2.78587
321.736	2.77409
323.594	2.76237
325.462	2.75071
327.341	2.7391
329.23	2.72756
331.131	2.71607
333.043	2.70465
334.965	2.69328
336.899	2.68197
338.844	2.67072
340.8	2.65953
342.768	2.64839
344.747	2.63731
346.737	2.62629
348.739	2.61532
350.752	2.60441
352.777	2.59355
354.813	2.58276
356.862	2.57201
358.922	2.56132
360.994	2.55069
363.078	2.54011
365.174	2.52959
367.282	2.51912
369.403	2.5087
371.535	2.49834
373.68	2.48803
375.837	2.47777
378.007	2.46757
380.189	2.45742
382.384	2.44732
384.592	2.43727
386.812	2.42728
389.045	2.41734
391.291	2.40745
393.55	2.3976
395.822	2.38782
398.107	2.37808
400.405	2.36839
402.717	2.35875
405.042	2.34916
407.38	2.33962
409.732	2.33013
412.098	2.32069
414.477	2.3113
416.869	2.30196
419.276	2.29267
421.697	2.28342
424.131	2.27423
426.58	2.26508
429.042	2.25597
431.519	2.24692
434.01	2.23791
436.516	2.22895
439.036	2.22004
441.57	2.21117
444.12	2.20235
446.684	2.19358
449.262	2.18485
451.856	2.17616
454.465	2.16753
457.088	2.15893
459.727	2.15039
462.381	2.14188
465.05	2.13343
467.735	2.12501
470.435	2.11664
473.151	2.10832
475.883	2.10003
478.63	2.0918
481.393	2.0836
484.172	2.07545
486.968	2.06734
489.779	2.05927
492.606	2.05125
495.45	2.04327
498.31	2.03533
501.187	2.02743
504.081	2.01957
506.991	2.01176
509.918	2.00398
512.861	1.99625
515.822	1.98856
518.8	1.98091
521.795	1.9733
524.807	1.96573
527.837	1.9582
530.884	1.95071
533.949	1.94326
537.032	1.93585
540.132	1.92848
543.25	1.92115
546.387	1.91386
549.541	1.9066
552.713	1.89939
555.904	1.89221
559.114	1.88507
562.341	1.87797
565.588	1.87091
568.853	1.86388
572.137	1.8569
575.44	1.84995
578.762	1.84303
582.103	1.83616
585.464	1.82932
588.844	1.82252
592.243	1.81575
595.662	1.80902
599.101	1.80233
602.56	1.79567
606.038	1.78905
609.537	1.78247
613.056	1.77592
616.595	1.7694
620.155	1.76292
623.735	1.75648
627.336	1.75007
630.957	1.74369
634.6	1.73735
638.263	1.73105
641.948	1.72478
645.654	1.71854
649.382	1.71233
653.131	1.70616
656.901	1.70003
660.693	1.69392
664.508	1.68785
668.344	1.68182
672.202	1.67581
676.083	1.66984
679.986	1.6639
683.912	1.65799
687.86	1.65212
691.831	1.64628
695.825	1.64047
699.842	1.63469
703.882	1.62894
707.946	1.62323
712.033	1.61754
716.143	1.61189
720.278	1.60627
724.436	1.60068
728.618	1.59512
732.825	1.58959
737.055	1.58409
741.31	1.57862
745.59	1.57319
749.894	1.56778
754.223	1.5624
758.578	1.55705
762.957	1.55173
767.361	1.54645
771.792	1.54119
776.247	1.53596
780.728	1.53076
785.236	1.52558
789.769	1.52044
794.328	1.51533
798.914	1.51024
803.526	1.50518
808.165	1.50015
812.831	1.49515
817.523	1.49018
822.243	1.48523
826.99	1.48032
831.764	1.47543
836.566	1.47056
841.395	1.46573
846.253	1.46092
851.138	1.45614
856.052	1.45139
860.994	1.44666
865.964	1.44196
870.964	1.43729
875.992	1.43264
881.049	1.42802
886.135	1.42343
891.251	1.41886
896.396	1.41432
901.571	1.4098
906.776	1.40531
912.011	1.40085
917.276	1.39641
922.571	1.39199
927.897	1.3876
933.254	1.38324
938.642	1.3789
944.061	1.37459
949.511	1.3703
954.993	1.36604
960.506	1.3618
966.051	1.35758
971.628	1.35339
977.237	1.34923
982.879	1.34509
988.553	1.34097
994.26	1.33687
1000	1.3328
1005.77	1.32876
1011.58	1.32474
1017.42	1.32074
1023.29	1.31676
1029.2	1.31281
1035.14	1.30888
1041.12	1.30497
1047.13	1.30109
1053.17	1.29723
1059.25	1.29339
1065.37	1.28957
1071.52	1.28578
1077.71	1.28201
1083.93	1.27826
1090.18	1.27454
1096.48	1.27083
1102.81	1.26715
1109.17	1.26349
1115.58	1.25985
1122.02	1.25623
1128.5	1.25264
1135.01	1.24907
1141.56	1.24551
1148.15	1.24198
1154.78	1.23847
1161.45	1.23499
1168.15	1.23152
1174.9	1.22807
1181.68	1.22465
1188.5	1.22124
1195.36	1.21786
1202.26	1.21449
1209.21	1.21115
1216.19	1.20783
1223.21	1.20452
1230.27	1.20124
1237.37	1.19798
1244.51	1.19473
1251.7	1.19151
1258.93	1.18831
1266.19	1.18512
1273.5	1.18196
1280.86	1.17882
1288.25	1.17569
1295.69	1.17259
1303.17	1.1695
1310.69	1.16643
1318.26	1.16338
1325.87	1.16036
1333.52	1.15735
1341.22	1.15435
1348.96	1.15138
1356.75	1.14843
1364.58	1.14549
1372.46	1.14257
1380.38	1.13968
1388.35	1.1368
1396.37	1.13393
1404.43	1.13109
1412.54	1.12826
1420.69	1.12546
1428.89	1.12266
1437.14	1.11989
1445.44	1.11714
1453.78	1.1144
1462.18	1.11168
1470.62	1.10898
1479.11	1.10629
1487.65	1.10363
1496.24	1.10098
1504.87	1.09834
1513.56	1.09573
1522.3	1.09313
1531.09	1.09055
1539.93	1.08798
1548.82	1.08543
1557.76	1.0829
1566.75	1.08039
1575.8	1.07789
1584.89	1.07541
1594.04	1.07294
1603.25	1.07049
1612.5	1.06806
1621.81	1.06564
1631.17	1.06324
1640.59	1.06086
1650.06	1.05849
1659.59	1.05614
1669.17	1.0538
1678.8	1.05148
1688.5	1.04917
1698.24	1.04688
1708.05	1.04461
1717.91	1.04235
1727.83	1.04011
1737.8	1.03788
1747.83	1.03566
1757.92	1.03347
1768.07	1.03128
1778.28	1.02912
1788.55	1.02696
1798.87	1.02483
1809.26	1.0227
1819.7	1.02059
1830.21	1.0185
1840.77	1.01642
1851.4	1.01436
1862.09	1.01231
1872.84	1.01027
1883.65	1.00825
1894.52	1.00625
1905.46	1.00425
1916.46	1.00227
1927.52	1.00031
1938.65	0.998361
1949.84	0.996425
1961.1	0.994502
1972.42	0.992594
1983.81	0.9907
1995.26	0.988819
2006.78	0.986952
2018.37	0.985098
2030.02	0.983259
2041.74	0.981432
2053.53	0.979619
2065.38	0.97782
2077.3	0.976033
2089.3	0.97426
2101.36	0.972501
2113.49	0.970754
2125.69	0.96902
2137.96	0.9673
2150.3	0.965592
2162.72	0.963898
2175.2	0.962216
2187.76	0.960547
2200.39	0.95889
2213.09	0.957247
2225.87	0.955616
2238.72	0.953997
2251.65	0.952391
2264.64	0.950797
2277.72	0.949216
2290.87	0.947647
2304.09	0.946091
2317.39	0.944547
2330.77	0.943014
2344.23	0.941494
2357.76	0.939986
2371.37	0.93849
2385.06	0.937006
2398.83	0.935534
2412.68	0.934074
2426.61	0.932625
2440.62	0.931188
2454.71	0.929763
2468.88	0.92835
2483.13	0.926948
2497.47	0.925558
2511.89	0.924179
2526.39	0.922811
2540.97	0.921455
2555.64	0.92011
2570.4	0.918777
2585.23	0.917455
2600.16	0.916144
2615.17	0.914844
2630.27	0.913555
2645.45	0.912277
2660.73	0.91101
2676.09	0.909754
2691.53	0.908509
2707.07	0.907274
2722.7	0.906051
2738.42	0.904838
2754.23	0.903636
2770.13	0.902444
2786.12	0.901262
2802.21	0.900048
2818.38	0.898843
2834.65	0.897648
2851.02	0.896463
2867.48	0.895288
2884.03	0.894123
2900.68	0.892968
2917.43	0.891823
2934.27	0.890687
2951.21	0.889561
2968.25	0.888445
2985.38	0.887338
3002.62	0.88624
3019.95	0.885153
3037.39	0.884074
3054.92	0.883006
3072.56	0.881946
3090.3	0.880896
3108.14	0.879855
3126.08	0.878823
3144.13	0.877801
3162.28	0.876787
3180.53	0.875783
3198.9	0.874788
3217.36	0.873802
3235.94	0.872824
3254.62	0.871856
3273.41	0.870897
3292.3	0.869946
3311.31	0.869004
3330.43	0.868071
3349.65	0.867147
3368.99	0.866231
3388.44	0.865324
3408	0.864426
3427.68	0.863536
3447.47	0.862655
3467.37	0.861782
3487.39	0.860917
3507.52	0.860061
3527.77	0.859214
3548.13	0.858374
3568.62	0.857543
3589.22	0.85672
3609.94	0.855905
3630.78	0.855099
3651.74	0.8543
3672.82	0.85351
3694.03	0.852728
3715.35	0.851953
3736.8	0.851187
3758.37	0.850428
3780.07	0.849677
3801.89	0.848934
3823.84	0.848199
3845.92	0.847472
3868.12	0.846752
3890.45	0.84604
3912.91	0.845336
3935.5	0.844639
3958.22	0.84395
3981.07	0.843269
4004.05	0.842594
4027.17	0.841928
4050.42	0.841268
4073.8	0.840616
4097.32	0.839972
4120.98	0.839335
4144.77	0.838704
4168.69	0.838082
4192.76	0.837466
4216.97	0.836858
4241.31	0.836256
4265.8	0.835662
4290.42	0.835075
4315.19	0.834494
4340.1	0.833921
4365.16	0.833355
4390.36	0.832795
4415.7	0.832242
4441.2	0.831697
4466.84	0.831158
4492.62	0.830625
4518.56	0.8301
4544.65	0.829581
4570.88	0.829069
4597.27	0.828563
4623.81	0.828064
4650.5	0.827572
4677.35	0.827086
4704.35	0.826606
4731.51	0.826133
4758.83	0.825667
4786.3	0.825206
4813.93	0.824752
4841.72	0.824305
4869.68	0.823863
4897.79	0.823428
4926.06	0.822999
4954.5	0.822577
4983.1	0.82216
5011.87	0.82175
5040.81	0.821345
5069.91	0.820947
5099.18	0.820554
5128.61	0.820168
5158.22	0.819788
5188	0.819413
5217.95	0.819044
5248.07	0.818682
5278.37	0.818324
5308.84	0.817973
5339.49	0.817628
5370.32	0.817288
5401.32	0.816954
5432.5	0.816625
5463.87	0.816303
5495.41	0.815985
5527.13	0.815674
5559.04	0.815368
5591.14	0.815067
5623.41	0.814772
5655.88	0.814482
5688.53	0.814198
5721.37	0.813919
5754.4	0.813645
5787.62	0.813377
5821.03	0.813114
5854.64	0.812856
5888.44	0.812603
5922.43	0.812356
5956.62	0.812114
5991.01	0.811877
6025.6	0.811645
6060.38	0.811418
6095.37	0.811196
6130.56	0.810979
6165.95	0.810767
6201.55	0.810561
6237.35	0.810359
6273.36	0.810162
6309.57	0.809969
6346	0.809782
6382.63	0.8096
6419.48	0.809422
6456.54	0.809249
6493.82	0.809081
6531.31	0.808917
6569.01	0.808758
6606.93	0.808604
6645.08	0.808454
6683.44	0.808309
6722.02	0.808169
6760.83	0.808033
6799.86	0.807901
6839.12	0.807774
6878.6	0.807652
6918.31	0.807534
6958.25	0.80742
6998.42	0.807311
7038.82	0.807206
7079.46	0.807105
7120.33	0.807008
7161.43	0.806916
7202.78	0.806828
7244.36	0.806745
7286.18	0.806665
7328.25	0.80659
7370.55	0.806519
7413.1	0.806451
7455.9	0.806388
7498.94	0.806329
7542.23	0.806274
7585.78	0.806224
7629.57	0.806177
7673.61	0.806133
7717.92	0.806094
7762.47	0.806059
7807.28	0.806028
7852.36	0.806
7897.69	0.805977
7943.28	0.805957
7989.14	0.805941
8035.26	0.805928
8081.65	0.80592
8128.31	0.805915
8175.23	0.805914
8222.43	0.805916
8269.9	0.805922
8317.64	0.805932
8365.66	0.805945
8413.95	0.805962
8462.53	0.805982
8511.38	0.806006
8560.52	0.806033
8609.94	0.806064
8659.64	0.806098
8709.64	0.806136
8759.92	0.806177
8810.49	0.806221
8861.35	0.806269
8912.51	0.80632
8963.96	0.806374
9015.71	0.806432
9067.76	0.806493
9120.11	0.806557
9172.76	0.806624
9225.71	0.806695
9278.97	0.806768
9332.54	0.806845
9386.42	0.806925
9440.61	0.807008
9495.11	0.807094
9549.93	0.807184
9605.06	0.807276
9660.51	0.807371
9716.28	0.807469
9772.37	0.80757
9828.79	0.807675
9885.53	0.807782
9942.6	0.807892
10000	0.808004
10057.7	0.80812
10115.8	0.808239
10174.2	0.80836
10232.9	0.808484
10292	0.808611
10351.4	0.808741
10411.2	0.808873
10471.3	0.809009
10531.7	0.809147
10592.5	0.809287
10653.7	0.80943
10715.2	0.809576
10777.1	0.809725
10839.3	0.809876
10901.8	0.81003
10964.8	0.810186
11028.1	0.810345
11091.7	0.810506
11155.8	0.81067
11220.2	0.810836
11285	0.811005
11350.1	0.811176
11415.6	0.81135
11481.5	0.811526
11547.8	0.811704
11614.5	0.811885
11681.5	0.812068
11749	0.812253
11816.8	0.812441
11885	0.812631
11953.6	0.812824
12022.6	0.813018
12092.1	0.813215
12161.9	0.813414
12232.1	0.813616
12302.7	0.813819
12373.7	0.814025
12445.1	0.814233
12517	0.814443
12589.3	0.814655
12661.9	0.814869
12735	0.815085
12808.6	0.815304
12882.5	0.815524
12956.9	0.815747
13031.7	0.815971
13106.9	0.816198
13182.6	0.816426
13258.7	0.816657
13335.2	0.816889
13412.2	0.817123
13489.6	0.81736
13567.5	0.817598
13645.8	0.817838
13724.6	0.81808
13803.8	0.818323
13883.5	0.818569
13963.7	0.818816
14044.3	0.819066
14125.4	0.819317
14206.9	0.819569
14288.9	0.819824
14371.4	0.82008
14454.4	0.820338
14537.8	0.820598
14621.8	0.82086
14706.2	0.821123
14791.1	0.821388
14876.5	0.821654
14962.4	0.821922
15048.7	0.822192
15135.6	0.822463
15223	0.822736
15310.9	0.823011
15399.3	0.823287
15488.2	0.823565
15577.6	0.823844
15667.5	0.824125
15758	0.824407
15848.9	0.824691
15940.4	0.824976
16032.5	0.825262
16125	0.825551
16218.1	0.82584
16311.7	0.826131
16405.9	0.826424
16500.6	0.826718
16595.9	0.827013
16691.7	0.827309
16788	0.827607
16885	0.827907
16982.4	0.828207
17080.5	0.82851
17179.1	0.828813
17278.3	0.829117
17378	0.829423
17478.3	0.829731
17579.2	0.830039
17680.7	0.830349
17782.8	0.83066
17885.5	0.830972
17988.7	0.831285
18092.6	0.8316
18197	0.831916
18302.1	0.832233
18407.7	0.832551
18514	0.83287
18620.9	0.83319
18728.4	0.833512
18836.5	0.833835
18945.2	0.834158
19054.6	0.834483
19164.6	0.834809
19275.2	0.835136
19386.5	0.835464
19498.4	0.835793
19611	0.836124
19724.2	0.836455
19838.1	0.836787
19952.6	0.83712
20067.8	0.837455
20183.7	0.83779
20300.2	0.838126
20417.4	0.838463
20535.3	0.838801
20653.8	0.83914
20773	0.839481
20893	0.839821
21013.6	0.840163
21134.9	0.840506
21256.9	0.84085
21379.6	0.841194
21503	0.84154
21627.2	0.841886
21752	0.842233
21877.6	0.842581
22003.9	0.84293
22130.9	0.84328
22258.7	0.84363
22387.2	0.843981
22516.5	0.844333
22646.4	0.844686
22777.2	0.84504
22908.7	0.845394
23040.9	0.845749
23173.9	0.846105
23307.7	0.846462
23442.3	0.846819
23577.6	0.847177
23713.7	0.847536
23850.6	0.847896
23988.3	0.848256
24126.8	0.848617
24266.1	0.848979
24406.2	0.849341
24547.1	0.849704
24688.8	0.850068
24831.3	0.850432
24974.7	0.850797
25118.9	0.851162
25263.9	0.851529
25409.7	0.851895
25556.4	0.852263
25704	0.852631
25852.3	0.852999
26001.6	0.853369
26151.7	0.853738
26302.7	0.854109
26454.5	0.85448
26607.3	0.854851
26760.9	0.855223
26915.3	0.855596
27070.7	0.855969
27227	0.856342
27384.2	0.856716
27542.3	0.857091
27701.3	0.857466
27861.2	0.857842
28022.1	0.858218
28183.8	0.858595
28346.5	0.858972
28510.2	0.859349
28674.8	0.859727
28840.3	0.860106
29006.8	0.860485
29174.3	0.860864
29342.7	0.861244
29512.1	0.861624
29682.5	0.862005
29853.8	0.862386
30026.2	0.862767
30199.5	0.863149
30373.9	0.863532
30549.2	0.863914
30725.6	0.864297
30903	0.864681
31081.4	0.865065
31260.8	0.865449
31441.3	0.865834
31622.8	0.866219
31805.3	0.866604
31989	0.866989
32173.6	0.867375
32359.4	0.867762
32546.2	0.868148
32734.1	0.868535
32923	0.868923
33113.1	0.86931
33304.3	0.869698
33496.5	0.870086
33689.9	0.870475
33884.4	0.870864
34080	0.871253
34276.8	0.871642
34474.7	0.872032
34673.7	0.872422
34873.9	0.872812
35075.2	0.873202
35277.7	0.873593
35481.3	0.873984
35686.2	0.874375
35892.2	0.874766
36099.4	0.875158
36307.8	0.87555
36517.4	0.875942
36728.2	0.876334
36940.3	0.876727
37153.5	0.87712
37368	0.877513
37583.7	0.877906
37800.7	0.878299
38018.9	0.878693
38238.4	0.879086
38459.2	0.87948
38681.2	0.879874
38904.5	0.880269
39129.1	0.880663
39355	0.881058
39582.2	0.881453
39810.7	0.881848
40040.5	0.882243
40271.7	0.882638
40504.2	0.883033
40738	0.883429
40973.2	0.883825
41209.8	0.884221
41447.7	0.884617
41686.9	0.885013
41927.6	0.885409
42169.7	0.885805
42413.1	0.886202
42658	0.886598
42904.2	0.886995
43151.9	0.887392
43401	0.887789
43651.6	0.888186
43903.6	0.888583
44157	0.88898
44412	0.889377
44668.4	0.889775
44926.2	0.890172
45185.6	0.89057
45446.5	0.890967
45708.8	0.891365
45972.7	0.891763
46238.1	0.892161
46505	0.892559
46773.5	0.892957
47043.5	0.893355
47315.1	0.893753
47588.3	0.894151
47863	0.894549
48139.3	0.894947
48417.2	0.895346
48696.8	0.895744
48977.9	0.896142
49260.6	0.896541
49545	0.896939
49831	0.897338
50118.7	0.897736
50408.1	0.898135
50699.1	0.898533
50991.8	0.898932
51286.1	0.89933
51582.2	0.899729
51880	0.900128
52179.5	0.900526
52480.7	0.900925
52783.7	0.901323
53088.4	0.901722
53394.9	0.902121
53703.2	0.902519
54013.2	0.902918
54325	0.903317
54638.7	0.903715
54954.1	0.904114
55271.3	0.904512
55590.4	0.904911
55911.4	0.90531
56234.1	0.905708
56558.8	0.906107
56885.3	0.906505
57213.7	0.906904
57544	0.907302
57876.2	0.9077
58210.3	0.908099
58546.4	0.908497
58884.4	0.908895
59224.3	0.909294
59566.2	0.909692
59910.1	0.91009
60256	0.910488
60603.8	0.910886
60953.7	0.911284
61305.6	0.911683
61659.5	0.91208
62015.5	0.912478
62373.5	0.912876
62733.6	0.913274
63095.7	0.913672
63460	0.914069
63826.3	0.914467
64194.8	0.914865
64565.4	0.915262
64938.2	0.91566
65313.1	0.916057
65690.1	0.916454
66069.3	0.916852
66450.8	0.917249
66834.4	0.917646
67220.2	0.918043
67608.3	0.91844
67998.6	0.918837
68391.2	0.919233
68786	0.91963
69183.1	0.920027
69582.5	0.920423
69984.2	0.92082
70388.2	0.921216
70794.6	0.921612
71203.3	0.922009
71614.3	0.922405
72027.8	0.922801
72443.6	0.923197
72861.8	0.923593
73282.5	0.923988
73705.5	0.924384
74131	0.92478
74559	0.925175
74989.4	0.925571
75422.3	0.925966
75857.8	0.926361
76295.7	0.926756
76736.1	0.927151
77179.2	0.927546
77624.7	0.927941
78072.8	0.928336
78523.6	0.92873
78976.9	0.929125
79432.8	0.929519
79891.4	0.929913
80352.6	0.930308
80816.5	0.930702
81283.1	0.931096
81752.3	0.931489
82224.3	0.931883
82699	0.932277
83176.4	0.93267
83656.6	0.933064
84139.5	0.933457
84625.3	0.93385
85113.8	0.934243
85605.2	0.934636
86099.4	0.935029
86596.4	0.935422
87096.4	0.935814
87599.2	0.936207
88104.9	0.936599
88613.5	0.936991
89125.1	0.937384
89639.6	0.937776
90157.1	0.938167
90677.6	0.938559
91201.1	0.938951
91727.6	0.939342
92257.1	0.939734
92789.7	0.940125
93325.4	0.940516
93864.2	0.940907
94406.1	0.941298
94951.1	0.941689
95499.3	0.94208
96050.6	0.94247
96605.1	0.94286
97162.8	0.943251
97723.7	0.943641
98287.9	0.944031
98855.3	0.944421
99426	0.944811
100000	0.9452
100577	0.94559
101158	0.945979
101742	0.946368
102329	0.946757
102920	0.947146
103514	0.947535
104112	0.947924
104713	0.948313
105317	0.948701
105925	0.949089
106537	0.949478
107152	0.949866
107771	0.950254
108393	0.950642
109018	0.951029
109648	0.951417
110281	0.951804
110917	0.952192
111558	0.952579
112202	0.952966
112850	0.953353
113501	0.953739
114156	0.954126
114815	0.954513
115478	0.954899
116145	0.955285
116815	0.955671
117490	0.956057
118168	0.956443
118850	0.956829
119536	0.957214
120226	0.9576
120921	0.957985
121619	0.95837
122321	0.958755
123027	0.95914
123737	0.959525
124451	0.95991
125170	0.960294
125893	0.960679
126619	0.961063
127350	0.961447
128086	0.961831
128825	0.962215
129569	0.962598
130317	0.962982
131069	0.963366
131826	0.963749
132587	0.964132
133352	0.964515
134122	0.964898
134896	0.965281
135675	0.965663
136458	0.966046
137246	0.966428
138038	0.966811
138835	0.967193
139637	0.967575
140443	0.967957
141254	0.968339
142069	0.96872
142889	0.969102
143714	0.969483
144544	0.969864
145378	0.970245
146218	0.970626
147062	0.971007
147911	0.971388
148765	0.971769
149624	0.972149
150487	0.972529
151356	0.97291
152230	0.97329
153109	0.97367
153993	0.97405
154882	0.974429
155776	0.974809
156675	0.975188
157580	0.975568
158489	0.975947
159404	0.976326
160325	0.976705
161250	0.977084
162181	0.977463
163117	0.977841
164059	0.97822
165006	0.978598
165959	0.978976
166917	0.979354
167880	0.979732
168850	0.98011
169824	0.980488
170805	0.980866
171791	0.981243
172783	0.981621
173780	0.981998
174783	0.982375
175792	0.982752
176807	0.983129
177828	0.983506
178855	0.983883
179887	0.984259
180926	0.984636
181970	0.985012
183021	0.985388
184077	0.985764
185140	0.98614
186209	0.986516
187284	0.986892
188365	0.987268
189452	0.987643
190546	0.988019
191646	0.988394
192752	0.988769
193865	0.989144
194984	0.989519
196110	0.989894
197242	0.990269
198381	0.990644
199526	0.991018
200678	0.991393
201837	0.991767
203002	0.992141
204174	0.992515
205353	0.99289
206538	0.993263
207730	0.993637
208930	0.994011
210136	0.994385
211349	0.994758
212569	0.995132
213796	0.995505
215030	0.995878
216272	0.996251
217520	0.996624
218776	0.996997
220039	0.99737
221309	0.997743
222587	0.998115
223872	0.998488
225165	0.99886
226464	0.999233
227772	0.999605
229087	0.999977
230409	1.00035
231739	1.00072
233077	1.00109
234423	1.00146
235776	1.00184
237137	1.00221
238506	1.00258
239883	1.00295
241268	1.00332
242661	1.00369
244062	1.00406
245471	1.00444
246888	1.00481
248313	1.00518
249747	1.00555
251189	1.00592
252639	1.00629
254097	1.00666
255564	1.00703
257040	1.0074
258523	1.00777
260016	1.00814
261517	1.00851
263027	1.00888
264545	1.00925
266073	1.00962
267609	1.00999
269153	1.01036
270707	1.01073
272270	1.0111
273842	1.01147
275423	1.01184
277013	1.01221
278612	1.01258
280221	1.01295
281838	1.01332
283465	1.01368
285102	1.01405
286748	1.01442
288403	1.01479
290068	1.01516
291743	1.01553
293427	1.0159
295121	1.01627
296825	1.01663
298538	1.017
300262	1.01737
301995	1.01774
303739	1.01811
305492	1.01848
307256	1.01884
309030	1.01921
310814	1.01958
312608	1.01995
314413	1.02032
316228	1.02068
318053	1.02105
319890	1.02142
321736	1.02179
323594	1.02215
325462	1.02252
327341	1.02289
329230	1.02326
331131	1.02362
333043	1.02399
334965	1.02436
336899	1.02472
338844	1.02509
340800	1.02546
342768	1.02582
344747	1.02619
346737	1.02656
348739	1.02692
350752	1.02729
352777	1.02766
354813	1.02802
356862	1.02839
358922	1.02876
360994	1.02912
363078	1.02949
365174	1.02985
367282	1.03022
369403	1.03058
371535	1.03095
373680	1.03132
375837	1.03168
378007	1.03205
380189	1.03241
382384	1.03278
384592	1.03314
386812	1.03351
389045	1.03387
391291	1.03424
393550	1.0346
395822	1.03496
398107	1.03533
400405	1.03569
402717	1.03606
405042	1.03642
407380	1.03679
409732	1.03715
412098	1.03751
414477	1.03788
416869	1.03824
419276	1.03861
421697	1.03897
424131	1.03933
426580	1.0397
429042	1.04006
431519	1.04042
434010	1.04078
436516	1.04115
439036	1.04151
441570	1.04187
444120	1.04224
446684	1.0426
449262	1.04296
451856	1.04332
454465	1.04368
457088	1.04405
459727	1.04441
462381	1.04477
465050	1.04513
467735	1.04549
470435	1.04586
473151	1.04622
475883	1.04658
478630	1.04694
481393	1.0473
484172	1.04766
486968	1.04802
489779	1.04838
492606	1.04874
495450	1.0491
498310	1.04946
501187	1.04982
504081	1.05018
506991	1.05054
509918	1.0509
512861	1.05126
515822	1.05162
518800	1.05198
521795	1.05234
524807	1.0527
527837	1.05306
530884	1.05342
533949	1.05378
537032	1.05414
540132	1.0545
543250	1.05485
546387	1.05521
549541	1.05557
552713	1.05593
555904	1.05629
559114	1.05665
562341	1.057
565588	1.05736
568853	1.05772
572137	1.05808
575440	1.05843
578762	1.05879
582103	1.05915
585464	1.0595
588844	1.05986
592243	1.06022
595662	1.06057
599101	1.06093
602560	1.06129
606038	1.06164
609537	1.062
613056	1.06235
616595	1.06271
620155	1.06306
623735	1.06342
627336	1.06378
630957	1.06413
634600	1.06449
638263	1.06484
641948	1.06519
645654	1.06555
649382	1.0659
653131	1.06626
656901	1.06661
660693	1.06697
664508	1.06732
668344	1.06767
672202	1.06803
676083	1.06838
679986	1.06873
683912	1.06909
687860	1.06944
691831	1.06979
695825	1.07014
699842	1.0705
703882	1.07085
707946	1.0712
712033	1.07155
716143	1.0719
720278	1.07226
724436	1.07261
728618	1.07296
732825	1.07331
737055	1.07366
741310	1.07401
745590	1.07436
749894	1.07471
754223	1.07506
758578	1.07541
762957	1.07576
767361	1.07611
771792	1.07646
776247	1.07681
780728	1.07716
785236	1.07751
789769	1.07786
794328	1.07821
798914	1.07856
803526	1.07891
808165	1.07926
812831	1.07961
817523	1.07995
822243	1.0803
826990	1.08065
831764	1.081
836566	1.08134
841395	1.08169
846253	1.08204
851138	1.08239
856052	1.08273
860994	1.08308
865964	1.08343
870964	1.08377
875992	1.08412
881049	1.08446
886135	1.08481
891251	1.08516
896396	1.0855
901571	1.08585
906776	1.08619
912011	1.08654
917276	1.08688
922571	1.08723
927897	1.08757
933254	1.08791
938642	1.08826
944061	1.0886
949511	1.08895
954993	1.08929
960506	1.08963
966051	1.08998
971628	1.09032
977237	1.09066
982879	1.091
988553	1.09135
994260	1.09169
1e+06	1.09203
1.00577e+06	1.09237
1.01158e+06	1.09272
1.01742e+06	1.09306
1.02329e+06	1.0934
1.0292e+06	1.09374
1.03514e+06	1.09408
1.04112e+06	1.09442
1.04713e+06	1.09476
1.05317e+06	1.0951
1.05925e+06	1.09544
1.06537e+06	1.09578
1.07152e+06	1.09612
1.07771e+06	1.09646
1.08393e+06	1.0968
1.09018e+06	1.09714
1.09648e+06	1.09748
1.10281e+06	1.09782
1.10917e+06	1.09816
1.11558e+06	1.0985
1.12202e+06	1.09883
1.1285e+06	1.09917
1.13501e+06	1.09951
1.14156e+06	1.09985
1.14815e+06	1.10019
1.15478e+06	1.10052
1.16145e+06	1.10086
1.16815e+06	1.1012
1.1749e+06	1.10153
1.18168e+06	1.10187
1.1885e+06	1.10221
1.19536e+06	1.10254
1.20226e+06	1.10288
1.20921e+06	1.10322
1.21619e+06	1.10355
1.22321e+06	1.10389
1.23027e+06	1.10422
1.23737e+06	1.10456
1.24451e+06	1.10489
1.2517e+06	1.10523
1.25893e+06	1.10556
1.26619e+06	1.10589
1.2735e+06	1.10623
1.28086e+06	1.10656
1.28825e+06	1.1069
1.29569e+06	1.10723
1.30317e+06	1.10756
1.31069e+06	1.1079
1.31826e+06	1.10823
1.32587e+06	1.10856
1.33352e+06	1.10889
1.34122e+06	1.10923
1.34896e+06	1.10956
1.35675e+06	1.10989
1.36458e+06	1.11022
1.37246e+06	1.11055
1.38038e+06	1.11088
1.38835e+06	1.11121
1.39637e+06	1.11154
1.40443e+06	1.11187
1.41254e+06	1.11221
1.42069e+06	1.11254
1.42889e+06	1.11286
1.43714e+06	1.11319
1.44544e+06	1.11352
1.45378e+06	1.11385
1.46218e+06	1.11418
1.47062e+06	1.11451
1.47911e+06	1.11484
1.48765e+06	1.11517
1.49624e+06	1.1155
1.50487e+06	1.11582
1.51356e+06	1.11615
1.5223e+06	1.11648
1.53109e+06	1.11681
1.53993e+06	1.11713
1.54882e+06	1.11746
1.55776e+06	1.11779
1.56675e+06	1.11811
1.5758e+06	1.11844
1.58489e+06	1.11877
1.59404e+06	1.11909
1.60325e+06	1.11942
1.6125e+06	1.11974
1.62181e+06	1.12007
1.63117e+06	1.12039
1.64059e+06	1.12072
1.65006e+06	1.12104
1.65959e+06	1.12137
1.66917e+06	1.12169
1.6788e+06	1.12201
1.6885e+06	1.12234
1.69824e+06	1.12266
1.70805e+06	1.12298
1.71791e+06	1.12331
1.72783e+06	1.12363
1.7378e+06	1.12395
1.74783e+06	1.12427
1.75792e+06	1.1246
1.76807e+06	1.12492
1.77828e+06	1.12524
1.78855e+06	1.12556
1.79887e+06	1.12588
1.80926e+06	1.1262
1.8197e+06	1.12652
1.83021e+06	1.12684
1.84077e+06	1.12716
1.8514e+06	1.12748
1.86209e+06	1.1278
1.87284e+06	1.12812
1.88365e+06	1.12844
1.89452e+06	1.12876
1.90546e+06	1.12908
1.91646e+06	1.1294
1.92752e+06	1.12972
1.93865e+06	1.13004
1.94984e+06	1.13035
1.9611e+06	1.13067
1.97242e+06	1.13099
1.98381e+06	1.13131
1.99526e+06	1.13162
2.00678e+06	1.13194
2.01837e+06	1.13226
2.03002e+06	1.13257
2.04174e+06	1.13289
2.05353e+06	1.1332
2.06538e+06	1.13352
2.0773e+06	1.13384
2.0893e+06	1.13415
2.10136e+06	1.13447
2.11349e+06	1.13478
2.12569e+06	1.13509
2.13796e+06	1.13541
2.1503e+06	1.13572
2.16272e+06	1.13604
2.1752e+06	1.13635
2.18776e+06	1.13666
2.20039e+06	1.13698
2.21309e+06	1.13729
2.22587e+06	1.1376
2.23872e+06	1.13791
2.25165e+06	1.13823
2.26464e+06	1.13854
2.27772e+06	1.13885
2.29087e+06	1.13916
2.30409e+06	1.13947
2.31739e+06	1.13978
2.33077e+06	1.14009
2.34423e+06	1.1404
2.35776e+06	1.14071
2.37137e+06	1.14102
2.38506e+06	1.14133
2.39883e+06	1.14164
2.41268e+06	1.14195
2.42661e+06	1.14226
2.44062e+06	1.14257
2.45471e+06	1.14288
2.46888e+06	1.14318
2.48313e+06	1.14349
2.49747e+06	1.1438
2.51189e+06	1.14411
2.52639e+06	1.14442
2.54097e+06	1.14472
2.55564e+06	1.14503
2.5704e+06	1.14534
2.58523e+06	1.14564
2.60016e+06	1.14595
2.61517e+06	1.14625
2.63027e+06	1.14656
2.64545e+06	1.14686
2.66073e+06	1.14717
2.67609e+06	1.14747
2.69153e+06	1.14778
2.70707e+06	1.14808
2.7227e+06	1.14839
2.73842e+06	1.14869
2.75423e+06	1.14899
2.77013e+06	1.1493
2.78612e+06	1.1496
2.80221e+06	1.1499
2.81838e+06	1.15021
2.83465e+06	1.15051
2.85102e+06	1.15081
2.86748e+06	1.15111
2.88403e+06	1.15141
2.90068e+06	1.15171
2.91743e+06	1.15202
2.93427e+06	1.15232
2.95121e+06	1.15262
2.96825e+06	1.15292
2.98538e+06	1.15322
3.00262e+06	1.15352
3.01995e+06	1.15382
3.03739e+06	1.15412
3.05492e+06	1.15442
3.07256e+06	1.15471
3.0903e+06	1.15501
3.10814e+06	1.15531
3.12608e+06	1.15561
3.14413e+06	1.15591
3.16228e+06	1.1562
3.18053e+06	1.1565
3.1989e+06	1.1568
3.21736e+06	1.1571
3.23594e+06	1.15739
3.25462e+06	1.15769
3.27341e+06	1.15798
3.2923e+06	1.15828
3.31131e+06	1.15858
3.33043e+06	1.15887
3.34965e+06	1.15917
3.36899e+06	1.15946
3.38844e+06	1.15976
3.408e+06	1.16005
3.42768e+06	1.16034
3.44747e+06	1.16064
3.46737e+06	1.16093
3.48739e+06	1.16122
3.50752e+06	1.16152
3.52777e+06	1.16181
3.54813e+06	1.1621
3.56862e+06	1.16239
3.58922e+06	1.16269
3.60994e+06	1.16298
3.63078e+06	1.16327
3.65174e+06	1.16356
3.67282e+06	1.16385
3.69403e+06	1.16414
3.71535e+06	1.16443
3.7368e+06	1.16472
3.75837e+06	1.16501
3.78007e+06	1.1653
3.80189e+06	1.16559
3.82384e+06	1.16588
3.84592e+06	1.16617
3.86812e+06	1.16646
3.89045e+06	1.16675
3.91291e+06	1.16704
3.9355e+06	1.16732
3.95822e+06	1.16761
3.98107e+06	1.1679
4.00405e+06	1.16819
4.02717e+06	1.16847
4.05042e+06	1.16876
4.0738e+06	1.16905
4.09732e+06	1.16933
4.12098e+06	1.16962
4.14477e+06	1.16991
4.16869e+06	1.17019
4.19276e+06	1.17048
4.21697e+06	1.17076
4.24131e+06	1.17105
4.2658e+06	1.17133
4.29042e+06	1.17161
4.31519e+06	1.1719
4.3401e+06	1.17218
4.36516e+06	1.17247
4.39036e+06	1.17275
4.4157e+06	1.17303
4.4412e+06	1.17331
4.46684e+06	1.1736
4.49262e+06	1.17388
4.51856e+06	1.17416
4.54465e+06	1.17444
4.57088e+06	1.17472
4.59727e+06	1.175
4.62381e+06	1.17529
4.6505e+06	1.17557
4.67735e+06	1.17585
4.70435e+06	1.17613
4.73151e+06	1.17641
4.75883e+06	1.17669
4.7863e+06	1.17697
4.81393e+06	1.17724
4.84172e+06	1.17752
4.86968e+06	1.1778
4.89779e+06	1.17808
4.92606e+06	1.17836
4.9545e+06	1.17864
4.9831e+06	1.17891
5.01187e+06	1.17919
5.04081e+06	1.17947
5.06991e+06	1.17975
5.09918e+06	1.18002
5.12861e+06	1.1803
5.15822e+06	1.18057
5.188e+06	1.18085
5.21795e+06	1.18113
5.24807e+06	1.1814
5.27837e+06	1.18168
5.30884e+06	1.18195
5.33949e+06	1.18223
5.37032e+06	1.1825
5.40132e+06	1.18277
5.4325e+06	1.18305
5.46387e+06	1.18332
5.49541e+06	1.1836
5.52713e+06	1.18387
5.55904e+06	1.18414
5.59114e+06	1.18441
5.62341e+06	1.18469
5.65588e+06	1.18496
5.68853e+06	1.18523
5.72137e+06	1.1855
5.7544e+06	1.18577
5.78762e+06	1.18604
5.82103e+06	1.18632
5.85464e+06	1.18659
5.88844e+06	1.18686
5.92243e+06	1.18713
5.95662e+06	1.18739
5.99101e+06	1.18734
6.0256e+06	1.18729
6.06038e+06	1.18724
6.09537e+06	1.1872
6.13056e+06	1.18715
6.16595e+06	1.18711
6.20155e+06	1.18706
6.23735e+06	1.18702
6.27336e+06	1.18698
6.30957e+06	1.18693
6.346e+06	1.18689
6.38263e+06	1.18685
6.41948e+06	1.18681
6.45654e+06	1.18677
6.49382e+06	1.18673
6.53131e+06	1.18669
6.56901e+06	1.18665
6.60693e+06	1.18661
6.64508e+06	1.18657
6.68344e+06	1.18653
6.72202e+06	1.18649
6.76083e+06	1.18646
6.79986e+06	1.18642
6.83912e+06	1.18638
6.8786e+06	1.18635
6.91831e+06	1.18631
6.95825e+06	1.18628
6.99842e+06	1.18624
7.03882e+06	1.18621
7.07946e+06	1.18617
7.12033e+06	1.18614
7.16143e+06	1.18611
7.20278e+06	1.18607
7.24436e+06	1.18604
7.28618e+06	1.18601
7.32825e+06	1.18598
7.37055e+06	1.18595
7.4131e+06	1.18592
7.4559e+06	1.18588
7.49894e+06	1.18585
7.54223e+06	1.18582
7.58578e+06	1.18579
7.62957e+06	1.18577
7.67361e+06	1.18574
7.71792e+06	1.18571
7.76247e+06	1.18568
7.80728e+06	1.18565
7.85236e+06	1.18562
7.89769e+06	1.1856
7.94328e+06	1.18557
7.98914e+06	1.18554
8.03526e+06	1.18552
8.08165e+06	1.18549
8.12831e+06	1.18546
8.17523e+06	1.18544
8.22243e+06	1.18541
8.2699e+06	1.18539
8.31764e+06	1.18536
8.36566e+06	1.18534
8.41395e+06	1.18532
8.46253e+06	1.18529
8.51138e+06	1.18527
8.56052e+06	1.18525
8.60994e+06	1.18522
8.65964e+06	1.1852
8.70964e+06	1.18518
8.75992e+06	1.18515
8.81049e+06	1.18513
8.86135e+06	1.18511
8.91251e+06	1.18509
8.96396e+06	1.18507
9.01571e+06	1.18505
9.06776e+06	1.18503
9.12011e+06	1.18501
9.17276e+06	1.18499
9.22571e+06	1.18497
9.27897e+06	1.18495
9.33254e+06	1.18493
9.38642e+06	1.18491
9.44061e+06	1.18489
9.49511e+06	1.18487
9.54993e+06	1.18485
9.60506e+06	1.18483
9.66051e+06	1.18481
9.71628e+06	1.1848
9.77237e+06	1.18478
9.82879e+06	1.18476
9.88553e+06	1.18474
9.9426e+06	1.18473
1e+07	1.18471
