Stopping power dEdx from Ionisation for K39[0.0] Z = 19 in G4_TISSUE_SOFT_ICRP, process name: ionIoni
E [MeV]	dEdx [MeV/mm]
0.001	64.0367
0.00100577	64.2213
0.00101158	64.4064
0.00101742	64.592
0.00102329	64.7782
0.0010292	64.9649
0.00103514	65.1522
0.00104112	65.34
0.00104713	65.5283
0.00105317	65.7172
0.00105925	65.9066
0.00106537	66.0966
0.00107152	66.2871
0.00107771	66.4782
0.00108393	66.6698
0.00109018	66.8619
0.00109648	67.0547
0.00110281	67.2479
0.00110917	67.4418
0.00111558	67.6362
0.00112202	67.8311
0.0011285	68.0266
0.00113501	68.2227
0.00114156	68.4194
0.00114815	68.6166
0.00115478	68.8143
0.00116145	69.0127
0.00116815	69.2116
0.0011749	69.4111
0.00118168	69.6112
0.0011885	69.8118
0.00119536	70.0131
0.00120226	70.2149
0.00120921	70.4172
0.00121619	70.6202
0.00122321	70.8238
0.00123027	71.0279
0.00123737	71.2326
0.00124451	71.438
0.0012517	71.6439
0.00125893	71.8504
0.00126619	72.0575
0.0012735	72.2652
0.00128086	72.4735
0.00128825	72.6824
0.00129569	72.8919
0.00130317	73.102
0.00131069	73.3127
0.00131826	73.524
0.00132587	73.7359
0.00133352	73.9484
0.00134122	74.1616
0.00134896	74.3753
0.00135675	74.5897
0.00136458	74.8047
0.00137246	75.0203
0.00138038	75.2366
0.00138835	75.4534
0.00139637	75.6709
0.00140443	75.889
0.00141254	76.1078
0.00142069	76.3271
0.00142889	76.5471
0.00143714	76.7678
0.00144544	76.9891
0.00145378	77.211
0.00146218	77.4335
0.00147062	77.6567
0.00147911	77.8805
0.00148765	78.105
0.00149624	78.3302
0.00150487	78.5559
0.00151356	78.7824
0.0015223	79.0094
0.00153109	79.2372
0.00153993	79.4656
0.00154882	79.6946
0.00155776	79.9243
0.00156675	80.1547
0.0015758	80.3857
0.00158489	80.6174
0.00159404	80.8498
0.00160325	81.0828
0.0016125	81.3166
0.00162181	81.5509
0.00163117	81.786
0.00164059	82.0217
0.00165006	82.2582
0.00165959	82.4953
0.00166917	82.733
0.0016788	82.9715
0.0016885	83.2107
0.00169824	83.4505
0.00170805	83.691
0.00171791	83.9323
0.00172783	84.1742
0.0017378	84.4168
0.00174783	84.6601
0.00175792	84.9042
0.00176807	85.1489
0.00177828	85.3943
0.00178855	85.6405
0.00179887	85.8873
0.00180926	86.1349
0.0018197	86.3831
0.00183021	86.6321
0.00184077	86.8818
0.0018514	87.1323
0.00186209	87.3834
0.00187284	87.6353
0.00188365	87.8879
0.00189452	88.1412
0.00190546	88.3953
0.00191646	88.6501
0.00192752	88.9056
0.00193865	89.1618
0.00194984	89.4188
0.0019611	89.6766
0.00197242	89.9351
0.00198381	90.1943
0.00199526	90.4543
0.00200678	90.715
0.00201837	90.9765
0.00203002	91.2387
0.00204174	91.5017
0.00205353	91.7654
0.00206538	92.0299
0.0020773	92.2952
0.0020893	92.5612
0.00210136	92.828
0.00211349	93.0956
0.00212569	93.3639
0.00213796	93.633
0.0021503	93.9029
0.00216272	94.1736
0.0021752	94.445
0.00218776	94.7172
0.00220039	94.9902
0.00221309	95.264
0.00222587	95.5386
0.00223872	95.814
0.00225165	96.0902
0.00226464	96.3671
0.00227772	96.6449
0.00229087	96.9235
0.00230409	97.2029
0.00231739	97.483
0.00233077	97.764
0.00234423	98.0458
0.00235776	98.3284
0.00237137	98.6118
0.00238506	98.8961
0.00239883	99.1811
0.00241268	99.467
0.00242661	99.7537
0.00244062	100.041
0.00245471	100.33
0.00246888	100.619
0.00248313	100.909
0.00249747	101.2
0.00251189	101.491
0.00252639	101.784
0.00254097	102.077
0.00255564	102.371
0.0025704	102.667
0.00258523	102.962
0.00260016	103.259
0.00261517	103.557
0.00263027	103.855
0.00264545	104.155
0.00266073	104.455
0.00267609	104.756
0.00269153	105.058
0.00270707	105.361
0.0027227	105.664
0.00273842	105.969
0.00275423	106.274
0.00277013	106.581
0.00278612	106.888
0.00280221	107.196
0.00281838	107.505
0.00283465	107.815
0.00285102	108.126
0.00286748	108.437
0.00288403	108.75
0.00290068	109.063
0.00291743	109.378
0.00293427	109.693
0.00295121	110.009
0.00296825	110.326
0.00298538	110.644
0.00300262	110.963
0.00301995	111.283
0.00303739	111.604
0.00305492	111.925
0.00307256	112.248
0.0030903	112.572
0.00310814	112.896
0.00312608	113.222
0.00314413	113.548
0.00316228	113.875
0.00318053	114.203
0.0031989	114.533
0.00321736	114.863
0.00323594	115.194
0.00325462	115.526
0.00327341	115.859
0.0032923	116.193
0.00331131	116.528
0.00333043	116.864
0.00334965	117.2
0.00336899	117.538
0.00338844	117.877
0.003408	118.217
0.00342768	118.557
0.00344747	118.899
0.00346737	119.242
0.00348739	119.586
0.00350752	119.93
0.00352777	120.276
0.00354813	120.623
0.00356862	120.97
0.00358922	121.319
0.00360994	121.669
0.00363078	122.019
0.00365174	122.371
0.00367282	122.724
0.00369403	123.078
0.00371535	123.432
0.0037368	123.788
0.00375837	124.145
0.00378007	124.503
0.00380189	124.862
0.00382384	125.222
0.00384592	125.582
0.00386812	125.944
0.00389045	126.307
0.00391291	126.672
0.0039355	127.037
0.00395822	127.403
0.00398107	127.77
0.00400405	128.138
0.00402717	128.508
0.00405042	128.878
0.0040738	129.25
0.00409732	129.622
0.00412098	129.996
0.00414477	130.37
0.00416869	130.746
0.00419276	131.123
0.00421697	131.501
0.00424131	131.88
0.0042658	132.26
0.00429042	132.641
0.00431519	133.024
0.0043401	133.407
0.00436516	133.792
0.00439036	134.177
0.0044157	134.564
0.0044412	134.952
0.00446684	135.341
0.00449262	135.731
0.00451856	136.122
0.00454465	136.515
0.00457088	136.908
0.00459727	137.303
0.00462381	137.698
0.0046505	138.095
0.00467735	138.493
0.00470435	138.893
0.00473151	139.293
0.00475883	139.694
0.0047863	140.097
0.00481393	140.501
0.00484172	140.906
0.00486968	141.312
0.00489779	141.719
0.00492606	142.128
0.0049545	142.537
0.0049831	142.948
0.00501187	143.36
0.00504081	143.774
0.00506991	144.188
0.00509918	144.604
0.00512861	145.02
0.00515822	145.438
0.005188	145.858
0.00521795	146.278
0.00524807	146.7
0.00527837	147.122
0.00530884	147.547
0.00533949	147.972
0.00537032	148.398
0.00540132	148.826
0.0054325	149.255
0.00546387	149.685
0.00549541	150.117
0.00552713	150.549
0.00555904	150.983
0.00559114	151.419
0.00562341	151.855
0.00565588	152.293
0.00568853	152.732
0.00572137	153.172
0.0057544	153.613
0.00578762	154.056
0.00582103	154.5
0.00585464	154.946
0.00588844	155.392
0.00592243	155.84
0.00595662	156.289
0.00599101	156.74
0.0060256	157.191
0.00606038	157.645
0.00609537	158.099
0.00613056	158.555
0.00616595	159.012
0.00620155	159.47
0.00623735	159.93
0.00627336	160.391
0.00630957	160.853
0.006346	161.317
0.00638263	161.782
0.00641948	162.248
0.00645654	162.716
0.00649382	163.185
0.00653131	163.655
0.00656901	164.127
0.00660693	164.6
0.00664508	165.074
0.00668344	165.55
0.00672202	166.027
0.00676083	166.506
0.00679986	166.986
0.00683912	167.467
0.0068786	167.95
0.00691831	168.434
0.00695825	168.919
0.00699842	169.406
0.00703882	169.894
0.00707946	170.384
0.00712033	170.875
0.00716143	171.368
0.00720278	171.862
0.00724436	172.357
0.00728618	172.854
0.00732825	173.352
0.00737055	173.852
0.0074131	174.353
0.0074559	174.855
0.00749894	175.359
0.00754223	175.865
0.00758578	176.372
0.00762957	176.88
0.00767361	177.39
0.00771792	177.901
0.00776247	178.414
0.00780728	178.928
0.00785236	179.444
0.00789769	179.961
0.00794328	180.48
0.00798914	181
0.00803526	181.522
0.00808165	182.045
0.00812831	182.57
0.00817523	183.096
0.00822243	183.624
0.0082699	184.153
0.00831764	184.684
0.00836566	185.216
0.00841395	185.75
0.00846253	186.285
0.00851138	186.822
0.00856052	187.361
0.00860994	187.901
0.00865964	188.443
0.00870964	188.986
0.00875992	189.53
0.00881049	190.077
0.00886135	190.625
0.00891251	191.174
0.00896396	191.725
0.00901571	192.278
0.00906776	192.832
0.00912011	193.388
0.00917276	193.945
0.00922571	194.504
0.00927897	195.065
0.00933254	195.627
0.00938642	196.191
0.00944061	196.756
0.00949511	197.324
0.00954993	197.892
0.00960506	198.463
0.00966051	199.035
0.00971628	199.608
0.00977237	200.174
0.00982879	200.737
0.00988553	201.302
0.0099426	201.868
0.01	202.436
0.0100577	203.006
0.0101158	203.577
0.0101742	204.15
0.0102329	204.724
0.010292	205.301
0.0103514	205.878
0.0104112	206.458
0.0104713	207.039
0.0105317	207.622
0.0105925	208.206
0.0106537	208.792
0.0107152	209.38
0.0107771	209.97
0.0108393	210.561
0.0109018	211.154
0.0109648	211.749
0.0110281	212.345
0.0110917	212.943
0.0111558	213.543
0.0112202	214.144
0.011285	214.748
0.0113501	215.353
0.0114156	215.959
0.0114815	216.568
0.0115478	217.178
0.0116145	217.79
0.0116815	218.404
0.011749	219.02
0.0118168	219.637
0.011885	220.256
0.0119536	220.877
0.0120226	221.5
0.0120921	222.124
0.0121619	222.75
0.0122321	223.378
0.0123027	224.008
0.0123737	224.64
0.0124451	225.274
0.012517	225.909
0.0125893	226.546
0.0126619	227.185
0.012735	227.826
0.0128086	228.469
0.0128825	229.113
0.0129569	229.76
0.0130317	230.408
0.0131069	231.058
0.0131826	231.71
0.0132587	232.364
0.0133352	233.02
0.0134122	233.678
0.0134896	234.338
0.0135675	234.999
0.0136458	235.663
0.0137246	236.328
0.0138038	236.995
0.0138835	237.664
0.0139637	238.336
0.0140443	239.009
0.0141254	239.684
0.0142069	240.361
0.0142889	241.04
0.0143714	241.721
0.0144544	242.404
0.0145378	243.088
0.0146218	243.775
0.0147062	244.464
0.0147911	245.155
0.0148765	245.848
0.0149624	246.542
0.0150487	247.239
0.0151356	247.938
0.015223	248.639
0.0153109	249.342
0.0153993	250.047
0.0154882	250.754
0.0155776	251.463
0.0156675	252.174
0.015758	252.887
0.0158489	253.602
0.0159404	254.319
0.0160325	255.039
0.016125	255.76
0.0162181	256.484
0.0163117	257.209
0.0164059	257.937
0.0165006	258.667
0.0165959	259.399
0.0166917	260.133
0.016788	260.869
0.016885	261.607
0.0169824	262.348
0.0170805	263.09
0.0171791	263.835
0.0172783	264.582
0.017378	265.331
0.0174783	266.082
0.0175792	266.836
0.0176807	267.591
0.0177828	268.349
0.0178855	269.109
0.0179887	269.871
0.0180926	270.636
0.018197	271.402
0.0183021	272.171
0.0184077	272.942
0.018514	273.716
0.0186209	274.491
0.0187284	275.269
0.0188365	276.049
0.0189452	276.831
0.0190546	277.616
0.0191646	278.403
0.0192752	279.192
0.0193865	279.983
0.0194984	280.777
0.019611	281.573
0.0197242	282.372
0.0198381	283.172
0.0199526	283.975
0.0200678	284.781
0.0201837	285.588
0.0203002	286.398
0.0204174	287.211
0.0205353	288.025
0.0206538	288.842
0.020773	289.662
0.020893	290.484
0.0210136	291.308
0.0211349	292.135
0.0212569	292.964
0.0213796	293.795
0.021503	294.629
0.0216272	295.465
0.021752	296.304
0.0218776	297.145
0.0220039	297.989
0.0221309	298.835
0.0222587	299.683
0.0223872	300.534
0.0225165	301.388
0.0226464	302.244
0.0227772	303.102
0.0229087	303.963
0.0230409	304.827
0.0231739	305.692
0.0233077	306.561
0.0234423	307.432
0.0235776	308.305
0.0237137	309.181
0.0238506	310.06
0.0239883	310.941
0.0241268	311.825
0.0242661	312.711
0.0244062	313.6
0.0245471	314.492
0.0246888	315.386
0.0248313	316.282
0.0249747	317.182
0.0251189	318.084
0.0252639	318.988
0.0254097	319.895
0.0255564	320.805
0.025704	321.718
0.0258523	322.633
0.0260016	323.55
0.0261517	324.471
0.0263027	325.394
0.0264545	326.32
0.0266073	327.248
0.0267609	328.18
0.0269153	329.114
0.0270707	330.05
0.027227	330.99
0.0273842	331.932
0.0275423	332.877
0.0277013	333.824
0.0278612	334.775
0.0280221	335.728
0.0281838	336.684
0.0283465	337.643
0.0285102	338.604
0.0286748	339.569
0.0288403	340.536
0.0290068	341.506
0.0291743	342.479
0.0293427	343.454
0.0295121	344.433
0.0296825	345.414
0.0298538	346.398
0.0300262	347.385
0.0301995	348.375
0.0303739	349.368
0.0305492	350.364
0.0307256	351.363
0.030903	352.364
0.0310814	353.369
0.0312608	354.376
0.0314413	355.387
0.0316228	356.4
0.0318053	357.416
0.031989	358.435
0.0321736	359.458
0.0323594	360.483
0.0325462	361.511
0.0327341	362.542
0.032923	363.577
0.0331131	364.614
0.0333043	365.654
0.0334965	366.698
0.0336899	367.744
0.0338844	368.793
0.03408	369.846
0.0342768	370.902
0.0344747	371.96
0.0346737	373.022
0.0348739	374.087
0.0350752	375.155
0.0352777	376.226
0.0354813	377.3
0.0356862	378.378
0.0358922	379.458
0.0360994	380.542
0.0363078	381.629
0.0365174	382.719
0.0367282	383.812
0.0369403	384.909
0.0371535	386.008
0.037368	387.111
0.0375837	388.217
0.0378007	389.327
0.0380189	390.439
0.0382384	391.555
0.0384592	392.674
0.0386812	393.797
0.0389045	394.922
0.0391291	395.372
0.039355	395.636
0.0395822	395.902
0.0398107	396.171
0.0400405	396.443
0.0402717	396.718
0.0405042	396.996
0.040738	397.276
0.0409732	397.558
0.0412098	397.844
0.0414477	398.131
0.0416869	398.422
0.0419276	398.714
0.0421697	399.01
0.0424131	399.307
0.042658	399.607
0.0429042	399.91
0.0431519	400.214
0.043401	400.521
0.0436516	400.83
0.0439036	401.142
0.044157	401.455
0.044412	401.771
0.0446684	402.089
0.0449262	402.409
0.0451856	402.731
0.0454465	403.055
0.0457088	403.381
0.0459727	403.71
0.0462381	404.04
0.046505	404.372
0.0467735	404.706
0.0470435	405.042
0.0473151	405.38
0.0475883	405.72
0.047863	406.062
0.0481393	406.406
0.0484172	406.751
0.0486968	407.098
0.0489779	407.447
0.0492606	407.798
0.049545	408.151
0.049831	408.505
0.0501187	408.861
0.0504081	409.219
0.0506991	409.578
0.0509918	409.939
0.0512861	410.302
0.0515822	410.667
0.05188	411.033
0.0521795	411.4
0.0524807	411.77
0.0527837	412.141
0.0530884	412.513
0.0533949	412.887
0.0537032	413.263
0.0540132	413.64
0.054325	414.018
0.0546387	414.399
0.0549541	414.78
0.0552713	415.164
0.0555904	415.548
0.0559114	415.935
0.0562341	416.322
0.0565588	416.711
0.0568853	417.102
0.0572137	417.494
0.057544	417.887
0.0578762	418.282
0.0582103	418.679
0.0585464	419.076
0.0588844	419.476
0.0592243	419.876
0.0595662	420.278
0.0599101	420.682
0.060256	421.086
0.0606038	421.492
0.0609537	421.9
0.0613056	422.309
0.0616595	422.719
0.0620155	423.131
0.0623735	423.544
0.0627336	423.958
0.0630957	424.374
0.06346	424.791
0.0638263	425.21
0.0641948	425.629
0.0645654	426.051
0.0649382	426.473
0.0653131	426.897
0.0656901	427.322
0.0660693	427.749
0.0664508	428.176
0.0668344	428.606
0.0672202	429.036
0.0676083	429.468
0.0679986	429.901
0.0683912	430.336
0.068786	430.772
0.0691831	431.209
0.0695825	431.648
0.0699842	432.087
0.0703882	432.529
0.0707946	432.971
0.0712033	433.415
0.0716143	433.861
0.0720278	434.307
0.0724436	434.755
0.0728618	435.205
0.0732825	435.655
0.0737055	436.108
0.074131	436.561
0.074559	437.016
0.0749894	437.472
0.0754223	437.93
0.0758578	438.389
0.0762957	438.849
0.0767361	439.311
0.0771792	439.774
0.0776247	440.238
0.0780728	440.704
0.0785236	441.171
0.0789769	441.64
0.0794328	442.11
0.0798914	442.582
0.0803526	443.055
0.0808165	443.529
0.0812831	444.005
0.0817523	444.482
0.0822243	444.961
0.082699	445.441
0.0831764	445.922
0.0836566	446.406
0.0841395	446.89
0.0846253	447.376
0.0851138	447.864
0.0856052	448.353
0.0860994	448.843
0.0865964	449.335
0.0870964	449.828
0.0875992	450.323
0.0881049	450.82
0.0886135	451.318
0.0891251	451.818
0.0896396	452.319
0.0901571	452.822
0.0906776	453.326
0.0912011	453.832
0.0917276	454.339
0.0922571	454.848
0.0927897	455.359
0.0933254	455.871
0.0938642	456.385
0.0944061	456.9
0.0949511	457.417
0.0954993	457.936
0.0960506	458.456
0.0966051	458.978
0.0971628	459.502
0.0977237	460.027
0.0982879	460.554
0.0988553	461.083
0.099426	461.614
0.1	462.146
0.100577	462.68
0.101158	463.215
0.101742	463.753
0.102329	464.292
0.10292	464.833
0.103514	465.375
0.104112	465.92
0.104713	466.466
0.105317	467.014
0.105925	467.564
0.106537	468.115
0.107152	468.669
0.107771	469.224
0.108393	469.781
0.109018	470.34
0.109648	470.901
0.110281	471.464
0.110917	472.029
0.111558	472.595
0.112202	473.164
0.11285	473.734
0.113501	474.306
0.114156	474.881
0.114815	475.457
0.115478	476.035
0.116145	476.615
0.116815	477.198
0.11749	477.782
0.118168	478.368
0.11885	478.956
0.119536	479.547
0.120226	480.139
0.120921	480.734
0.121619	481.33
0.122321	481.929
0.123027	482.529
0.123737	483.132
0.124451	483.737
0.12517	484.344
0.125893	484.953
0.126619	485.565
0.12735	486.178
0.128086	486.794
0.128825	487.412
0.129569	488.032
0.130317	488.654
0.131069	489.278
0.131826	489.905
0.132587	490.534
0.133352	491.165
0.134122	491.799
0.134896	492.435
0.135675	493.073
0.136458	493.713
0.137246	494.356
0.138038	495.001
0.138835	495.649
0.139637	496.298
0.140443	496.951
0.141254	497.605
0.142069	498.262
0.142889	498.921
0.143714	499.583
0.144544	500.247
0.145378	500.914
0.146218	501.583
0.147062	502.255
0.147911	502.929
0.148765	503.605
0.149624	504.284
0.150487	504.966
0.151356	505.65
0.15223	506.337
0.153109	507.026
0.153993	507.718
0.154882	508.412
0.155776	509.109
0.156675	509.809
0.15758	510.511
0.158489	511.216
0.159404	511.923
0.160325	512.633
0.16125	513.346
0.162181	514.061
0.163117	514.779
0.164059	515.5
0.165006	516.224
0.165959	516.95
0.166917	517.679
0.16788	518.411
0.16885	519.146
0.169824	519.883
0.170805	520.623
0.171791	521.366
0.172783	522.112
0.17378	522.86
0.174783	523.612
0.175792	524.366
0.176807	525.123
0.177828	525.883
0.178855	526.646
0.179887	527.412
0.180926	528.181
0.18197	528.953
0.183021	529.727
0.184077	530.505
0.18514	531.286
0.186209	532.069
0.187284	532.856
0.188365	533.645
0.189452	534.438
0.190546	535.234
0.191646	536.032
0.192752	536.834
0.193865	537.639
0.194984	538.447
0.19611	539.258
0.197242	540.072
0.198381	540.889
0.199526	541.709
0.200678	542.533
0.201837	543.359
0.203002	544.189
0.204174	545.022
0.205353	545.858
0.206538	546.698
0.20773	547.541
0.20893	548.386
0.210136	549.235
0.211349	550.088
0.212569	550.943
0.213796	551.802
0.21503	552.665
0.216272	553.53
0.21752	554.399
0.218776	555.271
0.220039	556.146
0.221309	557.025
0.222587	557.908
0.223872	558.793
0.225165	559.682
0.226464	560.575
0.227772	561.47
0.229087	562.37
0.230409	563.272
0.231739	564.178
0.233077	565.088
0.234423	566.001
0.235776	566.918
0.237137	567.838
0.238506	568.761
0.239883	569.688
0.241268	570.619
0.242661	571.553
0.244062	572.491
0.245471	573.432
0.246888	574.377
0.248313	575.326
0.249747	576.278
0.251189	577.233
0.252639	578.193
0.254097	579.156
0.255564	580.122
0.25704	581.093
0.258523	582.067
0.260016	583.044
0.261517	584.026
0.263027	585.011
0.264545	586
0.266073	586.992
0.267609	587.988
0.269153	588.988
0.270707	589.992
0.27227	591
0.273842	592.011
0.275423	593.026
0.277013	594.045
0.278612	595.068
0.280221	596.095
0.281838	597.125
0.283465	598.16
0.285102	599.198
0.286748	600.24
0.288403	601.286
0.290068	602.336
0.291743	603.39
0.293427	604.448
0.295121	605.509
0.296825	606.575
0.298538	607.645
0.300262	608.718
0.301995	609.796
0.303739	610.877
0.305492	611.963
0.307256	613.052
0.30903	614.146
0.310814	615.243
0.312608	616.345
0.314413	617.451
0.316228	618.56
0.318053	619.674
0.31989	620.792
0.321736	621.914
0.323594	623.04
0.325462	624.17
0.327341	625.305
0.32923	626.443
0.331131	627.586
0.333043	628.732
0.334965	629.883
0.336899	631.038
0.338844	632.198
0.3408	633.361
0.342768	634.529
0.344747	635.7
0.346737	636.877
0.348739	638.057
0.350752	639.241
0.352777	640.43
0.354813	641.623
0.356862	642.82
0.358922	644.022
0.360994	645.228
0.363078	646.438
0.365174	647.652
0.367282	648.871
0.369403	650.094
0.371535	651.321
0.37368	652.553
0.375837	653.789
0.378007	655.029
0.380189	656.274
0.382384	657.523
0.384592	658.776
0.386812	660.034
0.389045	661.296
0.391291	662.563
0.39355	663.834
0.395822	665.109
0.398107	666.389
0.400405	667.673
0.402717	668.962
0.405042	670.255
0.40738	671.552
0.409732	672.854
0.412098	674.161
0.414477	675.471
0.416869	676.787
0.419276	678.107
0.421697	679.431
0.424131	680.76
0.42658	682.093
0.429042	683.431
0.431519	684.773
0.43401	686.12
0.436516	687.471
0.439036	688.827
0.44157	690.187
0.44412	691.552
0.446684	692.921
0.449262	694.295
0.451856	695.674
0.454465	697.057
0.457088	698.444
0.459727	699.837
0.462381	701.233
0.46505	702.635
0.467735	704.04
0.470435	705.451
0.473151	706.866
0.475883	708.285
0.47863	709.709
0.481393	711.138
0.484172	712.572
0.486968	714.009
0.489779	715.452
0.492606	716.899
0.49545	718.351
0.49831	719.807
0.501187	721.268
0.504081	722.733
0.506991	724.204
0.509918	725.678
0.512861	727.158
0.515822	728.642
0.5188	730.13
0.521795	731.623
0.524807	733.121
0.527837	734.623
0.530884	736.13
0.533949	737.642
0.537032	739.158
0.540132	740.679
0.54325	742.205
0.546387	743.735
0.549541	745.269
0.552713	746.809
0.555904	748.352
0.559114	749.901
0.562341	751.454
0.565588	753.012
0.568853	754.574
0.572137	756.141
0.57544	757.712
0.578762	759.288
0.582103	760.869
0.585464	762.454
0.588844	764.044
0.592243	765.638
0.595662	767.237
0.599101	768.84
0.60256	770.448
0.606038	772.061
0.609537	773.678
0.613056	775.3
0.616595	776.926
0.620155	778.557
0.623735	780.192
0.627336	781.832
0.630957	783.476
0.6346	785.125
0.638263	786.778
0.641948	788.436
0.645654	790.098
0.649382	791.764
0.653131	793.436
0.656901	795.111
0.660693	796.791
0.664508	798.476
0.668344	800.164
0.672202	801.858
0.676083	803.555
0.679986	805.257
0.683912	806.964
0.68786	808.675
0.691831	810.39
0.695825	812.109
0.699842	813.833
0.703882	815.561
0.707946	817.293
0.712033	819.03
0.716143	820.771
0.720278	822.516
0.724436	824.266
0.728618	826.019
0.732825	827.777
0.737055	829.539
0.74131	831.306
0.74559	833.076
0.749894	834.851
0.754223	836.629
0.758578	838.412
0.762957	840.199
0.767361	841.99
0.771792	843.785
0.776247	845.584
0.780728	847.387
0.785236	849.194
0.789769	851.005
0.794328	852.82
0.798914	854.638
0.803526	856.461
0.808165	858.288
0.812831	860.118
0.817523	861.953
0.822243	863.791
0.82699	865.633
0.831764	867.478
0.836566	869.327
0.841395	871.181
0.846253	873.037
0.851138	874.898
0.856052	876.762
0.860994	878.629
0.865964	880.5
0.870964	882.375
0.875992	884.253
0.881049	886.135
0.886135	888.02
0.891251	889.909
0.896396	891.8
0.901571	893.696
0.906776	895.594
0.912011	897.496
0.917276	899.401
0.922571	901.31
0.927897	903.221
0.933254	905.136
0.938642	907.053
0.944061	908.974
0.949511	910.898
0.954993	912.825
0.960506	914.755
0.966051	916.687
0.971628	918.623
0.977237	920.562
0.982879	922.503
0.988553	924.447
0.99426	926.393
1	928.343
1.00577	930.295
1.01158	932.249
1.01742	934.206
1.02329	936.166
1.0292	938.128
1.03514	940.093
1.04112	942.059
1.04713	944.029
1.05317	946
1.05925	947.973
1.06537	949.949
1.07152	951.927
1.07771	953.907
1.08393	957.46
1.09018	961.815
1.09648	966.194
1.10281	970.597
1.10917	975.024
1.11558	979.475
1.12202	983.951
1.1285	988.452
1.13501	992.977
1.14156	997.527
1.14815	1002.1
1.15478	1006.7
1.16145	1011.33
1.16815	1015.97
1.1749	1020.65
1.18168	1025.35
1.1885	1030.07
1.19536	1034.82
1.20226	1039.6
1.20921	1044.4
1.21619	1049.23
1.22321	1054.08
1.23027	1058.96
1.23737	1063.86
1.24451	1068.79
1.2517	1073.74
1.25893	1078.72
1.26619	1083.73
1.2735	1088.76
1.28086	1093.82
1.28825	1098.91
1.29569	1104.02
1.30317	1109.16
1.31069	1114.32
1.31826	1119.52
1.32587	1124.73
1.33352	1129.98
1.34122	1135.25
1.34896	1140.55
1.35675	1145.87
1.36458	1151.22
1.37246	1156.6
1.38038	1162
1.38835	1167.44
1.39637	1172.9
1.40443	1178.38
1.41254	1183.9
1.42069	1189.44
1.42889	1195
1.43714	1200.6
1.44544	1206.22
1.45378	1211.87
1.46218	1217.55
1.47062	1223.25
1.47911	1228.99
1.48765	1234.75
1.49624	1240.53
1.50487	1246.35
1.51356	1252.19
1.5223	1258.06
1.53109	1263.96
1.53993	1269.88
1.54882	1275.84
1.55776	1281.82
1.56675	1287.83
1.5758	1293.86
1.58489	1299.93
1.59404	1306.02
1.60325	1312.14
1.6125	1318.29
1.62181	1324.46
1.63117	1330.66
1.64059	1336.9
1.65006	1343.16
1.65959	1349.44
1.66917	1355.76
1.6788	1362.1
1.6885	1368.47
1.69824	1374.87
1.70805	1381.29
1.71791	1387.75
1.72783	1394.23
1.7378	1400.74
1.74783	1407.28
1.75792	1413.84
1.76807	1420.43
1.77828	1427.06
1.78855	1433.7
1.79887	1440.38
1.80926	1447.08
1.8197	1453.81
1.83021	1460.57
1.84077	1467.36
1.8514	1474.17
1.86209	1481.01
1.87284	1487.88
1.88365	1494.78
1.89452	1501.7
1.90546	1508.65
1.91646	1515.63
1.92752	1522.63
1.93865	1529.66
1.94984	1536.72
1.9611	1543.81
1.97242	1550.92
1.98381	1558.06
1.99526	1565.22
2.00678	1572.41
2.01837	1579.63
2.03002	1586.88
2.04174	1594.15
2.05353	1601.44
2.06538	1608.77
2.0773	1616.12
2.0893	1623.49
2.10136	1630.89
2.11349	1638.32
2.12569	1645.77
2.13796	1653.25
2.1503	1660.75
2.16272	1668.28
2.1752	1675.83
2.18776	1683.41
2.20039	1691.02
2.21309	1698.64
2.22587	1706.3
2.23872	1713.97
2.25165	1721.67
2.26464	1729.4
2.27772	1737.15
2.29087	1744.92
2.30409	1752.72
2.31739	1760.54
2.33077	1768.38
2.34423	1776.25
2.35776	1784.14
2.37137	1792.05
2.38506	1799.98
2.39883	1807.94
2.41268	1815.92
2.42661	1823.92
2.44062	1831.94
2.45471	1839.99
2.46888	1848.06
2.48313	1856.14
2.49747	1864.25
2.51189	1872.38
2.52639	1880.53
2.54097	1888.7
2.55564	1896.89
2.5704	1905.1
2.58523	1913.33
2.60016	1921.58
2.61517	1929.85
2.63027	1938.14
2.64545	1946.44
2.66073	1954.77
2.67609	1963.11
2.69153	1971.47
2.70707	1979.85
2.7227	1988.24
2.73842	1996.65
2.75423	2005.08
2.77013	2013.53
2.78612	2021.99
2.80221	2030.47
2.81838	2038.96
2.83465	2047.47
2.85102	2056
2.86748	2064.54
2.88403	2073.09
2.90068	2081.66
2.91743	2090.24
2.93427	2098.83
2.95121	2107.44
2.96825	2116.06
2.98538	2124.69
3.00262	2133.34
3.01995	2142
3.03739	2150.66
3.05492	2159.34
3.07256	2168.03
3.0903	2176.74
3.10814	2185.45
3.12608	2194.17
3.14413	2202.9
3.16228	2211.64
3.18053	2220.38
3.1989	2229.14
3.21736	2237.9
3.23594	2246.67
3.25462	2255.45
3.27341	2264.24
3.2923	2273.03
3.31131	2281.83
3.33043	2290.63
3.34965	2299.44
3.36899	2308.25
3.38844	2317.06
3.408	2325.88
3.42768	2334.71
3.44747	2343.54
3.46737	2352.36
3.48739	2361.2
3.50752	2370.03
3.52777	2378.86
3.54813	2387.7
3.56862	2396.54
3.58922	2405.37
3.60994	2414.21
3.63078	2423.04
3.65174	2431.87
3.67282	2440.71
3.69403	2449.53
3.71535	2458.36
3.7368	2467.18
3.75837	2476
3.78007	2484.82
3.80189	2493.63
3.82384	2502.43
3.84592	2511.23
3.86812	2520.03
3.89045	2528.82
3.91291	2537.6
3.9355	2546.37
3.95822	2555.13
3.98107	2563.89
4.00405	2572.64
4.02717	2581.38
4.05042	2590.11
4.0738	2598.82
4.09732	2607.53
4.12098	2616.23
4.14477	2624.91
4.16869	2633.58
4.19276	2642.24
4.21697	2650.89
4.24131	2659.52
4.2658	2668.14
4.29042	2676.74
4.31519	2685.33
4.3401	2693.9
4.36516	2702.45
4.39036	2710.99
4.4157	2719.51
4.4412	2728.02
4.46684	2736.5
4.49262	2744.97
4.51856	2753.41
4.54465	2761.84
4.57088	2770.24
4.59727	2778.63
4.62381	2786.99
4.6505	2795.33
4.67735	2803.65
4.70435	2811.95
4.73151	2820.22
4.75883	2828.47
4.7863	2836.7
4.81393	2843.18
4.84172	2851.34
4.86968	2859.47
4.89779	2867.57
4.92606	2875.64
4.9545	2883.69
4.9831	2891.71
5.01187	2899.7
5.04081	2907.66
5.06991	2915.59
5.09918	2923.5
5.12861	2931.37
5.15822	2939.21
5.188	2947.02
5.21795	2954.79
5.24807	2962.54
5.27837	2970.25
5.30884	2977.93
5.33949	2985.57
5.37032	2993.18
5.40132	3000.76
5.4325	3008.3
5.46387	3015.8
5.49541	3023.27
5.52713	3030.7
5.55904	3038.1
5.59114	3045.45
5.62341	3052.77
5.65588	3060.05
5.68853	3067.3
5.72137	3074.5
5.7544	3081.66
5.78762	3088.79
5.82103	3095.87
5.85464	3102.91
5.88844	3109.91
5.92243	3116.87
5.95662	3123.79
5.99101	3130.66
6.0256	3137.49
6.06038	3144.28
6.09537	3151.03
6.13056	3157.73
6.16595	3164.38
6.20155	3170.99
6.23735	3177.56
6.27336	3184.08
6.30957	3190.55
6.346	3196.98
6.38263	3203.37
6.41948	3209.7
6.45654	3215.99
6.49382	3222.23
6.53131	3228.42
6.56901	3234.57
6.60693	3240.66
6.64508	3246.71
6.68344	3252.71
6.72202	3258.65
6.76083	3264.55
6.79986	3270.4
6.83912	3276.2
6.8786	3281.95
6.91831	3287.65
6.95825	3293.29
6.99842	3298.89
7.03882	3304.43
7.07946	3309.92
7.12033	3315.36
7.16143	3320.75
7.20278	3326.09
7.24436	3331.37
7.28618	3336.6
7.32825	3341.78
7.37055	3346.9
7.4131	3351.97
7.4559	3356.99
7.49894	3361.95
7.54223	3366.86
7.58578	3371.72
7.62957	3376.52
7.67361	3381.27
7.71792	3385.96
7.76247	3390.59
7.80728	3395.18
7.85236	3399.71
7.89769	3404.18
7.94328	3408.6
7.98914	3412.96
8.03526	3417.27
8.08165	3421.52
8.12831	3425.71
8.17523	3429.86
8.22243	3433.94
8.2699	3437.97
8.31764	3441.94
8.36566	3445.86
8.41395	3449.73
8.46253	3453.53
8.51138	3457.28
8.56052	3460.98
8.60994	3464.62
8.65964	3468.2
8.70964	3471.73
8.75992	3475.2
8.81049	3478.62
8.86135	3481.98
8.91251	3485.28
8.96396	3488.53
9.01571	3491.72
9.06776	3494.86
9.12011	3497.94
9.17276	3500.97
9.22571	3503.94
9.27897	3506.85
9.33254	3509.71
9.38642	3512.52
9.44061	3515.27
9.49511	3517.96
9.54993	3520.6
9.60506	3523.19
9.66051	3525.72
9.71628	3528.19
9.77237	3530.62
9.82879	3532.98
9.88553	3535.3
9.9426	3537.55
10	3539.76
10.0577	3541.91
10.1158	3544.01
10.1742	3546.05
10.2329	3548.04
10.292	3549.98
10.3514	3551.87
10.4112	3553.7
10.4713	3555.48
10.5317	3557.21
10.5925	3558.88
10.6537	3560.51
10.7152	3562.08
10.7771	3563.6
10.8393	3565.07
10.9018	3566.49
10.9648	3567.85
11.0281	3569.17
11.0917	3570.44
11.1558	3571.66
11.2202	3572.82
11.285	3573.94
11.3501	3575.01
11.4156	3576.03
11.4815	3577
11.5478	3577.93
11.6145	3578.8
11.6815	3579.63
11.749	3580.41
11.8168	3581.14
11.885	3581.82
11.9536	3582.46
12.0226	3583.05
12.0921	3583.6
12.1619	3584.1
12.2321	3584.56
12.3027	3584.97
12.3737	3585.33
12.4451	3585.65
12.517	3585.93
12.5893	3586.16
12.6619	3573.15
12.735	3573.43
12.8086	3573.66
12.8825	3573.85
12.9569	3574
13.0317	3574.1
13.1069	3574.16
13.1826	3574.18
13.2587	3574.16
13.3352	3574.09
13.4122	3573.99
13.4896	3573.84
13.5675	3573.65
13.6458	3573.43
13.7246	3573.16
13.8038	3572.86
13.8835	3572.51
13.9637	3572.13
14.0443	3571.71
14.1254	3571.25
14.2069	3570.76
14.2889	3570.22
14.3714	3569.66
14.4544	3569.05
14.5378	3568.41
14.6218	3567.73
14.7062	3567.02
14.7911	3566.27
14.8765	3565.49
14.9624	3564.68
15.0487	3563.83
15.1356	3562.94
15.223	3562.03
15.3109	3561.08
15.3993	3560.1
15.4882	3559.09
15.5776	3558.05
15.6675	3556.97
15.758	3555.87
15.8489	3554.73
15.9404	3553.57
16.0325	3552.37
16.125	3551.15
16.2181	3549.9
16.3117	3548.61
16.4059	3547.31
16.5006	3545.97
16.5959	3544.6
16.6917	3543.21
16.788	3541.8
16.885	3540.35
16.9824	3538.88
17.0805	3537.39
17.1791	3535.87
17.2783	3534.32
17.378	3532.75
17.4783	3531.16
17.5792	3529.54
17.6807	3527.9
17.7828	3526.23
17.8855	3524.55
17.9887	3522.84
18.0926	3521.11
18.197	3519.35
18.3021	3517.58
18.4077	3515.79
18.514	3513.97
18.6209	3512.13
18.7284	3510.28
18.8365	3508.4
18.9452	3506.51
19.0546	3504.59
19.1646	3502.66
19.2752	3500.71
19.3865	3498.74
19.4984	3496.76
19.611	3494.75
19.7242	3492.73
19.8381	3490.69
19.9526	3488.64
20.0678	3486.57
20.1837	3484.48
20.3002	3482.38
20.4174	3480.26
20.5353	3478.13
20.6538	3475.98
20.773	3473.82
20.893	3471.65
21.0136	3469.46
21.1349	3467.26
21.2569	3465.04
21.3796	3462.81
21.503	3460.57
21.6272	3458.31
21.752	3456.04
21.8776	3453.77
22.0039	3451.47
22.1309	3449.17
22.2587	3446.86
22.3872	3444.53
22.5165	3442.2
22.6464	3439.85
22.7772	3437.49
22.9087	3435.13
23.0409	3432.75
23.1739	3430.36
23.3077	3427.97
23.4423	3425.56
23.5776	3423.14
23.7137	3420.72
23.8506	3418.29
23.9883	3415.85
24.1268	3413.4
24.2661	3410.94
24.4062	3408.48
24.5471	3406
24.6888	3403.52
24.8313	3401.03
24.9747	3398.54
25.1189	3396.04
25.2639	3393.53
25.4097	3391.01
25.5564	3388.49
25.704	3385.96
25.8523	3383.43
26.0016	3380.88
26.1517	3378.34
26.3027	3375.78
26.4545	3373.22
26.6073	3370.66
26.7609	3368.09
26.9153	3365.52
27.0707	3362.94
27.227	3360.35
27.3842	3357.76
27.5423	3355.16
27.7013	3352.56
27.8612	3349.96
28.0221	3347.35
28.1838	3344.74
28.3465	3342.12
28.5102	3339.5
28.6748	3336.87
28.8403	3334.24
29.0068	3331.61
29.1743	3328.97
29.3427	3326.33
29.5121	3323.68
29.6825	3321.03
29.8538	3318.38
30.0262	3315.72
30.1995	3313.06
30.3739	3310.4
30.5492	3307.73
30.7256	3305.06
30.903	3302.39
31.0814	3299.71
31.2608	3297.03
31.4413	3294.35
31.6228	3291.67
31.8053	3288.98
31.989	3286.29
32.1736	3283.59
32.3594	3280.89
32.5462	3278.19
32.7341	3275.49
32.923	3272.79
33.1131	3270.08
33.3043	3267.37
33.4965	3264.65
33.6899	3261.94
33.8844	3259.22
34.08	3256.49
34.2768	3253.77
34.4747	3251.04
34.6737	3248.31
34.8739	3245.58
35.0752	3242.84
35.2777	3240.11
35.4813	3237.36
35.6862	3234.62
35.8922	3231.88
36.0994	3229.13
36.3078	3226.37
36.5174	3223.62
36.7282	3220.86
36.9403	3218.1
37.1535	3215.34
37.368	3212.58
37.5837	3209.81
37.8007	3207.04
38.0189	3204.27
38.2384	3201.49
38.4592	3198.71
38.6812	3195.93
38.9045	3193.14
39.1291	3190.36
39.355	3187.56
39.5822	3184.77
39.8107	3181.97
40.0405	3179.17
40.2717	3176.37
40.5042	3173.57
40.738	3170.76
40.9732	3167.94
41.2098	3165.13
41.4477	3162.31
41.6869	3159.49
41.9276	3156.66
42.1697	3153.83
42.4131	3151
42.658	3148.17
42.9042	3145.33
43.1519	3142.48
43.401	3139.64
43.6516	3136.79
43.9036	3133.93
44.157	3131.08
44.412	3128.22
44.6684	3125.35
44.9262	3122.48
45.1856	3119.61
45.4465	3116.73
45.7088	3113.85
45.9727	3110.97
46.2381	3108.08
46.505	3105.18
46.7735	3102.29
47.0435	3099.39
47.3151	3096.48
47.5883	3093.57
47.863	3090.65
48.1393	3087.74
48.4172	3084.81
48.6968	3081.88
48.9779	3078.95
49.2606	3076.01
49.545	3073.07
49.831	3070.12
50.1187	3067.17
50.4081	3064.21
50.6991	3061.25
50.9918	3058.28
51.2861	3055.31
51.5822	3052.33
51.88	3049.35
52.1795	3046.36
52.4807	3043.37
52.7837	3040.37
53.0884	3037.37
53.3949	3034.36
53.7032	3031.34
54.0132	3028.32
54.325	3025.29
54.6387	3022.26
54.9541	3019.22
55.2713	3016.18
55.5904	3013.13
55.9114	3010.07
56.2341	3007.01
56.5588	3003.94
56.8853	3000.87
57.2137	2997.79
57.544	2994.7
57.8762	2991.61
58.2103	2988.51
58.5464	2985.4
58.8844	2982.29
59.2243	2979.17
59.5662	2976.05
59.9101	2972.91
60.256	2969.78
60.6038	2966.63
60.9537	2963.48
61.3056	2960.32
61.6595	2957.15
62.0155	2953.98
62.3735	2950.8
62.7336	2947.61
63.0957	2944.42
63.46	2941.22
63.8263	2938.01
64.1948	2934.79
64.5654	2931.57
64.9382	2928.34
65.3131	2925.1
65.6901	2921.86
66.0693	2918.6
66.4508	2915.34
66.8344	2912.08
67.2202	2908.8
67.6083	2905.52
67.9986	2902.23
68.3912	2898.93
68.786	2895.62
69.1831	2892.3
69.5825	2888.98
69.9842	2885.65
70.3882	2882.31
70.7946	2878.96
71.2033	2875.61
71.6143	2872.24
72.0278	2868.87
72.4436	2865.49
72.8618	2862.1
73.2825	2858.71
73.7055	2855.3
74.131	2851.89
74.559	2848.46
74.9894	2845.03
75.4223	2841.59
75.8578	2838.14
76.2957	2834.69
76.7361	2831.22
77.1792	2827.75
77.6247	2823.14
78.0728	2817.73
78.5236	2812.33
78.9769	2806.96
79.4328	2801.59
79.8914	2796.22
80.3526	2790.86
80.8165	2785.67
81.2831	2780.31
81.7523	2774.96
82.2243	2769.62
82.699	2764.28
83.1764	2758.94
83.6566	2753.6
84.1395	2748.27
84.6253	2742.94
85.1138	2737.61
85.6052	2732.29
86.0994	2726.97
86.5964	2722.02
87.0964	2716.81
87.5992	2711.5
88.1049	2706.19
88.6135	2700.88
89.1251	2695.58
89.6396	2690.28
90.1571	2684.98
90.6776	2679.68
91.2011	2674.39
91.7276	2669.1
92.2571	2663.81
92.7897	2658.52
93.3254	2653.23
93.8642	2647.94
94.4061	2642.66
94.9511	2638.94
95.4993	2633.65
96.0506	2628.35
96.6051	2623.06
97.1628	2612.46
97.7237	2607.08
98.2879	2602.18
98.8553	2596.81
99.426	2591.43
100	2586.06
100.577	2580.7
101.158	2575.34
101.742	2569.98
102.329	2564.62
102.92	2559.27
103.514	2553.91
104.112	2548.56
104.713	2543.2
105.317	2537.84
105.925	2532.49
106.537	2527.13
107.152	2521.78
107.771	2516.42
108.393	2511.06
109.018	2505.69
109.648	2500.34
110.281	2494.97
110.917	2489.61
111.558	2484.24
112.202	2478.88
112.85	2473.51
113.501	2468.14
114.156	2462.77
114.815	2457.4
115.478	2453.61
116.145	2448.23
116.815	2442.84
117.49	2437.46
118.168	2432.07
118.85	2426.69
119.536	2421.3
120.226	2415.91
120.921	2410.51
121.619	2405.12
122.321	2399.73
123.027	2394.33
123.737	2388.93
124.451	2383.54
125.17	2378.14
125.893	2372.74
126.619	2367.34
127.35	2361.94
128.086	2356.54
128.825	2351.14
129.569	2345.73
130.317	2340.33
131.069	2335.03
131.826	2329.62
132.587	2324.22
133.352	2318.81
134.122	2313.41
134.896	2308
135.675	2302.6
136.458	2297.38
137.246	2292.22
138.038	2287.06
138.835	2281.89
139.637	2276.72
140.443	2271.55
141.254	2266.38
142.069	2261.21
142.889	2256.03
143.714	2250.85
144.544	2245.67
145.378	2240.49
146.218	2235.31
147.062	2230.13
147.911	2224.94
148.765	2219.76
149.624	2214.57
150.487	2209.38
151.356	2204.19
152.23	2199
153.109	2193.81
153.993	2188.62
154.882	2183.43
155.776	2178.24
156.675	2173.05
157.58	2167.85
158.489	2163.28
159.404	2158.07
160.325	2152.87
161.25	2147.67
162.181	2142.47
163.117	2137.27
164.059	2132.07
165.006	2126.87
165.959	2121.68
166.917	2116.48
167.88	2111.29
168.85	2106.09
169.824	2100.9
170.805	2095.71
171.791	2090.52
172.783	2085.34
173.78	2081.61
174.783	2076.42
175.792	2071.23
176.807	2066.03
177.828	2060.85
178.855	2055.66
179.887	2050.48
180.926	2045.3
181.97	2040.12
183.021	2034.95
184.077	2029.78
185.14	2024.61
186.209	2019.44
187.284	2014.28
188.365	2009.12
189.452	2003.97
190.546	1998.82
191.646	1993.67
192.752	1988.52
193.865	1983.38
194.984	1978.25
196.11	1973.11
197.242	1967.98
198.381	1962.85
199.526	1957.73
200.678	1952.61
201.837	1947.49
203.002	1942.38
204.174	1937.27
205.353	1932.17
206.538	1927.07
207.73	1921.97
208.93	1916.88
210.136	1911.79
211.349	1906.71
212.569	1901.63
213.796	1896.55
215.03	1891.48
216.272	1886.41
217.52	1881.35
218.776	1876.29
220.039	1871.27
221.309	1866.22
222.587	1861.58
223.872	1856.53
225.165	1851.49
226.464	1846.45
227.772	1841.41
229.087	1836.37
230.409	1831.34
231.739	1826.32
233.077	1821.3
234.423	1816.28
235.776	1811.27
237.137	1806.26
238.506	1801.26
239.883	1796.26
241.268	1791.26
242.661	1786.27
244.062	1781.28
245.471	1776.3
246.888	1771.32
248.313	1766.35
249.747	1761.38
251.189	1756.42
252.639	1751.46
254.097	1746.5
255.564	1741.55
257.04	1736.6
258.523	1731.66
260.016	1726.73
261.517	1721.79
263.027	1716.86
264.545	1711.94
266.073	1707.02
267.609	1702.11
269.153	1697.2
270.707	1692.29
272.27	1687.39
273.842	1682.5
275.423	1677.61
277.013	1672.72
278.612	1667.84
280.221	1662.96
281.838	1658.09
283.465	1653.23
285.102	1648.37
286.748	1643.51
288.403	1638.66
290.068	1634.36
291.743	1629.51
293.427	1624.67
295.121	1619.83
296.825	1614.99
298.538	1610.16
300.262	1605.34
301.995	1600.52
303.739	1595.7
305.492	1590.89
307.256	1586.09
309.03	1581.31
310.814	1576.52
312.608	1571.73
314.413	1566.94
316.228	1562.16
318.053	1557.39
319.89	1552.62
321.736	1547.86
323.594	1543.11
325.462	1538.36
327.341	1533.61
329.23	1528.87
331.131	1524.14
333.043	1519.41
334.965	1514.69
336.899	1509.97
338.844	1505.26
340.8	1500.55
342.768	1495.85
344.747	1491.15
346.737	1486.46
348.739	1481.78
350.752	1477.1
352.777	1472.43
354.813	1467.76
356.862	1463.1
358.922	1458.44
360.994	1453.79
363.078	1449.15
365.174	1444.51
367.282	1439.88
369.403	1435.26
371.535	1430.64
373.68	1426.03
375.837	1421.42
378.007	1416.82
380.189	1412.22
382.384	1407.64
384.592	1403.05
386.812	1398.48
389.045	1393.91
391.291	1389.35
393.55	1384.79
395.822	1380.24
398.107	1375.7
400.405	1371.16
402.717	1366.63
405.042	1362.11
407.38	1357.6
409.732	1353.44
412.098	1348.93
414.477	1344.43
416.869	1339.94
419.276	1335.45
421.697	1330.97
424.131	1326.5
426.58	1322.04
429.042	1317.58
431.519	1313.13
434.01	1308.69
436.516	1304.25
439.036	1299.82
441.57	1295.4
444.12	1290.99
446.684	1286.58
449.262	1282.19
451.856	1277.8
454.465	1273.41
457.088	1269.04
459.727	1264.67
462.381	1260.31
465.05	1255.96
467.735	1251.62
470.435	1247.28
473.151	1242.96
475.883	1238.64
478.63	1234.32
481.393	1230.02
484.172	1225.73
486.968	1221.44
489.779	1217.16
492.606	1212.89
495.45	1208.63
498.31	1204.38
501.187	1200.13
504.081	1196.48
506.991	1192.24
509.918	1188.01
512.861	1183.8
515.822	1179.59
518.8	1175.39
521.795	1171.2
524.807	1167.01
527.837	1162.84
530.884	1158.67
533.949	1154.52
537.032	1150.37
540.132	1146.23
543.25	1142.1
546.387	1137.98
549.541	1133.86
552.713	1129.76
555.904	1125.66
559.114	1121.58
562.341	1117.5
565.588	1113.43
568.853	1109.37
572.137	1105.32
575.44	1101.28
578.762	1097.25
582.103	1093.23
585.464	1089.21
588.844	1085.21
592.243	1081.22
595.662	1077.23
599.101	1073.26
602.56	1069.29
606.038	1065.34
609.537	1061.39
613.056	1057.45
616.595	1053.52
620.155	1049.6
623.735	1045.69
627.336	1041.79
630.957	1037.9
634.6	1034.02
638.263	1030.15
641.948	1026.28
645.654	1022.43
649.382	1018.59
653.131	1014.75
656.901	1010.93
660.693	1007.11
664.508	1003.31
668.344	999.513
672.202	995.727
676.083	991.95
679.986	988.183
683.912	984.426
687.86	980.678
691.831	976.94
695.825	973.211
699.842	969.492
703.882	965.783
707.946	962.084
712.033	958.394
716.143	954.714
720.278	951.043
724.436	947.383
728.618	943.732
732.825	940.09
737.055	936.46
741.31	932.838
745.59	929.226
749.894	925.624
754.223	922.032
758.578	918.449
762.957	914.877
767.361	911.314
771.792	907.761
776.247	904.218
780.728	900.684
785.236	897.161
789.769	893.647
794.328	890.144
798.914	886.65
803.526	883.166
808.165	879.692
812.831	876.228
817.523	872.774
822.243	869.33
826.99	865.896
831.764	862.471
836.566	859.057
841.395	855.653
846.253	852.258
851.138	848.874
856.052	845.499
860.994	842.135
865.964	838.78
870.964	835.435
875.992	832.101
881.049	828.776
886.135	825.461
891.251	822.156
896.396	818.862
901.571	815.577
906.776	812.302
912.011	809.037
917.276	805.782
922.571	802.538
927.897	799.303
933.254	796.078
938.642	792.863
944.061	789.658
949.511	786.464
954.993	783.279
960.506	780.104
966.051	776.94
971.628	773.785
977.237	770.64
982.879	767.506
988.553	764.381
994.26	761.266
1000	758.161
1005.77	755.067
1011.58	751.982
1017.42	748.908
1023.29	745.843
1029.2	742.789
1035.14	739.745
1041.12	736.71
1047.13	733.686
1053.17	730.671
1059.25	727.667
1065.37	724.673
1071.52	721.688
1077.71	718.714
1083.93	715.749
1090.18	712.795
1096.48	709.85
1102.81	706.916
1109.17	703.991
1115.58	701.076
1122.02	698.171
1128.5	695.276
1135.01	692.391
1141.56	689.516
1148.15	686.65
1154.78	683.795
1161.45	680.95
1168.15	678.114
1174.9	675.287
1181.68	672.472
1188.5	669.666
1195.36	666.87
1202.26	664.083
1209.21	661.307
1216.19	658.54
1223.21	655.783
1230.27	653.036
1237.37	650.299
1244.51	647.571
1251.7	644.853
1258.93	642.145
1266.19	639.447
1273.5	636.758
1280.86	634.079
1288.25	631.41
1295.69	628.75
1303.17	626.1
1310.69	623.46
1318.26	620.83
1325.87	618.209
1333.52	615.597
1341.22	612.995
1348.96	610.403
1356.75	607.821
1364.58	605.247
1372.46	602.684
1380.38	600.13
1388.35	597.586
1396.37	595.051
1404.43	592.525
1412.54	590.009
1420.69	587.503
1428.89	585.006
1437.14	582.518
1445.44	580.04
1453.78	577.571
1462.18	575.111
1470.62	572.661
1479.11	570.22
1487.65	567.789
1496.24	565.366
1504.87	562.954
1513.56	560.55
1522.3	558.156
1531.09	555.771
1539.93	553.395
1548.82	551.028
1557.76	548.671
1566.75	546.322
1575.8	543.983
1584.89	541.653
1594.04	539.332
1603.25	537.02
1612.5	534.718
1621.81	532.424
1631.17	530.14
1640.59	527.864
1650.06	525.598
1659.59	523.34
1669.17	521.092
1678.8	518.852
1688.5	516.621
1698.24	514.4
1708.05	512.187
1717.91	509.983
1727.83	507.788
1737.8	505.602
1747.83	503.424
1757.92	501.256
1768.07	499.096
1778.28	496.945
1788.55	494.803
1798.87	492.669
1809.26	490.544
1819.7	488.428
1830.21	486.321
1840.77	484.222
1851.4	482.131
1862.09	480.05
1872.84	477.977
1883.65	475.912
1894.52	473.856
1905.46	471.809
1916.46	469.77
1927.52	467.739
1938.65	465.717
1949.84	463.704
1961.1	461.698
1972.42	459.702
1983.81	457.713
1995.26	455.733
2006.78	453.761
2018.37	451.798
2030.02	449.843
2041.74	447.896
2053.53	445.957
2065.38	444.027
2077.3	442.105
2089.3	440.191
2101.36	438.285
2113.49	436.387
2125.69	434.497
2137.96	432.616
2150.3	430.742
2162.72	428.877
2175.2	427.019
2187.76	425.17
2200.39	423.328
2213.09	421.495
2225.87	419.669
2238.72	417.852
2251.65	416.042
2264.64	414.24
2277.72	412.446
2290.87	410.659
2304.09	408.881
2317.39	407.11
2330.77	405.347
2344.23	403.592
2357.76	401.844
2371.37	400.104
2385.06	398.372
2398.83	396.647
2412.68	394.93
2426.61	393.221
2440.62	391.519
2454.71	389.825
2468.88	388.138
2483.13	386.459
2497.47	384.787
2511.89	383.122
2526.39	381.465
2540.97	379.816
2555.64	378.173
2570.4	376.538
2585.23	374.911
2600.16	373.291
2615.17	371.678
2630.27	370.072
2645.45	368.473
2660.73	366.882
2676.09	365.298
2691.53	363.721
2707.07	362.151
2722.7	360.588
2738.42	359.033
2754.23	357.484
2770.13	355.943
2786.12	354.408
2802.21	352.881
2818.38	351.36
2834.65	349.847
2851.02	348.34
2867.48	346.84
2884.03	345.347
2900.68	343.861
2917.43	342.382
2934.27	340.91
2951.21	339.444
2968.25	337.985
2985.38	336.533
3002.62	335.088
3019.95	333.649
3037.39	332.217
3054.92	330.791
3072.56	329.372
3090.3	327.96
3108.14	326.555
3126.08	325.155
3144.13	323.763
3162.28	322.377
3180.53	320.997
3198.9	319.624
3217.36	318.257
3235.94	316.897
3254.62	315.543
3273.41	314.195
3292.3	312.854
3311.31	311.519
3330.43	310.19
3349.65	308.868
3368.99	307.552
3388.44	306.242
3408	304.938
3427.68	303.64
3447.47	302.349
3467.37	301.063
3487.39	299.784
3507.52	298.511
3527.77	297.244
3548.13	295.983
3568.62	294.728
3589.22	293.478
3609.94	292.235
3630.78	290.998
3651.74	289.767
3672.82	288.541
3694.03	287.322
3715.35	286.108
3736.8	284.9
3758.37	283.698
3780.07	282.502
3801.89	281.311
3823.84	280.127
3845.92	278.948
3868.12	277.774
3890.45	276.606
3912.91	275.444
3935.5	274.288
3958.22	273.137
3981.07	271.992
4004.05	270.852
4027.17	269.718
4050.42	268.589
4073.8	267.466
4097.32	266.348
4120.98	265.236
4144.77	264.129
4168.69	263.028
4192.76	261.932
4216.97	260.841
4241.31	259.756
4265.8	258.676
4290.42	257.601
4315.19	256.531
4340.1	255.467
4365.16	254.408
4390.36	253.354
4415.7	252.306
4441.2	251.262
4466.84	250.224
4492.62	249.191
4518.56	248.163
4544.65	247.14
4570.88	246.122
4597.27	245.109
4623.81	244.101
4650.5	243.098
4677.35	242.1
4704.35	241.107
4731.51	240.119
4758.83	239.136
4786.3	238.158
4813.93	237.184
4841.72	236.216
4869.68	235.252
4897.79	234.293
4926.06	233.339
4954.5	232.39
4983.1	231.445
5011.87	230.505
5040.81	229.57
5069.91	228.64
5099.18	227.714
5128.61	226.793
5158.22	225.876
5188	224.964
5217.95	224.057
5248.07	223.154
5278.37	222.256
5308.84	221.362
5339.49	220.473
5370.32	219.588
5401.32	218.708
5432.5	217.832
5463.87	216.961
5495.41	216.094
5527.13	215.232
5559.04	214.374
5591.14	213.52
5623.41	212.67
5655.88	211.825
5688.53	210.984
5721.37	210.148
5754.4	209.316
5787.62	208.488
5821.03	207.664
5854.64	206.844
5888.44	206.029
5922.43	205.217
5956.62	204.41
5991.01	203.607
6025.6	202.809
6060.38	202.014
6095.37	201.223
6130.56	200.436
6165.95	199.654
6201.55	198.875
6237.35	198.101
6273.36	197.33
6309.57	196.564
6346	195.801
6382.63	195.042
6419.48	194.288
6456.54	193.537
6493.82	192.79
6531.31	192.047
6569.01	191.307
6606.93	190.572
6645.08	189.84
6683.44	189.113
6722.02	188.388
6760.83	187.668
6799.86	186.952
6839.12	186.239
6878.6	185.53
6918.31	184.824
6958.25	184.123
6998.42	183.425
7038.82	182.73
7079.46	182.04
7120.33	181.352
7161.43	180.669
7202.78	179.989
7244.36	179.312
7286.18	178.64
7328.25	177.97
7370.55	177.305
7413.1	176.642
7455.9	175.983
7498.94	175.328
7542.23	174.676
7585.78	174.028
7629.57	173.383
7673.61	172.741
7717.92	172.103
7762.47	171.468
7807.28	170.837
7852.36	170.209
7897.69	169.584
7943.28	168.962
7989.14	168.344
8035.26	167.729
8081.65	167.118
8128.31	166.509
8175.23	165.904
8222.43	165.303
8269.9	164.704
8317.64	164.108
8365.66	163.516
8413.95	162.927
8462.53	162.341
8511.38	161.758
8560.52	161.179
8609.94	160.602
8659.64	160.029
8709.64	159.458
8759.92	158.891
8810.49	158.327
8861.35	157.766
8912.51	157.207
8963.96	156.652
9015.71	156.1
9067.76	155.551
9120.11	155.005
9172.76	154.461
9225.71	153.921
9278.97	153.384
9332.54	152.849
9386.42	152.318
9440.61	151.789
9495.11	151.263
9549.93	150.741
9605.06	150.221
9660.51	149.703
9716.28	149.189
9772.37	148.677
9828.79	148.169
9885.53	147.663
9942.6	147.16
10000	146.659
10057.7	146.162
10115.8	145.667
10174.2	145.174
10232.9	144.685
10292	144.198
10351.4	143.714
10411.2	143.233
10471.3	142.754
10531.7	142.278
10592.5	141.804
10653.7	141.334
10715.2	140.865
10777.1	140.4
10839.3	139.937
10901.8	139.476
10964.8	139.019
11028.1	138.563
11091.7	138.111
11155.8	137.66
11220.2	137.213
11285	136.767
11350.1	136.325
11415.6	135.885
11481.5	135.447
11547.8	135.012
11614.5	134.579
11681.5	134.148
11749	133.721
11816.8	133.295
11885	132.872
11953.6	132.451
12022.6	132.033
12092.1	131.617
12161.9	131.203
12232.1	130.792
12302.7	130.383
12373.7	129.977
12445.1	129.573
12517	129.171
12589.3	128.771
12661.9	128.374
12735	127.979
12808.6	127.586
12882.5	127.196
12956.9	126.807
13031.7	126.421
13106.9	126.038
13182.6	125.656
13258.7	125.277
13335.2	124.899
13412.2	124.525
13489.6	124.152
13567.5	123.781
13645.8	123.413
13724.6	123.046
13803.8	122.682
13883.5	122.32
13963.7	121.96
14044.3	121.602
14125.4	121.247
14206.9	120.893
14288.9	120.542
14371.4	120.192
14454.4	119.845
14537.8	119.499
14621.8	119.156
14706.2	118.815
14791.1	118.476
14876.5	118.138
14962.4	117.803
15048.7	117.47
15135.6	117.139
15223	116.809
15310.9	116.482
15399.3	116.157
15488.2	115.833
15577.6	115.512
15667.5	115.193
15758	114.875
15848.9	114.559
15940.4	114.246
16032.5	113.934
16125	113.624
16218.1	113.316
16311.7	113.009
16405.9	112.705
16500.6	112.403
16595.9	112.102
16691.7	111.803
16788	111.506
16885	111.211
16982.4	110.918
17080.5	110.626
17179.1	110.337
17278.3	110.049
17378	109.763
17478.3	109.478
17579.2	109.196
17680.7	108.915
17782.8	108.636
17885.5	108.358
17988.7	108.083
18092.6	107.809
18197	107.537
18302.1	107.266
18407.7	106.998
18514	106.73
18620.9	106.465
18728.4	106.201
18836.5	105.939
18945.2	105.679
19054.6	105.42
19164.6	105.163
19275.2	104.908
19386.5	104.654
19498.4	104.402
19611	104.152
19724.2	103.903
19838.1	103.655
19952.6	103.41
20067.8	103.166
20183.7	102.923
20300.2	102.682
20417.4	102.443
20535.3	102.205
20653.8	101.969
20773	101.734
20893	101.501
21013.6	101.269
21134.9	101.039
21256.9	100.81
21379.6	100.583
21503	100.358
21627.2	100.134
21752	99.9113
21877.6	99.6902
22003.9	99.4706
22130.9	99.2525
22258.7	99.0358
22387.2	98.8206
22516.5	98.6069
22646.4	98.3946
22777.2	98.1838
22908.7	97.9744
23040.9	97.7664
23173.9	97.5598
23307.7	97.3547
23442.3	97.1509
23577.6	96.9486
23713.7	96.7477
23850.6	96.5481
23988.3	96.3499
24126.8	96.1532
24266.1	95.9577
24406.2	95.7637
24547.1	95.571
24688.8	95.3797
24831.3	95.1897
24974.7	95.001
25118.9	94.8137
25263.9	94.6277
25409.7	94.4431
25556.4	94.2597
25704	94.0777
25852.3	93.8969
26001.6	93.7175
26151.7	93.5394
26302.7	93.3625
26454.5	93.187
26607.3	93.0127
26760.9	92.8397
26915.3	92.6679
27070.7	92.4974
27227	92.3282
27384.2	92.1602
27542.3	91.9934
27701.3	91.8279
27861.2	91.6636
28022.1	91.5006
28183.8	91.3387
28346.5	91.1781
28510.2	91.0187
28674.8	90.8605
28840.3	90.7035
29006.8	90.5477
29174.3	90.393
29342.7	90.2396
29512.1	90.0873
29682.5	89.9362
29853.8	89.7863
30026.2	89.6375
30199.5	89.4899
30373.9	89.3434
30549.2	89.1981
30725.6	89.0539
30903	88.9109
31081.4	88.769
31260.8	88.6282
31441.3	88.4885
31622.8	88.35
31805.3	88.2125
31989	88.0762
32173.6	87.941
32359.4	87.8068
32546.2	87.6738
32734.1	87.5418
32923	87.4109
33113.1	87.2811
33304.3	87.1524
33496.5	87.0247
33689.9	86.8981
33884.4	86.7726
34080	86.6481
34276.8	86.5246
34474.7	86.4022
34673.7	86.2808
34873.9	86.1605
35075.2	86.0412
35277.7	85.9229
35481.3	85.8056
35686.2	85.6894
35892.2	85.5741
36099.4	85.4599
36307.8	85.3467
36517.4	85.2344
36728.2	85.1232
36940.3	85.0129
37153.5	84.9036
37368	84.7953
37583.7	84.688
37800.7	84.5736
38018.9	84.4593
38238.4	84.3458
38459.2	84.2333
38681.2	84.1218
38904.5	84.0112
39129.1	83.9015
39355	83.7928
39582.2	83.6849
39810.7	83.578
40040.5	83.472
40271.7	83.3669
40504.2	83.2627
40738	83.1594
40973.2	83.057
41209.8	82.9555
41447.7	82.8549
41686.9	82.7551
41927.6	82.6562
42169.7	82.5582
42413.1	82.4611
42658	82.3649
42904.2	82.2695
43151.9	82.1749
43401	82.0812
43651.6	81.9884
43903.6	81.8964
44157	81.8052
44412	81.7149
44668.4	81.6254
44926.2	81.5367
45185.6	81.4488
45446.5	81.3618
45708.8	81.2756
45972.7	81.1902
46238.1	81.1056
46505	81.0218
46773.5	80.9388
47043.5	80.8566
47315.1	80.7752
47588.3	80.6946
47863	80.6147
48139.3	80.5357
48417.2	80.4574
48696.8	80.3799
48977.9	80.3032
49260.6	80.2272
49545	80.152
49831	80.0775
50118.7	80.0038
50408.1	79.9308
50699.1	79.8586
50991.8	79.7871
51286.1	79.7164
51582.2	79.6464
51880	79.5771
52179.5	79.5086
52480.7	79.4408
52783.7	79.3736
53088.4	79.3073
53394.9	79.2416
53703.2	79.1766
54013.2	79.1123
54325	79.0488
54638.7	78.9859
54954.1	78.9237
55271.3	78.8623
55590.4	78.8015
55911.4	78.7414
56234.1	78.6819
56558.8	78.6232
56885.3	78.5651
57213.7	78.5077
57544	78.4509
57876.2	78.3948
58210.3	78.3394
58546.4	78.2846
58884.4	78.2305
59224.3	78.177
59566.2	78.1242
59910.1	78.072
60256	78.0205
60603.8	77.9695
60953.7	77.9193
61305.6	77.8696
61659.5	77.8206
62015.5	77.7722
62373.5	77.7244
62733.6	77.6772
63095.7	77.6306
63460	77.5847
63826.3	77.5393
64194.8	77.4946
64565.4	77.4504
64938.2	77.4069
65313.1	77.3639
65690.1	77.3216
66069.3	77.2798
66450.8	77.2386
66834.4	77.1979
67220.2	77.1579
67608.3	77.1184
67998.6	77.0795
68391.2	77.0412
68786	77.0034
69183.1	76.9662
69582.5	76.9295
69984.2	76.8934
70388.2	76.8579
70794.6	76.8229
71203.3	76.7884
71614.3	76.7545
72027.8	76.7212
72443.6	76.6883
72861.8	76.656
73282.5	76.6242
73705.5	76.593
74131	76.5623
74559	76.5321
74989.4	76.5024
75422.3	76.4732
75857.8	76.4446
76295.7	76.4164
76736.1	76.3888
77179.2	76.3617
77624.7	76.335
78072.8	76.3089
78523.6	76.2833
78976.9	76.2581
79432.8	76.2335
79891.4	76.2093
80352.6	76.1856
80816.5	76.1624
81283.1	76.1397
81752.3	76.1175
82224.3	76.0957
82699	76.0744
83176.4	76.0536
83656.6	76.0332
84139.5	76.0133
84625.3	75.9939
85113.8	75.9749
85605.2	75.9563
86099.4	75.9382
86596.4	75.9206
87096.4	75.9034
87599.2	75.8867
88104.9	75.8704
88613.5	75.8545
89125.1	75.8391
89639.6	75.8241
90157.1	75.8095
90677.6	75.7954
91201.1	75.7816
91727.6	75.7683
92257.1	75.7555
92789.7	75.743
93325.4	75.731
93864.2	75.7193
94406.1	75.7081
94951.1	75.6973
95499.3	75.6869
96050.6	75.6769
96605.1	75.6673
97162.8	75.6581
97723.7	75.6493
98287.9	75.6408
98855.3	75.6328
99426	75.6252
100000	75.6179
100577	75.611
101158	75.6045
101742	75.5984
102329	75.5927
102920	75.5873
103514	75.5823
104112	75.5777
104713	75.5734
105317	75.5695
105925	75.566
106537	75.5628
107152	75.56
107771	75.5575
108393	75.5554
109018	75.5536
109648	75.5522
110281	75.5511
110917	75.5504
111558	75.55
112202	75.55
112850	75.5503
113501	75.5509
114156	75.5518
114815	75.5531
115478	75.5547
116145	75.5567
116815	75.5589
117490	75.5615
118168	75.5644
118850	75.5676
119536	75.5712
120226	75.575
120921	75.5792
121619	75.5836
122321	75.5884
123027	75.5935
123737	75.5988
124451	75.6045
125170	75.6105
125893	75.6168
126619	75.6233
127350	75.6302
128086	75.6373
128825	75.6448
129569	75.6525
130317	75.6605
131069	75.6688
131826	75.6773
132587	75.6862
133352	75.6953
134122	75.7047
134896	75.7144
135675	75.7243
136458	75.7345
137246	75.745
138038	75.7557
138835	75.7667
139637	75.778
140443	75.7895
141254	75.8013
142069	75.8133
142889	75.8256
143714	75.8381
144544	75.8509
145378	75.8639
146218	75.8772
147062	75.8907
147911	75.9045
148765	75.9185
149624	75.9328
150487	75.9473
151356	75.962
152230	75.9769
153109	75.9921
153993	76.0075
154882	76.0232
155776	76.039
156675	76.0551
157580	76.0715
158489	76.088
159404	76.1048
160325	76.1217
161250	76.1389
162181	76.1563
163117	76.174
164059	76.1918
165006	76.2099
165959	76.2281
166917	76.2466
167880	76.2652
168850	76.2841
169824	76.3032
170805	76.3225
171791	76.3419
172783	76.3616
173780	76.3815
174783	76.4015
175792	76.4218
176807	76.4422
177828	76.4629
178855	76.4837
179887	76.5047
180926	76.5259
181970	76.5473
183021	76.5688
184077	76.5906
185140	76.6125
186209	76.6346
187284	76.6569
188365	76.6793
189452	76.702
190546	76.7248
191646	76.7477
192752	76.7709
193865	76.7942
194984	76.8176
196110	76.8413
197242	76.8651
198381	76.889
199526	76.9132
200678	76.9374
201837	76.9619
203002	76.9865
204174	77.0112
205353	77.0362
206538	77.0612
207730	77.0864
208930	77.1118
210136	77.1373
211349	77.163
212569	77.1888
213796	77.2147
215030	77.2408
216272	77.2671
217520	77.2935
218776	77.32
220039	77.3467
221309	77.3735
222587	77.4004
223872	77.4275
225165	77.4547
226464	77.482
227772	77.5095
229087	77.5371
230409	77.5649
231739	77.5927
233077	77.6207
234423	77.6488
235776	77.6771
237137	77.7054
238506	77.7339
239883	77.7625
241268	77.7913
242661	77.8201
244062	77.8491
245471	77.8782
246888	77.9074
248313	77.9367
249747	77.9661
251189	77.9957
252639	78.0253
254097	78.0551
255564	78.085
257040	78.115
258523	78.1451
260016	78.1753
261517	78.2056
263027	78.236
264545	78.2665
266073	78.2971
267609	78.3278
269153	78.3587
270707	78.3896
272270	78.4206
273842	78.4517
275423	78.4829
277013	78.5142
278612	78.5456
280221	78.5771
281838	78.6087
283465	78.6404
285102	78.6722
286748	78.7041
288403	78.736
290068	78.7681
291743	78.8002
293427	78.8324
295121	78.8647
296825	78.8971
298538	78.9296
300262	78.9622
301995	78.9948
303739	79.0275
305492	79.0603
307256	79.0932
309030	79.1262
310814	79.1592
312608	79.1923
314413	79.2255
316228	79.2588
318053	79.2921
319890	79.3256
321736	79.359
323594	79.3926
325462	79.4263
327341	79.46
329230	79.4937
331131	79.5276
333043	79.5615
334965	79.5955
336899	79.6295
338844	79.6637
340800	79.6979
342768	79.7321
344747	79.7664
346737	79.8008
348739	79.8352
350752	79.8697
352777	79.9043
354813	79.9389
356862	79.9736
358922	80.0084
360994	80.0432
363078	80.078
365174	80.113
367282	80.1479
369403	80.183
371535	80.218
373680	80.2532
375837	80.2884
378007	80.3236
380189	80.3589
382384	80.3943
384592	80.4297
386812	80.4652
389045	80.5007
391291	80.5362
393550	80.5718
395822	80.6075
398107	80.6432
400405	80.6789
402717	80.7147
405042	80.7506
407380	80.7865
409732	80.8224
412098	80.8584
414477	80.8944
416869	80.9305
419276	80.9666
421697	81.0027
424131	81.0389
426580	81.0751
429042	81.1114
431519	81.1477
434010	81.1841
436516	81.2205
439036	81.2569
441570	81.2934
444120	81.3299
446684	81.3664
449262	81.403
451856	81.4396
454465	81.4763
457088	81.5129
459727	81.5497
462381	81.5864
465050	81.6232
467735	81.66
470435	81.6969
473151	81.7337
475883	81.7707
478630	81.8076
481393	81.8446
484172	81.8816
486968	81.9186
489779	81.9557
492606	81.9928
495450	82.0299
498310	82.067
501187	82.1042
504081	82.1414
506991	82.1786
509918	82.2159
512861	82.2532
515822	82.2905
518800	82.3278
521795	82.3652
524807	82.4025
527837	82.44
530884	82.4774
533949	82.5148
537032	82.5523
540132	82.5898
543250	82.6273
546387	82.6648
549541	82.7024
552713	82.74
555904	82.7776
559114	82.8152
562341	82.8528
565588	82.8905
568853	82.9282
572137	82.9659
575440	83.0036
578762	83.0413
582103	83.079
585464	83.1168
588844	83.1546
592243	83.1924
595662	83.2302
599101	83.268
602560	83.3059
606038	83.3437
609537	83.3816
613056	83.4195
616595	83.4574
620155	83.4953
623735	83.5332
627336	83.5712
630957	83.6091
634600	83.6471
638263	83.6851
641948	83.723
645654	83.761
649382	83.7991
653131	83.8371
656901	83.8751
660693	83.9132
664508	83.9512
668344	83.9893
672202	84.0274
676083	84.0654
679986	84.1035
683912	84.1416
687860	84.1797
691831	84.2179
695825	84.256
699842	84.2941
703882	84.3323
707946	84.3704
712033	84.4086
716143	84.4467
720278	84.4849
724436	84.5231
728618	84.5612
732825	84.5994
737055	84.6376
741310	84.6758
745590	84.714
749894	84.7522
754223	84.7904
758578	84.8287
762957	84.8669
767361	84.9051
771792	84.9433
776247	84.9816
780728	85.0198
785236	85.058
789769	85.0963
794328	85.1345
798914	85.1727
803526	85.211
808165	85.2492
812831	85.2875
817523	85.3257
822243	85.364
826990	85.4023
831764	85.4405
836566	85.4788
841395	85.517
846253	85.5553
851138	85.5935
856052	85.6318
860994	85.67
865964	85.7083
870964	85.7466
875992	85.7848
881049	85.8231
886135	85.8613
891251	85.8996
896396	85.9378
901571	85.9761
906776	86.0143
912011	86.0526
917276	86.0908
922571	86.1291
927897	86.1673
933254	86.2055
938642	86.2438
944061	86.282
949511	86.3202
954993	86.3585
960506	86.3967
966051	86.4349
971628	86.4731
977237	86.5113
982879	86.5495
988553	86.5877
994260	86.6259
1e+06	86.6641
1.00577e+06	86.7023
1.01158e+06	86.7405
1.01742e+06	86.7787
1.02329e+06	86.8169
1.0292e+06	86.855
1.03514e+06	86.8932
1.04112e+06	86.9314
1.04713e+06	86.9695
1.05317e+06	87.0077
1.05925e+06	87.0458
1.06537e+06	87.0839
1.07152e+06	87.1221
1.07771e+06	87.1602
1.08393e+06	87.1983
1.09018e+06	87.2364
1.09648e+06	87.2745
1.10281e+06	87.3126
1.10917e+06	87.3507
1.11558e+06	87.3888
1.12202e+06	87.4269
1.1285e+06	87.465
1.13501e+06	87.503
1.14156e+06	87.5411
1.14815e+06	87.5792
1.15478e+06	87.6172
1.16145e+06	87.6552
1.16815e+06	87.6933
1.1749e+06	87.7313
1.18168e+06	87.7693
1.1885e+06	87.8073
1.19536e+06	87.8453
1.20226e+06	87.8833
1.20921e+06	87.9213
1.21619e+06	87.9593
1.22321e+06	87.9972
1.23027e+06	88.0352
1.23737e+06	88.0731
1.24451e+06	88.1111
1.2517e+06	88.149
1.25893e+06	88.1869
1.26619e+06	88.2248
1.2735e+06	88.2628
1.28086e+06	88.3006
1.28825e+06	88.3385
1.29569e+06	88.3764
1.30317e+06	88.4143
1.31069e+06	88.4521
1.31826e+06	88.49
1.32587e+06	88.5278
1.33352e+06	88.5657
1.34122e+06	88.6035
1.34896e+06	88.6413
1.35675e+06	88.6791
1.36458e+06	88.7169
1.37246e+06	88.7547
1.38038e+06	88.7924
1.38835e+06	88.8302
1.39637e+06	88.8679
1.40443e+06	88.9057
1.41254e+06	88.9434
1.42069e+06	88.9811
1.42889e+06	89.0188
1.43714e+06	89.0565
1.44544e+06	89.0942
1.45378e+06	89.1319
1.46218e+06	89.1695
1.47062e+06	89.2072
1.47911e+06	89.2448
1.48765e+06	89.2825
1.49624e+06	89.3201
1.50487e+06	89.3577
1.51356e+06	89.3953
1.5223e+06	89.4329
1.53109e+06	89.4705
1.53993e+06	89.508
1.54882e+06	89.5456
1.55776e+06	89.5831
1.56675e+06	89.6206
1.5758e+06	89.6582
1.58489e+06	89.6957
1.59404e+06	89.7332
1.60325e+06	89.7706
1.6125e+06	89.8081
1.62181e+06	89.8456
1.63117e+06	89.883
1.64059e+06	89.9204
1.65006e+06	89.9579
1.65959e+06	89.9953
1.66917e+06	90.0327
1.6788e+06	90.0701
1.6885e+06	90.1074
1.69824e+06	90.1448
1.70805e+06	90.1821
1.71791e+06	90.2195
1.72783e+06	90.2568
1.7378e+06	90.2941
1.74783e+06	90.3314
1.75792e+06	90.3687
1.76807e+06	90.406
1.77828e+06	90.4432
1.78855e+06	90.4805
1.79887e+06	90.5177
1.80926e+06	90.5549
1.8197e+06	90.5921
1.83021e+06	90.6293
1.84077e+06	90.6665
1.8514e+06	90.7037
1.86209e+06	90.7408
1.87284e+06	90.778
1.88365e+06	90.8151
1.89452e+06	90.8522
1.90546e+06	90.8893
1.91646e+06	90.9264
1.92752e+06	90.9635
1.93865e+06	91.0005
1.94984e+06	91.0376
1.9611e+06	91.0746
1.97242e+06	91.1116
1.98381e+06	91.1486
1.99526e+06	91.1856
2.00678e+06	91.2226
2.01837e+06	91.2596
2.03002e+06	91.2965
2.04174e+06	91.3335
2.05353e+06	91.3704
2.06538e+06	91.4073
2.0773e+06	91.4442
2.0893e+06	91.4811
2.10136e+06	91.518
2.11349e+06	91.5548
2.12569e+06	91.5917
2.13796e+06	91.6285
2.1503e+06	91.6653
2.16272e+06	91.7021
2.1752e+06	91.7389
2.18776e+06	91.7757
2.20039e+06	91.8124
2.21309e+06	91.8492
2.22587e+06	91.8859
2.23872e+06	91.9226
2.25165e+06	91.9593
2.26464e+06	91.996
2.27772e+06	92.0327
2.29087e+06	92.0694
2.30409e+06	92.106
2.31739e+06	92.1426
2.33077e+06	92.1792
2.34423e+06	92.2158
2.35776e+06	92.2524
2.37137e+06	92.289
2.38506e+06	92.3256
2.39883e+06	92.3621
2.41268e+06	92.3986
2.42661e+06	92.4352
2.44062e+06	92.4717
2.45471e+06	92.5081
2.46888e+06	92.5446
2.48313e+06	92.5811
2.49747e+06	92.6175
2.51189e+06	92.6539
2.52639e+06	92.6903
2.54097e+06	92.7267
2.55564e+06	92.7631
2.5704e+06	92.7995
2.58523e+06	92.8358
2.60016e+06	92.8722
2.61517e+06	92.9085
2.63027e+06	92.9448
2.64545e+06	92.9811
2.66073e+06	93.0174
2.67609e+06	93.0537
2.69153e+06	93.0899
2.70707e+06	93.1261
2.7227e+06	93.1624
2.73842e+06	93.1986
2.75423e+06	93.2347
2.77013e+06	93.2709
2.78612e+06	93.3071
2.80221e+06	93.3432
2.81838e+06	93.3793
2.83465e+06	93.4155
2.85102e+06	93.4516
2.86748e+06	93.4876
2.88403e+06	93.5237
2.90068e+06	93.5598
2.91743e+06	93.5958
2.93427e+06	93.6318
2.95121e+06	93.6678
2.96825e+06	93.7038
2.98538e+06	93.7398
3.00262e+06	93.7758
3.01995e+06	93.8117
3.03739e+06	93.8476
3.05492e+06	93.8835
3.07256e+06	93.9194
3.0903e+06	93.9553
3.10814e+06	93.9912
3.12608e+06	94.027
3.14413e+06	94.0629
3.16228e+06	94.0987
3.18053e+06	94.1345
3.1989e+06	94.1703
3.21736e+06	94.2061
3.23594e+06	94.2418
3.25462e+06	94.2776
3.27341e+06	94.3133
3.2923e+06	94.349
3.31131e+06	94.3847
3.33043e+06	94.4204
3.34965e+06	94.4561
3.36899e+06	94.4917
3.38844e+06	94.5274
3.408e+06	94.563
3.42768e+06	94.5986
3.44747e+06	94.6342
3.46737e+06	94.6697
3.48739e+06	94.7053
3.50752e+06	94.7408
3.52777e+06	94.7764
3.54813e+06	94.8119
3.56862e+06	94.8474
3.58922e+06	94.8829
3.60994e+06	94.9183
3.63078e+06	94.9538
3.65174e+06	94.9892
3.67282e+06	95.0246
3.69403e+06	95.06
3.71535e+06	95.0954
3.7368e+06	95.1308
3.75837e+06	95.1661
3.78007e+06	95.2015
3.80189e+06	95.2368
3.82384e+06	95.2721
3.84592e+06	95.3074
3.86812e+06	95.3426
3.89045e+06	95.3779
3.91291e+06	95.4131
3.9355e+06	95.4484
3.95822e+06	95.4836
3.98107e+06	95.5188
4.00405e+06	95.5539
4.02717e+06	95.5891
4.05042e+06	95.6242
4.0738e+06	95.6594
4.09732e+06	95.6945
4.12098e+06	95.7296
4.14477e+06	95.7647
4.16869e+06	95.7997
4.19276e+06	95.8348
4.21697e+06	95.8698
4.24131e+06	95.9048
4.2658e+06	95.9398
4.29042e+06	95.9748
4.31519e+06	96.0098
4.3401e+06	96.0447
4.36516e+06	96.0797
4.39036e+06	96.1146
4.4157e+06	96.1495
4.4412e+06	96.1844
4.46684e+06	96.2192
4.49262e+06	96.2541
4.51856e+06	96.2889
4.54465e+06	96.3238
4.57088e+06	96.3586
4.59727e+06	96.3933
4.62381e+06	96.4281
4.6505e+06	96.4629
4.67735e+06	96.4976
4.70435e+06	96.5323
4.73151e+06	96.5671
4.75883e+06	96.6017
4.7863e+06	96.6364
4.81393e+06	96.6711
4.84172e+06	96.7057
4.86968e+06	96.7403
4.89779e+06	96.775
4.92606e+06	96.8095
4.9545e+06	96.8441
4.9831e+06	96.8787
5.01187e+06	96.9132
5.04081e+06	96.9478
5.06991e+06	96.9823
5.09918e+06	97.0168
5.12861e+06	97.0512
5.15822e+06	97.0857
5.188e+06	97.1201
5.21795e+06	97.1546
5.24807e+06	97.189
5.27837e+06	97.2234
5.30884e+06	97.2578
5.33949e+06	97.2921
5.37032e+06	97.3265
5.40132e+06	97.3608
5.4325e+06	97.3951
5.46387e+06	97.4294
5.49541e+06	97.4637
5.52713e+06	97.4979
5.55904e+06	97.5322
5.59114e+06	97.5664
5.62341e+06	97.6006
5.65588e+06	97.6348
5.68853e+06	97.669
5.72137e+06	97.7032
5.7544e+06	97.7373
5.78762e+06	97.7714
5.82103e+06	97.8055
5.85464e+06	97.8396
5.88844e+06	97.8737
5.92243e+06	97.9078
5.95662e+06	97.9418
5.99101e+06	97.9758
6.0256e+06	98.0099
6.06038e+06	98.0438
6.09537e+06	98.0778
6.13056e+06	98.1118
6.16595e+06	98.1457
6.20155e+06	98.1797
6.23735e+06	98.2136
6.27336e+06	98.2475
6.30957e+06	98.2813
6.346e+06	98.3152
6.38263e+06	98.349
6.41948e+06	98.3829
6.45654e+06	98.4167
6.49382e+06	98.4505
6.53131e+06	98.4842
6.56901e+06	98.518
6.60693e+06	98.5517
6.64508e+06	98.5854
6.68344e+06	98.6192
6.72202e+06	98.6528
6.76083e+06	98.6865
6.79986e+06	98.7202
6.83912e+06	98.7538
6.8786e+06	98.7874
6.91831e+06	98.821
6.95825e+06	98.8546
6.99842e+06	98.8882
7.03882e+06	98.9217
7.07946e+06	98.9553
7.12033e+06	98.9888
7.16143e+06	99.0223
7.20278e+06	99.0558
7.24436e+06	99.0892
7.28618e+06	99.1227
7.32825e+06	99.1561
7.37055e+06	99.1895
7.4131e+06	99.2229
7.4559e+06	99.2563
7.49894e+06	99.2897
7.54223e+06	99.323
7.58578e+06	99.3563
7.62957e+06	99.3896
7.67361e+06	99.4229
7.71792e+06	99.4562
7.76247e+06	99.4895
7.80728e+06	99.5227
7.85236e+06	99.5559
7.89769e+06	99.5891
7.94328e+06	99.6223
7.98914e+06	99.6555
8.03526e+06	99.6886
8.08165e+06	99.7218
8.12831e+06	99.7549
8.17523e+06	99.788
8.22243e+06	99.8211
8.2699e+06	99.8541
8.31764e+06	99.8872
8.36566e+06	99.9202
8.41395e+06	99.9532
8.46253e+06	99.9862
8.51138e+06	100.019
8.56052e+06	100.052
8.60994e+06	100.085
8.65964e+06	100.118
8.70964e+06	100.151
8.75992e+06	100.184
8.81049e+06	100.217
8.86135e+06	100.25
8.91251e+06	100.282
8.96396e+06	100.315
9.01571e+06	100.348
9.06776e+06	100.381
9.12011e+06	100.414
9.17276e+06	100.446
9.22571e+06	100.479
9.27897e+06	100.512
9.33254e+06	100.544
9.38642e+06	100.577
9.44061e+06	100.61
9.49511e+06	100.642
9.54993e+06	100.675
9.60506e+06	100.708
9.66051e+06	100.74
9.71628e+06	100.773
9.77237e+06	100.805
9.82879e+06	100.838
9.88553e+06	100.87
9.9426e+06	100.903
1e+07	100.935
