Stopping power dEdx from Ionisation for K39[0.0] Z = 19 in G4_Si, process name: ionIoni
E [MeV]	dEdx [MeV/mm]
0.001	29.3453
0.00100577	29.4305
0.00101158	29.516
0.00101742	29.6017
0.00102329	29.6876
0.0010292	29.7738
0.00103514	29.8603
0.00104112	29.947
0.00104713	30.0339
0.00105317	30.1211
0.00105925	30.2086
0.00106537	30.2963
0.00107152	30.3842
0.00107771	30.4724
0.00108393	30.5609
0.00109018	30.6496
0.00109648	30.7386
0.00110281	30.8278
0.00110917	30.9173
0.00111558	31.0071
0.00112202	31.0971
0.0011285	31.1873
0.00113501	31.2778
0.00114156	31.3686
0.00114815	31.4597
0.00115478	31.551
0.00116145	31.6426
0.00116815	31.7344
0.0011749	31.8265
0.00118168	31.9189
0.0011885	32.0115
0.00119536	32.1044
0.00120226	32.1976
0.00120921	32.291
0.00121619	32.3847
0.00122321	32.4787
0.00123027	32.5729
0.00123737	32.6674
0.00124451	32.7622
0.0012517	32.8573
0.00125893	32.9526
0.00126619	33.0482
0.0012735	33.1441
0.00128086	33.2403
0.00128825	33.3367
0.00129569	33.4334
0.00130317	33.5304
0.00131069	33.6277
0.00131826	33.7253
0.00132587	33.8231
0.00133352	33.9212
0.00134122	34.0196
0.00134896	34.1183
0.00135675	34.2173
0.00136458	34.3166
0.00137246	34.4161
0.00138038	34.5159
0.00138835	34.616
0.00139637	34.7164
0.00140443	34.8171
0.00141254	34.9181
0.00142069	35.0194
0.00142889	35.121
0.00143714	35.2228
0.00144544	35.325
0.00145378	35.4274
0.00146218	35.5302
0.00147062	35.6332
0.00147911	35.7366
0.00148765	35.8402
0.00149624	35.9441
0.00150487	36.0484
0.00151356	36.1529
0.0015223	36.2577
0.00153109	36.3629
0.00153993	36.4683
0.00154882	36.5741
0.00155776	36.6801
0.00156675	36.7865
0.0015758	36.8931
0.00158489	37.0001
0.00159404	37.1074
0.00160325	37.215
0.0016125	37.3229
0.00162181	37.4311
0.00163117	37.5396
0.00164059	37.6484
0.00165006	37.7576
0.00165959	37.867
0.00166917	37.9768
0.0016788	38.0869
0.0016885	38.1973
0.00169824	38.308
0.00170805	38.4191
0.00171791	38.5305
0.00172783	38.6422
0.0017378	38.7542
0.00174783	38.8665
0.00175792	38.9792
0.00176807	39.0921
0.00177828	39.2054
0.00178855	39.3191
0.00179887	39.433
0.00180926	39.5473
0.0018197	39.662
0.00183021	39.7769
0.00184077	39.8922
0.0018514	40.0078
0.00186209	40.1237
0.00187284	40.24
0.00188365	40.3566
0.00189452	40.4736
0.00190546	40.5909
0.00191646	40.7085
0.00192752	40.8265
0.00193865	40.9448
0.00194984	41.0634
0.0019611	41.1824
0.00197242	41.3018
0.00198381	41.4214
0.00199526	41.5415
0.00200678	41.6618
0.00201837	41.7825
0.00203002	41.9036
0.00204174	42.025
0.00205353	42.1468
0.00206538	42.2689
0.0020773	42.3914
0.0020893	42.5142
0.00210136	42.6374
0.00211349	42.7609
0.00212569	42.8848
0.00213796	43.009
0.0021503	43.1336
0.00216272	43.2586
0.0021752	43.3839
0.00218776	43.5096
0.00220039	43.6356
0.00221309	43.762
0.00222587	43.8888
0.00223872	44.0159
0.00225165	44.1434
0.00226464	44.2713
0.00227772	44.3995
0.00229087	44.5281
0.00230409	44.6571
0.00231739	44.7864
0.00233077	44.9162
0.00234423	45.0462
0.00235776	45.1767
0.00237137	45.3076
0.00238506	45.4388
0.00239883	45.5704
0.00241268	45.7024
0.00242661	45.8347
0.00244062	45.9675
0.00245471	46.1006
0.00246888	46.2341
0.00248313	46.368
0.00249747	46.5023
0.00251189	46.637
0.00252639	46.772
0.00254097	46.9074
0.00255564	47.0433
0.0025704	47.1795
0.00258523	47.3161
0.00260016	47.4531
0.00261517	47.5906
0.00263027	47.7284
0.00264545	47.8666
0.00266073	48.0052
0.00267609	48.1442
0.00269153	48.2836
0.00270707	48.4234
0.0027227	48.5636
0.00273842	48.7042
0.00275423	48.8452
0.00277013	48.9866
0.00278612	49.1284
0.00280221	49.2707
0.00281838	49.4133
0.00283465	49.5564
0.00285102	49.6998
0.00286748	49.8437
0.00288403	49.988
0.00290068	50.1327
0.00291743	50.2779
0.00293427	50.4234
0.00295121	50.5694
0.00296825	50.7158
0.00298538	50.8626
0.00300262	51.0098
0.00301995	51.1575
0.00303739	51.3056
0.00305492	51.4541
0.00307256	51.603
0.0030903	51.7524
0.00310814	51.9022
0.00312608	52.0524
0.00314413	52.2031
0.00316228	52.3542
0.00318053	52.5057
0.0031989	52.6577
0.00321736	52.8101
0.00323594	52.9629
0.00325462	53.1162
0.00327341	53.27
0.0032923	53.4241
0.00331131	53.5788
0.00333043	53.7338
0.00334965	53.8893
0.00336899	54.0453
0.00338844	54.2017
0.003408	54.3586
0.00342768	54.5159
0.00344747	54.6736
0.00346737	54.8319
0.00348739	54.9905
0.00350752	55.1497
0.00352777	55.3093
0.00354813	55.4693
0.00356862	55.6298
0.00358922	55.7908
0.00360994	55.9522
0.00363078	56.1141
0.00365174	56.2765
0.00367282	56.4394
0.00369403	56.6027
0.00371535	56.7664
0.0037368	56.9307
0.00375837	57.0954
0.00378007	57.2606
0.00380189	57.4263
0.00382384	57.5925
0.00384592	57.7591
0.00386812	57.9262
0.00389045	58.0938
0.00391291	58.2619
0.0039355	58.4304
0.00395822	58.5995
0.00398107	58.769
0.00400405	58.939
0.00402717	59.1096
0.00405042	59.2806
0.0040738	59.4521
0.00409732	59.6241
0.00412098	59.7965
0.00414477	59.9695
0.00416869	60.143
0.00419276	60.317
0.00421697	60.4915
0.00424131	60.6665
0.0042658	60.842
0.00429042	61.018
0.00431519	61.1945
0.0043401	61.3715
0.00436516	61.549
0.00439036	61.7271
0.0044157	61.9056
0.0044412	62.0847
0.00446684	62.2642
0.00449262	62.4443
0.00451856	62.625
0.00454465	62.8061
0.00457088	62.9878
0.00459727	63.1699
0.00462381	63.3527
0.0046505	63.5359
0.00467735	63.7197
0.00470435	63.904
0.00473151	64.0888
0.00475883	64.2741
0.0047863	64.46
0.00481393	64.6465
0.00484172	64.8334
0.00486968	65.0209
0.00489779	65.209
0.00492606	65.3976
0.0049545	65.5867
0.0049831	65.7764
0.00501187	65.9666
0.00504081	66.1574
0.00506991	66.3487
0.00509918	66.5405
0.00512861	66.733
0.00515822	66.926
0.005188	67.1195
0.00521795	67.3136
0.00524807	67.5082
0.00527837	67.7034
0.00530884	67.8992
0.00533949	68.0956
0.00537032	68.2925
0.00540132	68.4899
0.0054325	68.688
0.00546387	68.8866
0.00549541	69.0858
0.00552713	69.2856
0.00555904	69.4859
0.00559114	69.6868
0.00562341	69.8883
0.00565588	70.0904
0.00568853	70.293
0.00572137	70.4963
0.0057544	70.7001
0.00578762	70.9045
0.00582103	71.1095
0.00585464	71.3151
0.00588844	71.5213
0.00592243	71.7281
0.00595662	71.9355
0.00599101	72.1434
0.0060256	72.352
0.00606038	72.5612
0.00609537	72.771
0.00613056	72.9813
0.00616595	73.1923
0.00620155	73.4039
0.00623735	73.6161
0.00627336	73.829
0.00630957	74.0424
0.006346	74.2564
0.00638263	74.4711
0.00641948	74.6864
0.00645654	74.9023
0.00649382	75.1188
0.00653131	75.336
0.00656901	75.5537
0.00660693	75.7721
0.00664508	75.9912
0.00668344	76.2108
0.00672202	76.4311
0.00676083	76.6521
0.00679986	76.8736
0.00683912	77.0959
0.0068786	77.3187
0.00691831	77.5422
0.00695825	77.7663
0.00699842	77.9911
0.00703882	78.2165
0.00707946	78.4426
0.00712033	78.6694
0.00716143	78.8967
0.00720278	79.1248
0.00724436	79.3535
0.00728618	79.5828
0.00732825	79.8128
0.00737055	80.0435
0.0074131	80.2749
0.0074559	80.5069
0.00749894	80.7396
0.00754223	80.9729
0.00758578	81.2069
0.00762957	81.4416
0.00767361	81.677
0.00771792	81.9131
0.00776247	82.1498
0.00780728	82.3872
0.00785236	82.6253
0.00789769	82.8641
0.00794328	83.1036
0.00798914	83.3438
0.00803526	83.5846
0.00808165	83.8262
0.00812831	84.0684
0.00817523	84.3114
0.00822243	84.555
0.0082699	84.7994
0.00831764	85.0444
0.00836566	85.2902
0.00841395	85.5366
0.00846253	85.7838
0.00851138	86.0317
0.00856052	86.2803
0.00860994	86.5296
0.00865964	86.7797
0.00870964	87.0304
0.00875992	87.2819
0.00881049	87.5341
0.00886135	87.7871
0.00891251	88.0407
0.00896396	88.2951
0.00901571	88.5503
0.00906776	88.8061
0.00912011	89.0627
0.00917276	91.6557
0.00922571	91.9192
0.00927897	92.1835
0.00933254	92.4485
0.00938642	92.7143
0.00944061	92.9808
0.00949511	93.2482
0.00954993	93.5162
0.00960506	93.7851
0.00966051	94.0547
0.00971628	94.3251
0.00977237	94.5962
0.00982879	94.8682
0.00988553	95.1409
0.0099426	95.4144
0.01	95.6886
0.0100577	95.9637
0.0101158	96.2396
0.0101742	96.5162
0.0102329	96.7937
0.010292	97.0719
0.0103514	97.3509
0.0104112	97.6308
0.0104713	97.9114
0.0105317	98.1928
0.0105925	98.4751
0.0106537	98.7581
0.0107152	99.042
0.0107771	99.3267
0.0108393	99.6122
0.0109018	99.8985
0.0109648	100.186
0.0110281	100.474
0.0110917	100.762
0.0111558	101.052
0.0112202	101.342
0.011285	101.634
0.0113501	101.926
0.0114156	102.219
0.0114815	102.513
0.0115478	102.807
0.0116145	103.103
0.0116815	103.399
0.011749	103.696
0.0118168	103.994
0.011885	104.293
0.0119536	104.593
0.0120226	104.893
0.0120921	105.195
0.0121619	105.497
0.0122321	105.8
0.0123027	106.104
0.0123737	106.409
0.0124451	106.715
0.012517	107.022
0.0125893	107.329
0.0126619	107.638
0.012735	107.947
0.0128086	108.257
0.0128825	108.568
0.0129569	108.88
0.0130317	109.193
0.0131069	109.507
0.0131826	109.822
0.0132587	110.137
0.0133352	110.454
0.0134122	110.771
0.0134896	111.089
0.0135675	111.409
0.0136458	111.729
0.0137246	112.05
0.0138038	112.372
0.0138835	112.694
0.0139637	113.018
0.0140443	113.343
0.0141254	113.669
0.0142069	113.995
0.0142889	114.323
0.0143714	114.651
0.0144544	114.981
0.0145378	115.311
0.0146218	115.642
0.0147062	115.975
0.0147911	116.308
0.0148765	116.642
0.0149624	116.977
0.0150487	117.313
0.0151356	117.65
0.015223	117.988
0.0153109	118.327
0.0153993	118.667
0.0154882	119.008
0.0155776	119.35
0.0156675	119.693
0.015758	120.036
0.0158489	120.381
0.0159404	120.727
0.0160325	121.074
0.016125	121.422
0.0162181	121.77
0.0163117	122.12
0.0164059	122.471
0.0165006	122.823
0.0165959	123.176
0.0166917	123.529
0.016788	123.884
0.016885	124.24
0.0169824	124.597
0.0170805	124.955
0.0171791	125.314
0.0172783	125.674
0.017378	126.035
0.0174783	126.397
0.0175792	126.76
0.0176807	127.124
0.0177828	127.489
0.0178855	127.855
0.0179887	128.222
0.0180926	128.59
0.018197	128.96
0.0183021	129.33
0.0184077	129.701
0.018514	130.074
0.0186209	130.447
0.0187284	130.822
0.0188365	131.198
0.0189452	131.575
0.0190546	131.952
0.0191646	132.331
0.0192752	132.711
0.0193865	133.092
0.0194984	133.475
0.019611	133.858
0.0197242	134.242
0.0198381	134.628
0.0199526	135.014
0.0200678	135.402
0.0201837	135.791
0.0203002	136.181
0.0204174	136.572
0.0205353	136.964
0.0206538	137.357
0.020773	137.752
0.020893	138.147
0.0210136	138.544
0.0211349	138.941
0.0212569	139.34
0.0213796	139.74
0.021503	140.142
0.0216272	140.544
0.021752	140.948
0.0218776	141.352
0.0220039	141.758
0.0221309	142.165
0.0222587	142.573
0.0223872	142.982
0.0225165	143.393
0.0226464	143.804
0.0227772	144.217
0.0229087	144.631
0.0230409	145.047
0.0231739	145.463
0.0233077	145.88
0.0234423	146.299
0.0235776	146.719
0.0237137	147.14
0.0238506	147.563
0.0239883	147.986
0.0241268	148.411
0.0242661	148.837
0.0244062	149.264
0.0245471	149.693
0.0246888	150.122
0.0248313	150.553
0.0249747	150.985
0.0251189	151.419
0.0252639	151.853
0.0254097	152.289
0.0255564	152.726
0.025704	153.164
0.0258523	153.604
0.0260016	154.045
0.0261517	154.487
0.0263027	154.93
0.0264545	155.375
0.0266073	155.821
0.0267609	156.268
0.0269153	156.716
0.0270707	157.166
0.027227	157.617
0.0273842	158.07
0.0275423	158.523
0.0277013	158.978
0.0278612	159.434
0.0280221	159.892
0.0281838	160.35
0.0283465	160.811
0.0285102	161.272
0.0286748	161.735
0.0288403	162.199
0.0290068	162.664
0.0291743	163.131
0.0293427	163.599
0.0295121	164.068
0.0296825	164.539
0.0298538	165.011
0.0300262	165.485
0.0301995	165.959
0.0303739	166.435
0.0305492	166.913
0.0307256	167.392
0.030903	167.872
0.0310814	168.354
0.0312608	168.837
0.0314413	169.321
0.0316228	169.807
0.0318053	170.294
0.031989	170.782
0.0321736	171.272
0.0323594	171.763
0.0325462	172.256
0.0327341	172.75
0.032923	173.246
0.0331131	173.743
0.0333043	174.241
0.0334965	174.741
0.0336899	175.242
0.0338844	175.745
0.03408	176.249
0.0342768	176.754
0.0344747	177.261
0.0346737	177.769
0.0348739	178.279
0.0350752	178.791
0.0352777	179.303
0.0354813	179.818
0.0356862	180.333
0.0358922	180.85
0.0360994	181.369
0.0363078	181.889
0.0365174	182.411
0.0367282	182.934
0.0369403	183.458
0.0371535	183.985
0.037368	184.512
0.0375837	185.041
0.0378007	185.572
0.0380189	186.104
0.0382384	186.637
0.0384592	187.173
0.0386812	187.709
0.0389045	188.247
0.0391291	188.787
0.039355	189.328
0.0395822	189.871
0.0398107	190.416
0.0400405	190.962
0.0402717	191.509
0.0405042	192.058
0.040738	192.609
0.0409732	193.161
0.0412098	193.715
0.0414477	194.27
0.0416869	194.827
0.0419276	195.385
0.0421697	195.945
0.0424131	196.507
0.042658	197.07
0.0429042	197.635
0.0431519	198.202
0.043401	198.77
0.0436516	199.34
0.0439036	199.911
0.044157	200.484
0.044412	201.059
0.0446684	201.635
0.0449262	202.213
0.0451856	202.792
0.0454465	203.373
0.0457088	203.956
0.0459727	204.541
0.0462381	205.127
0.046505	205.715
0.0467735	206.304
0.0470435	206.896
0.0473151	207.488
0.0475883	208.083
0.047863	208.679
0.0481393	209.277
0.0484172	209.877
0.0486968	210.478
0.0489779	211.081
0.0492606	211.686
0.049545	212.293
0.049831	212.901
0.0501187	213.511
0.0504081	214.123
0.0506991	214.736
0.0509918	215.351
0.0512861	215.968
0.0515822	216.587
0.05188	217.208
0.0521795	217.83
0.0524807	218.454
0.0527837	219.08
0.0530884	219.707
0.0533949	220.337
0.0537032	220.968
0.0540132	221.601
0.054325	222.235
0.0546387	222.872
0.0549541	223.51
0.0552713	224.151
0.0555904	224.793
0.0559114	225.437
0.0562341	226.082
0.0565588	226.73
0.0568853	227.379
0.0572137	228.03
0.057544	228.683
0.0578762	229.338
0.0582103	229.995
0.0585464	230.654
0.0588844	231.314
0.0592243	231.977
0.0595662	232.641
0.0599101	233.307
0.060256	233.975
0.0606038	234.645
0.0609537	235.317
0.0613056	235.991
0.0616595	236.667
0.0620155	237.344
0.0623735	238.024
0.0627336	238.705
0.0630957	239.389
0.06346	240.074
0.0638263	240.761
0.0641948	241.451
0.0645654	242.142
0.0649382	242.835
0.0653131	243.53
0.0656901	244.227
0.0660693	244.927
0.0664508	245.628
0.0668344	246.331
0.0672202	247.036
0.0676083	247.743
0.0679986	248.452
0.0683912	249.163
0.068786	249.876
0.0691831	250.592
0.0695825	251.309
0.0699842	252.028
0.0703882	252.749
0.0707946	253.473
0.0712033	254.198
0.0716143	254.926
0.0720278	255.655
0.0724436	256.387
0.0728618	257.12
0.0732825	257.856
0.0737055	258.594
0.074131	259.334
0.074559	260.076
0.0749894	260.82
0.0754223	261.567
0.0758578	262.315
0.0762957	263.065
0.0767361	263.818
0.0771792	264.573
0.0776247	265.33
0.0780728	266.089
0.0785236	266.85
0.0789769	267.614
0.0794328	268.379
0.0798914	269.147
0.0803526	269.917
0.0808165	270.689
0.0812831	271.463
0.0817523	272.24
0.0822243	273.018
0.082699	273.799
0.0831764	274.583
0.0836566	275.368
0.0841395	276.155
0.0846253	276.945
0.0851138	277.737
0.0856052	278.532
0.0860994	279.328
0.0865964	280.127
0.0870964	280.928
0.0875992	281.731
0.0881049	282.537
0.0886135	283.345
0.0891251	284.155
0.0896396	284.968
0.0901571	285.783
0.0906776	286.6
0.0912011	287.419
0.0917276	288.241
0.0922571	289.065
0.0927897	289.892
0.0933254	290.72
0.0938642	291.551
0.0944061	292.385
0.0949511	293.221
0.0954993	294.059
0.0960506	294.9
0.0966051	295.743
0.0971628	296.588
0.0977237	297.436
0.0982879	298.286
0.0988553	299.139
0.099426	299.994
0.1	300.851
0.100577	301.711
0.101158	302.573
0.101742	303.438
0.102329	304.305
0.10292	305.175
0.103514	306.047
0.104112	306.921
0.104713	307.798
0.105317	308.678
0.105925	309.56
0.106537	310.444
0.107152	311.331
0.107771	312.221
0.108393	313.113
0.109018	314.008
0.109648	314.905
0.110281	315.804
0.110917	316.707
0.111558	317.611
0.112202	318.519
0.11285	319.429
0.113501	320.341
0.114156	321.256
0.114815	322.174
0.115478	323.094
0.116145	324.017
0.116815	324.942
0.11749	325.87
0.118168	326.801
0.11885	327.735
0.119536	328.671
0.120226	329.609
0.120921	330.55
0.121619	331.494
0.122321	332.441
0.123027	333.39
0.123737	334.342
0.124451	335.297
0.12517	336.254
0.125893	337.214
0.126619	338.177
0.12735	339.143
0.128086	340.111
0.128825	341.082
0.129569	342.056
0.130317	343.032
0.131069	344.011
0.131826	344.993
0.132587	345.978
0.133352	346.966
0.134122	347.956
0.134896	348.949
0.135675	349.945
0.136458	350.944
0.137246	351.946
0.138038	352.95
0.138835	353.957
0.139637	354.968
0.140443	355.981
0.141254	356.996
0.142069	358.015
0.142889	359.037
0.143714	360.061
0.144544	361.089
0.145378	362.119
0.146218	363.152
0.147062	364.188
0.147911	365.227
0.148765	366.269
0.149624	367.314
0.150487	368.362
0.151356	369.413
0.15223	370.466
0.153109	371.523
0.153993	372.583
0.154882	373.646
0.155776	374.711
0.156675	375.78
0.15758	376.852
0.158489	377.927
0.159404	379.004
0.160325	380.085
0.16125	381.169
0.162181	382.256
0.163117	383.346
0.164059	384.439
0.165006	385.535
0.165959	386.635
0.166917	387.737
0.16788	388.842
0.16885	389.951
0.169824	391.063
0.170805	392.178
0.171791	393.296
0.172783	394.417
0.17378	395.541
0.174783	396.669
0.175792	397.799
0.176807	398.933
0.177828	400.07
0.178855	401.21
0.179887	402.354
0.180926	403.5
0.18197	404.65
0.183021	405.804
0.184077	406.96
0.18514	408.12
0.186209	409.283
0.187284	410.449
0.188365	411.618
0.189452	412.791
0.190546	413.967
0.191646	415.146
0.192752	416.329
0.193865	417.515
0.194984	418.705
0.19611	419.897
0.197242	421.093
0.198381	422.293
0.199526	423.496
0.200678	424.702
0.201837	425.912
0.203002	427.125
0.204174	428.341
0.205353	429.561
0.206538	430.784
0.20773	432.011
0.20893	433.241
0.210136	434.475
0.211349	435.712
0.212569	436.952
0.213796	438.196
0.21503	439.444
0.216272	440.695
0.21752	441.95
0.218776	443.208
0.220039	444.469
0.221309	445.735
0.222587	447.003
0.223872	448.276
0.225165	449.552
0.226464	450.831
0.227772	452.114
0.229087	453.401
0.230409	454.691
0.231739	455.985
0.233077	457.283
0.234423	458.584
0.235776	459.889
0.237137	461.197
0.238506	462.51
0.239883	463.825
0.241268	465.145
0.242661	466.468
0.244062	467.795
0.245471	469.126
0.246888	470.461
0.248313	471.799
0.249747	473.141
0.251189	474.487
0.252639	475.836
0.254097	477.189
0.255564	478.546
0.25704	479.907
0.258523	481.272
0.260016	482.641
0.261517	484.013
0.263027	485.389
0.264545	486.769
0.266073	488.153
0.267609	489.541
0.269153	490.933
0.270707	492.329
0.27227	493.728
0.273842	495.132
0.275423	496.539
0.277013	497.95
0.278612	499.366
0.280221	500.785
0.281838	502.208
0.283465	503.636
0.285102	505.067
0.286748	506.502
0.288403	507.941
0.290068	509.385
0.291743	510.832
0.293427	512.283
0.295121	513.739
0.296825	515.198
0.298538	516.662
0.300262	518.13
0.301995	519.602
0.303739	521.078
0.305492	522.558
0.307256	524.042
0.30903	525.53
0.310814	527.023
0.312608	528.52
0.314413	530.021
0.316228	531.526
0.318053	533.035
0.31989	534.549
0.321736	536.066
0.323594	537.588
0.325462	539.115
0.327341	540.645
0.32923	542.18
0.331131	543.719
0.333043	545.263
0.334965	546.81
0.336899	548.362
0.338844	549.919
0.3408	551.48
0.342768	553.045
0.344747	554.614
0.346737	556.188
0.348739	557.766
0.350752	559.349
0.352777	560.936
0.354813	562.528
0.356862	564.124
0.358922	565.724
0.360994	567.329
0.363078	568.938
0.365174	570.552
0.367282	572.171
0.369403	573.793
0.371535	575.421
0.37368	577.053
0.375837	578.689
0.378007	580.33
0.380189	581.976
0.382384	583.626
0.384592	585.281
0.386812	586.941
0.389045	588.605
0.391291	590.274
0.39355	591.947
0.395822	593.625
0.398107	595.308
0.400405	596.995
0.402717	598.687
0.405042	600.384
0.40738	602.086
0.409732	603.792
0.412098	605.503
0.414477	607.219
0.416869	608.94
0.419276	610.665
0.421697	612.395
0.424131	614.13
0.42658	615.87
0.429042	617.615
0.431519	619.364
0.43401	621.119
0.436516	622.878
0.439036	624.642
0.44157	626.411
0.44412	628.185
0.446684	629.964
0.449262	631.748
0.451856	633.537
0.454465	635.331
0.457088	637.13
0.459727	638.934
0.462381	640.743
0.46505	642.557
0.467735	644.376
0.470435	646.2
0.473151	648.029
0.475883	649.863
0.47863	651.702
0.481393	653.546
0.484172	655.396
0.486968	657.251
0.489779	659.11
0.492606	660.975
0.49545	662.845
0.49831	664.721
0.501187	666.601
0.504081	668.487
0.506991	670.378
0.509918	672.274
0.512861	674.176
0.515822	676.082
0.5188	677.995
0.521795	679.912
0.524807	681.835
0.527837	683.763
0.530884	685.696
0.533949	687.635
0.537032	689.579
0.540132	691.528
0.54325	693.483
0.546387	695.443
0.549541	697.409
0.552713	699.38
0.555904	701.357
0.559114	703.339
0.562341	705.327
0.565588	707.32
0.568853	709.319
0.572137	711.323
0.57544	713.333
0.578762	715.348
0.582103	717.369
0.585464	719.395
0.588844	721.427
0.592243	723.465
0.595662	725.508
0.599101	727.557
0.60256	729.612
0.606038	731.672
0.609537	733.738
0.613056	735.81
0.616595	737.888
0.620155	739.971
0.623735	742.06
0.627336	744.155
0.630957	746.255
0.6346	748.362
0.638263	750.474
0.641948	752.592
0.645654	754.716
0.649382	756.846
0.653131	758.981
0.656901	761.123
0.660693	763.27
0.664508	765.424
0.668344	767.583
0.672202	769.748
0.676083	771.92
0.679986	774.097
0.683912	776.28
0.68786	778.469
0.691831	780.665
0.695825	782.866
0.699842	785.073
0.703882	787.287
0.707946	789.507
0.712033	791.732
0.716143	793.964
0.720278	796.202
0.724436	798.447
0.728618	800.697
0.732825	802.954
0.737055	805.216
0.74131	807.486
0.74559	809.761
0.749894	812.042
0.754223	814.33
0.758578	816.624
0.762957	818.925
0.767361	821.232
0.771792	823.545
0.776247	825.864
0.780728	828.19
0.785236	830.523
0.789769	832.861
0.794328	835.207
0.798914	837.558
0.803526	839.916
0.808165	842.281
0.812831	844.652
0.817523	847.029
0.822243	849.413
0.82699	851.804
0.831764	854.201
0.836566	856.605
0.841395	859.016
0.846253	861.433
0.851138	863.856
0.856052	866.287
0.860994	868.724
0.865964	871.167
0.870964	873.618
0.875992	876.075
0.881049	878.539
0.886135	881.009
0.891251	883.487
0.896396	885.971
0.901571	888.462
0.906776	890.96
0.912011	893.464
0.917276	895.976
0.922571	898.494
0.927897	901.02
0.933254	903.552
0.938642	906.091
0.944061	908.637
0.949511	911.19
0.954993	913.751
0.960506	916.318
0.966051	918.892
0.971628	921.473
0.977237	924.243
0.982879	927.349
0.988553	930.471
0.99426	933.61
1	936.765
1.00577	939.937
1.01158	943.126
1.01742	946.332
1.02329	949.554
1.0292	952.793
1.03514	956.049
1.04112	959.322
1.04713	962.612
1.05317	965.919
1.05925	969.242
1.06537	972.583
1.07152	975.94
1.07771	979.315
1.08393	982.707
1.09018	986.116
1.09648	989.542
1.10281	992.985
1.10917	996.445
1.11558	999.922
1.12202	1003.42
1.1285	1006.93
1.13501	1010.46
1.14156	1014
1.14815	1017.57
1.15478	1021.15
1.16145	1024.74
1.16815	1028.36
1.1749	1031.87
1.18168	1035.35
1.1885	1038.84
1.19536	1042.34
1.20226	1045.87
1.20921	1049.41
1.21619	1052.96
1.22321	1056.53
1.23027	1060.12
1.23737	1063.73
1.24451	1067.34
1.2517	1070.98
1.25893	1074.63
1.26619	1078.3
1.2735	1081.98
1.28086	1085.68
1.28825	1089.4
1.29569	1093.13
1.30317	1096.87
1.31069	1100.63
1.31826	1104.41
1.32587	1108.2
1.33352	1112.01
1.34122	1115.83
1.34896	1119.67
1.35675	1123.52
1.36458	1127.39
1.37246	1131.27
1.38038	1135.17
1.38835	1139.08
1.39637	1143.01
1.40443	1146.95
1.41254	1150.91
1.42069	1154.88
1.42889	1158.86
1.43714	1162.86
1.44544	1166.87
1.45378	1170.89
1.46218	1174.93
1.47062	1178.98
1.47911	1183.05
1.48765	1187.13
1.49624	1191.22
1.50487	1195.32
1.51356	1199.44
1.5223	1203.57
1.53109	1207.71
1.53993	1211.86
1.54882	1216.02
1.55776	1220.2
1.56675	1224.35
1.5758	1228.5
1.58489	1232.66
1.59404	1236.84
1.60325	1241.02
1.6125	1245.22
1.62181	1249.42
1.63117	1253.64
1.64059	1257.86
1.65006	1262.1
1.65959	1266.35
1.66917	1270.61
1.6788	1274.88
1.6885	1279.16
1.69824	1283.45
1.70805	1287.75
1.71791	1292.07
1.72783	1296.39
1.7378	1300.72
1.74783	1305.07
1.75792	1309.43
1.76807	1313.79
1.77828	1318.17
1.78855	1322.56
1.79887	1326.95
1.80926	1331.36
1.8197	1335.78
1.83021	1340.21
1.84077	1344.65
1.8514	1349.11
1.86209	1353.57
1.87284	1358.04
1.88365	1362.53
1.89452	1367.02
1.90546	1371.53
1.91646	1376.04
1.92752	1380.57
1.93865	1385.11
1.94984	1389.65
1.9611	1394.21
1.97242	1398.78
1.98381	1403.36
1.99526	1407.95
2.00678	1412.55
2.01837	1417.16
2.03002	1421.78
2.04174	1426.41
2.05353	1431.05
2.06538	1435.7
2.0773	1440.37
2.0893	1445.04
2.10136	1449.72
2.11349	1454.42
2.12569	1459.12
2.13796	1463.83
2.1503	1468.56
2.16272	1473.29
2.1752	1478.04
2.18776	1482.79
2.20039	1487.56
2.21309	1492.33
2.22587	1497.12
2.23872	1501.91
2.25165	1506.72
2.26464	1511.53
2.27772	1516.36
2.29087	1521.19
2.30409	1526.04
2.31739	1530.89
2.33077	1535.75
2.34423	1540.63
2.35776	1545.51
2.37137	1550.4
2.38506	1555.31
2.39883	1560.22
2.41268	1565.14
2.42661	1570.07
2.44062	1575.02
2.45471	1579.97
2.46888	1584.93
2.48313	1589.91
2.49747	1594.89
2.51189	1599.88
2.52639	1604.89
2.54097	1609.91
2.55564	1614.93
2.5704	1619.97
2.58523	1625.02
2.60016	1630.08
2.61517	1635.15
2.63027	1640.23
2.64545	1645.33
2.66073	1650.43
2.67609	1655.55
2.69153	1660.68
2.70707	1665.82
2.7227	1670.98
2.73842	1676.14
2.75423	1681.32
2.77013	1686.52
2.78612	1691.72
2.80221	1696.95
2.81838	1702.18
2.83465	1707.43
2.85102	1712.69
2.86748	1717.97
2.88403	1723.26
2.90068	1728.57
2.91743	1733.9
2.93427	1739.24
2.95121	1744.6
2.96825	1749.97
2.98538	1755.37
3.00262	1760.78
3.01995	1766.21
3.03739	1771.65
3.05492	1777.12
3.07256	1782.61
3.0903	1788.12
3.10814	1793.65
3.12608	1799.2
3.14413	1804.77
3.16228	1810.36
3.18053	1815.98
3.1989	1821.62
3.21736	1827.29
3.23594	1832.97
3.25462	1838.69
3.27341	1844.43
3.2923	1850.19
3.31131	1855.98
3.33043	1861.79
3.34965	1867.63
3.36899	1873.5
3.38844	1879.4
3.408	1885.33
3.42768	1891.28
3.44747	1897.27
3.46737	1903.28
3.48739	1909.33
3.50752	1915.4
3.52777	1921.51
3.54813	1927.65
3.56862	1933.83
3.58922	1940.03
3.60994	1946.27
3.63078	1952.54
3.65174	1958.84
3.67282	1965.18
3.69403	1971.54
3.71535	1977.94
3.7368	1984.37
3.75837	1990.84
3.78007	1997.34
3.80189	2003.86
3.82384	2010.42
3.84592	2017.02
3.86812	2023.64
3.89045	2030.3
3.91291	2036.99
3.9355	2043.71
3.95822	2050.47
3.98107	2057.25
4.00405	2064.07
4.02717	2070.92
4.05042	2077.8
4.0738	2084.71
4.09732	2091.66
4.12098	2098.63
4.14477	2105.64
4.16869	2112.68
4.19276	2119.75
4.21697	2126.85
4.24131	2133.98
4.2658	2141.14
4.29042	2148.33
4.31519	2155.56
4.3401	2162.81
4.36516	2170.09
4.39036	2177.41
4.4157	2184.75
4.4412	2192.12
4.46684	2199.53
4.49262	2206.96
4.51856	2214.42
4.54465	2221.91
4.57088	2229.43
4.59727	2236.97
4.62381	2244.55
4.6505	2252.15
4.67735	2259.78
4.70435	2267.44
4.73151	2275.12
4.75883	2282.83
4.7863	2290.56
4.81393	2298.33
4.84172	2306.11
4.86968	2313.93
4.89779	2321.76
4.92606	2329.63
4.9545	2337.51
4.9831	2345.42
5.01187	2353.35
5.04081	2361.31
5.06991	2369.29
5.09918	2377.29
5.12861	2385.31
5.15822	2393.35
5.188	2401.41
5.21795	2409.49
5.24807	2417.59
5.27837	2425.71
5.30884	2433.85
5.33949	2442
5.37032	2450.17
5.40132	2458.36
5.4325	2466.56
5.46387	2474.78
5.49541	2483.01
5.52713	2491.26
5.55904	2499.52
5.59114	2507.78
5.62341	2516.07
5.65588	2524.36
5.68853	2532.66
5.72137	2540.97
5.7544	2549.28
5.78762	2557.61
5.82103	2565.93
5.85464	2574.27
5.88844	2582.58
5.92243	2590.89
5.95662	2599.21
5.99101	2607.53
6.0256	2615.85
6.06038	2624.18
6.09537	2632.51
6.13056	2640.84
6.16595	2649.17
6.20155	2657.51
6.23735	2665.84
6.27336	2674.18
6.30957	2682.51
6.346	2690.85
6.38263	2699.19
6.41948	2707.53
6.45654	2715.87
6.49382	2724.2
6.53131	2732.54
6.56901	2740.87
6.60693	2749.21
6.64508	2757.54
6.68344	2765.87
6.72202	2774.2
6.76083	2782.52
6.79986	2790.84
6.83912	2799.16
6.8786	2807.48
6.91831	2815.79
6.95825	2824.1
6.99842	2832.41
7.03882	2840.71
7.07946	2849
7.12033	2857.3
7.16143	2865.58
7.20278	2873.86
7.24436	2882.14
7.28618	2890.41
7.32825	2898.67
7.37055	2906.93
7.4131	2915.18
7.4559	2923.43
7.49894	2931.67
7.54223	2939.9
7.58578	2948.12
7.62957	2956.34
7.67361	2964.55
7.71792	2972.75
7.76247	2980.94
7.80728	2989.13
7.85236	2997.33
7.89769	3005.52
7.94328	3013.71
7.98914	3021.88
8.03526	3030.05
8.08165	3038.2
8.12831	3046.35
8.17523	3054.48
8.22243	3062.61
8.2699	3070.72
8.31764	3078.82
8.36566	3086.92
8.41395	3095
8.46253	3103.07
8.51138	3111.12
8.56052	3119.17
8.60994	3127.2
8.65964	3135.22
8.70964	3143.23
8.75992	3151.22
8.81049	3159.2
8.86135	3167.17
8.91251	3175.12
8.96396	3183.06
9.01571	3190.99
9.06776	3198.9
9.12011	3206.79
9.17276	3214.68
9.22571	3222.55
9.27897	3230.4
9.33254	3238.24
9.38642	3246.06
9.44061	3253.87
9.49511	3261.67
9.54993	3269.45
9.60506	3277.21
9.66051	3284.96
9.71628	3292.7
9.77237	3300.42
9.82879	3308.12
9.88553	3315.81
9.9426	3323.48
10	3331.14
10.0577	3338.78
10.1158	3346.41
10.1742	3354.02
10.2329	3361.61
10.292	3369.18
10.3514	3376.74
10.4112	3384.28
10.4713	3391.8
10.5317	3399.31
10.5925	3406.79
10.6537	3414.26
10.7152	3421.71
10.7771	3429.15
10.8393	3436.56
10.9018	3443.96
10.9648	3451.34
11.0281	3458.7
11.0917	3466.04
11.1558	3473.36
11.2202	3480.66
11.285	3487.95
11.3501	3495.21
11.4156	3502.46
11.4815	3509.69
11.5478	3516.9
11.6145	3524.09
11.6815	3531.26
11.749	3538.43
11.8168	3545.58
11.885	3552.7
11.9536	3559.82
12.0226	3566.91
12.0921	3573.98
12.1619	3581.03
12.2321	3588.06
12.3027	3595.08
12.3737	3602.07
12.4451	3609.04
12.517	3615.99
12.5893	3622.93
12.6619	3629.84
12.735	3636.73
12.8086	3643.59
12.8825	3650.44
12.9569	3657.27
13.0317	3664.07
13.1069	3670.86
13.1826	3677.62
13.2587	3684.36
13.3352	3691.08
13.4122	3697.77
13.4896	3704.45
13.5675	3711.1
13.6458	3717.73
13.7246	3724.34
13.8038	3730.93
13.8835	3737.5
13.9637	3744.05
14.0443	3750.57
14.1254	3757.07
14.2069	3763.55
14.2889	3770.01
14.3714	3776.45
14.4544	3782.87
14.5378	3789.27
14.6218	3795.65
14.7062	3802.01
14.7911	3808.34
14.8765	3814.66
14.9624	3820.96
15.0487	3827.24
15.1356	3833.5
15.223	3839.75
15.3109	3845.97
15.3993	3852.18
15.4882	3858.38
15.5776	3864.55
15.6675	3870.68
15.758	3876.79
15.8489	3882.87
15.9404	3888.94
16.0325	3895
16.125	3901.03
16.2181	3907.05
16.3117	3913.05
16.4059	3919.03
16.5006	3925
16.5959	3930.95
16.6917	3936.87
16.788	3942.78
16.885	3948.67
16.9824	3954.54
17.0805	3960.39
17.1791	3966.22
17.2783	3972.03
17.378	3977.82
17.4783	3983.59
17.5792	3989.34
17.6807	3995.06
17.7828	4000.77
17.8855	4006.45
17.9887	4012.12
18.0926	4017.76
18.197	4023.37
18.3021	4028.97
18.4077	4034.55
18.514	4040.1
18.6209	4045.63
18.7284	4051.13
18.8365	4056.62
18.9452	4062.08
19.0546	4067.52
19.1646	4072.93
19.2752	4078.32
19.3865	4083.69
19.4984	4089.04
19.611	4094.37
19.7242	4099.68
19.8381	4104.96
19.9526	4110.23
20.0678	4115.46
20.1837	4120.67
20.3002	4125.86
20.4174	4131.02
20.5353	4136.16
20.6538	4141.27
20.773	4146.35
20.893	4151.41
21.0136	4156.44
21.1349	4161.44
21.2569	4166.42
21.3796	4171.36
21.503	4176.28
21.6272	4181.17
21.752	4186.04
21.8776	4190.87
22.0039	4195.68
22.1309	4200.45
22.2587	4205.2
22.3872	4209.92
22.5165	4214.6
22.6464	4219.26
22.7772	4223.89
22.9087	4228.48
23.0409	4233.05
23.1739	4237.59
23.3077	4242.09
23.4423	4246.56
23.5776	4251.01
23.7137	4255.42
23.8506	4259.8
23.9883	4264.14
24.1268	4268.46
24.2661	4272.74
24.4062	4276.99
24.5471	4281.2
24.6888	4285.38
24.8313	4289.53
24.9747	4293.64
25.1189	4297.71
25.2639	4301.75
25.4097	4305.76
25.5564	4309.72
25.704	4313.65
25.8523	4317.55
26.0016	4321.4
26.1517	4325.22
26.3027	4329
26.4545	4332.75
26.6073	4336.45
26.7609	4340.12
26.9153	4343.74
27.0707	4347.33
27.227	4350.88
27.3842	4354.39
27.5423	4357.85
27.7013	4361.28
27.8612	4364.67
28.0221	4368.01
28.1838	4371.32
28.3465	4374.58
28.5102	4377.8
28.6748	4380.97
28.8403	4384.11
29.0068	4387.2
29.1743	4390.25
29.3427	4393.25
29.5121	4396.21
29.6825	4399.12
29.8538	4401.99
30.0262	4404.82
30.1995	4407.6
30.3739	4410.33
30.5492	4413.02
30.7256	4415.67
30.903	4418.26
31.0814	4420.81
31.2608	4423.32
31.4413	4425.78
31.6228	4428.19
31.8053	4430.55
31.989	4432.87
32.1736	4435.13
32.3594	4437.35
32.5462	4439.52
32.7341	4441.64
32.923	4443.72
33.1131	4445.74
33.3043	4447.71
33.4965	4449.63
33.6899	4451.51
33.8844	4453.33
34.08	4455.1
34.2768	4456.82
34.4747	4458.49
34.6737	4460.1
34.8739	4461.67
35.0752	4463.18
35.2777	4464.65
35.4813	4466.06
35.6862	4467.41
35.8922	4468.72
36.0994	4469.97
36.3078	4471.18
36.5174	4472.33
36.7282	4473.42
36.9403	4474.47
37.1535	4475.47
37.368	4476.41
37.5837	4477.3
37.8007	4478.14
38.0189	4478.93
38.2384	4479.67
38.4592	4480.36
38.6812	4481
38.9045	4481.59
39.1291	4482.13
39.355	4482.64
39.5822	4483.09
39.8107	4483.49
40.0405	4483.84
40.2717	4484.14
40.5042	4484.39
40.738	4484.59
40.9732	4484.74
41.2098	4484.84
41.4477	4484.88
41.6869	4484.87
41.9276	4484.81
42.1697	4484.69
42.4131	4484.52
42.658	4484.3
42.9042	4484.03
43.1519	4483.7
43.401	4483.31
43.6516	4482.88
43.9036	4482.38
44.157	4481.84
44.412	4481.24
44.6684	4480.58
44.9262	4479.87
45.1856	4479.1
45.4465	4478.28
45.7088	4477.41
45.9727	4476.48
46.2381	4475.49
46.505	4474.45
46.7735	4473.35
47.0435	4472.2
47.3151	4470.99
47.5883	4469.73
47.863	4468.41
48.1393	4467.04
48.4172	4465.61
48.6968	4464.13
48.9779	4462.6
49.2606	4461
49.545	4459.36
49.831	4457.66
50.1187	4455.91
50.4081	4454.1
50.6991	4452.24
50.9918	4450.33
51.2861	4448.37
51.5822	4446.35
51.88	4444.29
52.1795	4442.17
52.4807	4440
52.7837	4437.78
53.0884	4435.51
53.3949	4433.2
53.7032	4430.83
54.0132	4428.42
54.325	4425.96
54.6387	4423.46
54.9541	4420.91
55.2713	4418.31
55.5904	4415.67
55.9114	4412.99
56.2341	4410.27
56.5588	4407.5
56.8853	4404.7
57.2137	4401.85
57.544	4398.97
57.8762	4396.06
58.2103	4393.1
58.5464	4390.1
58.8844	4386.96
59.2243	4383.78
59.5662	4380.57
59.9101	4377.32
60.256	4374.04
60.6038	4370.73
60.9537	4367.38
61.3056	4364
61.6595	4360.58
62.0155	4357.13
62.3735	4353.64
62.7336	4350.12
63.0957	4346.56
63.46	4342.97
63.8263	4339.34
64.1948	4335.68
64.5654	4331.98
64.9382	4328.25
65.3131	4324.48
65.6901	4320.68
66.0693	4316.84
66.4508	4312.96
66.8344	4309.05
67.2202	4305.1
67.6083	4301.12
67.9986	4297.1
68.3912	4293.05
68.786	4288.96
69.1831	4284.83
69.5825	4280.67
69.9842	4276.47
70.3882	4272.24
70.7946	4267.97
71.2033	4263.67
71.6143	4259.33
72.0278	4254.96
72.4436	4250.55
72.8618	4246.1
73.2825	4241.62
73.7055	4237.11
74.131	4232.56
74.559	4227.98
74.9894	4223.36
75.4223	4218.71
75.8578	4214.02
76.2957	4209.31
76.7361	4204.55
77.1792	4199.77
77.6247	4194.95
78.0728	4190.1
78.5236	4185.23
78.9769	4180.33
79.4328	4175.39
79.8914	4170.42
80.3526	4165.42
80.8165	4160.39
81.2831	4155.33
81.7523	4150.24
82.2243	4145.11
82.699	4139.95
83.1764	4134.76
83.6566	4129.54
84.1395	4124.29
84.6253	4119.01
85.1138	4113.7
85.6052	4108.36
86.0994	4102.98
86.5964	4097.58
87.0964	4092.15
87.5992	4086.69
88.1049	4081.2
88.6135	4075.68
89.1251	4070.13
89.6396	4064.56
90.1571	4058.95
90.6776	4053.32
91.2011	4047.66
91.7276	4041.98
92.2571	4036.27
92.7897	4030.53
93.3254	4024.77
93.8642	4018.98
94.4061	4013.17
94.9511	4007.33
95.4993	4001.47
96.0506	3995.59
96.6051	3989.69
97.1628	3983.76
97.7237	3977.81
98.2879	3971.85
98.8553	3965.86
99.426	3959.85
100	3953.82
100.577	3947.77
101.158	3941.7
101.742	3935.61
102.329	3929.5
102.92	3923.37
103.514	3917.22
104.112	3911.05
104.713	3904.86
105.317	3898.66
105.925	3892.43
106.537	3886.18
107.152	3879.91
107.771	3873.63
108.393	3867.32
109.018	3861
109.648	3854.65
110.281	3848.29
110.917	3841.91
111.558	3835.52
112.202	3829.1
112.85	3822.67
113.501	3816.22
114.156	3809.75
114.815	3803.27
115.478	3796.76
116.145	3790.24
116.815	3783.71
117.49	3777.16
118.168	3770.59
118.85	3764.01
119.536	3757.41
120.226	3750.79
120.921	3744.16
121.619	3737.52
122.321	3730.85
123.027	3724.18
123.737	3717.48
124.451	3710.77
125.17	3704.05
125.893	3697.31
126.619	3690.56
127.35	3683.79
128.086	3677.01
128.825	3670.21
129.569	3663.4
130.317	3656.57
131.069	3649.73
131.826	3642.87
132.587	3636
133.352	3629.12
134.122	3622.22
134.896	3615.31
135.675	3608.39
136.458	3601.45
137.246	3594.5
138.038	3587.53
138.835	3580.56
139.637	3573.57
140.443	3566.56
141.254	3559.55
142.069	3552.52
142.889	3545.48
143.714	3538.43
144.544	3531.37
145.378	3524.3
146.218	3517.21
147.062	3510.11
147.911	3503.01
148.765	3495.89
149.624	3488.76
150.487	3481.62
151.356	3474.48
152.23	3467.32
153.109	3460.15
153.993	3452.98
154.882	3445.79
155.776	3438.6
156.675	3431.4
157.58	3424.2
158.489	3416.99
159.404	3409.77
160.325	3402.54
161.25	3395.31
162.181	3388.06
163.117	3380.82
164.059	3373.56
165.006	3366.29
165.959	3359.02
166.917	3351.74
167.88	3344.46
168.85	3337.17
169.824	3329.87
170.805	3322.56
171.791	3315.25
172.783	3307.93
173.78	3300.61
174.783	3293.28
175.792	3285.94
176.807	3278.6
177.828	3271.26
178.855	3263.9
179.887	3256.54
180.926	3249.18
181.97	3241.81
183.021	3234.44
184.077	3227.06
185.14	3219.68
186.209	3212.29
187.284	3204.89
188.365	3197.5
189.452	3190.1
190.546	3182.69
191.646	3175.28
192.752	3167.87
193.865	3160.45
194.984	3153.03
196.11	3145.6
197.242	3138.17
198.381	3130.74
199.526	3123.3
200.678	3115.86
201.837	3108.42
203.002	3100.97
204.174	3093.52
205.353	3086.07
206.538	3078.62
207.73	3071.16
208.93	3063.7
210.136	3056.24
211.349	3048.78
212.569	3041.32
213.796	3033.85
215.03	3026.38
216.272	3018.91
217.52	3011.44
218.776	3003.97
220.039	2996.5
221.309	2989.03
222.587	2981.55
223.872	2974.08
225.165	2966.6
226.464	2959.13
227.772	2951.65
229.087	2944.17
230.409	2936.7
231.739	2929.22
233.077	2921.74
234.423	2914.26
235.776	2906.79
237.137	2899.31
238.506	2891.83
239.883	2884.35
241.268	2876.88
242.661	2869.4
244.062	2861.93
245.471	2854.45
246.888	2846.98
248.313	2839.51
249.747	2832.04
251.189	2824.57
252.639	2817.11
254.097	2809.64
255.564	2802.18
257.04	2794.72
258.523	2787.26
260.016	2779.8
261.517	2772.34
263.027	2764.89
264.545	2757.44
266.073	2749.99
267.609	2742.55
269.153	2735.1
270.707	2727.66
272.27	2720.23
273.842	2712.79
275.423	2705.36
277.013	2697.93
278.612	2690.51
280.221	2683.09
281.838	2675.67
283.465	2668.25
285.102	2660.84
286.748	2653.44
288.403	2646.03
290.068	2638.63
291.743	2631.24
293.427	2623.85
295.121	2616.46
296.825	2609.08
298.538	2601.7
300.262	2594.33
301.995	2586.96
303.739	2579.6
305.492	2572.24
307.256	2564.89
309.03	2557.54
310.814	2550.2
312.608	2542.86
314.413	2535.53
316.228	2528.2
318.053	2520.88
319.89	2513.57
321.736	2506.26
323.594	2498.95
325.462	2491.65
327.341	2484.36
329.23	2477.07
331.131	2469.79
333.043	2462.52
334.965	2455.25
336.899	2447.99
338.844	2440.74
340.8	2433.49
342.768	2426.25
344.747	2419.02
346.737	2411.79
348.739	2404.57
350.752	2397.36
352.777	2390.16
354.813	2382.96
356.862	2375.77
358.922	2368.59
360.994	2361.41
363.078	2354.25
365.174	2347.09
367.282	2339.94
369.403	2332.79
371.535	2325.66
373.68	2318.53
375.837	2311.41
378.007	2304.29
380.189	2297.19
382.384	2290.09
384.592	2283.01
386.812	2275.93
389.045	2268.86
391.291	2261.79
393.55	2254.73
395.822	2247.67
398.107	2240.63
400.405	2233.59
402.717	2226.56
405.042	2219.54
407.38	2212.53
409.732	2205.53
412.098	2198.54
414.477	2191.56
416.869	2184.59
419.276	2177.63
421.697	2170.68
424.131	2163.73
426.58	2156.8
429.042	2149.88
431.519	2142.97
434.01	2136.08
436.516	2129.19
439.036	2122.31
441.57	2115.44
444.12	2108.59
446.684	2101.75
449.262	2094.92
451.856	2088.1
454.465	2081.29
457.088	2074.49
459.727	2067.71
462.381	2060.94
465.05	2054.18
467.735	2047.43
470.435	2040.69
473.151	2033.97
475.883	2027.26
478.63	2020.56
481.393	2013.87
484.172	2007.2
486.968	2000.54
489.779	1993.89
492.606	1987.25
495.45	1980.63
498.31	1974.02
501.187	1967.42
504.081	1960.83
506.991	1954.26
509.918	1947.7
512.861	1941.15
515.822	1934.61
518.8	1928.09
521.795	1921.57
524.807	1915.07
527.837	1908.59
530.884	1902.11
533.949	1895.65
537.032	1889.19
540.132	1882.75
543.25	1876.32
546.387	1869.9
549.541	1863.5
552.713	1857.1
555.904	1850.71
559.114	1844.34
562.341	1837.97
565.588	1831.62
568.853	1825.27
572.137	1818.93
575.44	1812.61
578.762	1806.29
582.103	1799.98
585.464	1793.68
588.844	1787.47
592.243	1781.27
595.662	1775.07
599.101	1768.89
602.56	1762.71
606.038	1756.54
609.537	1750.38
613.056	1744.23
616.595	1738.09
620.155	1731.96
623.735	1725.84
627.336	1719.73
630.957	1713.63
634.6	1707.54
638.263	1701.46
641.948	1695.4
645.654	1689.34
649.382	1683.3
653.131	1677.26
656.901	1671.24
660.693	1665.23
664.508	1659.23
668.344	1653.25
672.202	1647.27
676.083	1641.31
679.986	1635.37
683.912	1629.43
687.86	1623.51
691.831	1617.6
695.825	1611.7
699.842	1605.82
703.882	1599.96
707.946	1594.1
712.033	1588.26
716.143	1582.44
720.278	1576.62
724.436	1570.83
728.618	1565.04
732.825	1559.28
737.055	1553.52
741.31	1547.79
745.59	1542.06
749.894	1536.36
754.223	1530.66
758.578	1524.99
762.957	1519.33
767.361	1513.68
771.792	1508.05
776.247	1502.44
780.728	1496.84
785.236	1491.23
789.769	1485.65
794.328	1480.08
798.914	1474.52
803.526	1468.99
808.165	1463.46
812.831	1457.96
817.523	1452.47
822.243	1447
826.99	1441.54
831.764	1436.1
836.566	1430.68
841.395	1425.28
846.253	1419.89
851.138	1414.51
856.052	1409.16
860.994	1403.82
865.964	1398.5
870.964	1393.19
875.992	1387.9
881.049	1382.63
886.135	1377.38
891.251	1372.14
896.396	1366.91
901.571	1361.71
906.776	1356.52
912.011	1351.34
917.276	1346.18
922.571	1341.04
927.897	1335.92
933.254	1330.8
938.642	1325.71
944.061	1320.63
949.511	1315.56
954.993	1310.51
960.506	1305.48
966.051	1300.45
971.628	1295.45
977.237	1290.45
982.879	1285.47
988.553	1280.5
994.26	1275.55
1000	1270.61
1005.77	1265.68
1011.58	1260.77
1017.42	1255.87
1023.29	1250.99
1029.2	1246.12
1035.14	1241.26
1041.12	1236.42
1047.13	1231.6
1053.17	1226.79
1059.25	1221.99
1065.37	1217.21
1071.52	1212.44
1077.71	1207.69
1083.93	1202.95
1090.18	1198.23
1096.48	1193.52
1102.81	1188.83
1109.17	1184.15
1115.58	1179.49
1122.02	1174.84
1128.5	1170.21
1135.01	1165.59
1141.56	1160.99
1148.15	1156.4
1154.78	1151.83
1161.45	1147.27
1168.15	1142.72
1174.9	1138.19
1181.68	1133.67
1188.5	1129.16
1195.36	1124.67
1202.26	1120.19
1209.21	1115.72
1216.19	1111.27
1223.21	1106.84
1230.27	1102.42
1237.37	1098.02
1244.51	1093.63
1251.7	1089.26
1258.93	1084.9
1266.19	1080.56
1273.5	1076.23
1280.86	1071.92
1288.25	1067.63
1295.69	1063.35
1303.17	1059.09
1310.69	1054.84
1318.26	1050.61
1325.87	1046.39
1333.52	1042.19
1341.22	1038.01
1348.96	1033.84
1356.75	1029.69
1364.58	1025.55
1372.46	1021.43
1380.38	1017.32
1388.35	1013.23
1396.37	1009.16
1404.43	1005.1
1412.54	1001.06
1420.69	997.028
1428.89	993.015
1437.14	989.016
1445.44	985.033
1453.78	981.064
1462.18	977.11
1470.62	973.169
1479.11	969.243
1487.65	965.331
1496.24	961.433
1504.87	957.548
1513.56	953.676
1522.3	949.817
1531.09	945.971
1539.93	942.137
1548.82	938.315
1557.76	934.505
1566.75	930.723
1575.8	926.96
1584.89	923.209
1594.04	919.469
1603.25	915.741
1612.5	912.024
1621.81	908.32
1631.17	904.628
1640.59	900.948
1650.06	897.28
1659.59	893.625
1669.17	889.983
1678.8	886.353
1688.5	882.735
1698.24	879.131
1708.05	875.539
1717.91	871.961
1727.83	868.395
1737.8	864.843
1747.83	861.304
1757.92	857.778
1768.07	854.265
1778.28	850.766
1788.55	847.28
1798.87	843.808
1809.26	840.349
1819.7	836.904
1830.21	833.472
1840.77	830.054
1851.4	826.649
1862.09	823.258
1872.84	819.88
1883.65	816.516
1894.52	813.166
1905.46	809.829
1916.46	806.505
1927.52	803.195
1938.65	799.898
1949.84	796.615
1961.1	793.339
1972.42	790.075
1983.81	786.825
1995.26	783.588
2006.78	780.365
2018.37	777.155
2030.02	773.958
2041.74	770.775
2053.53	767.605
2065.38	764.449
2077.3	761.306
2089.3	758.176
2101.36	755.06
2113.49	751.958
2125.69	748.869
2137.96	745.793
2150.3	742.73
2162.72	739.68
2175.2	736.644
2187.76	733.621
2200.39	730.611
2213.09	727.613
2225.87	724.629
2238.72	721.657
2251.65	718.697
2264.64	715.75
2277.72	712.815
2290.87	709.893
2304.09	706.982
2317.39	704.083
2330.77	701.195
2344.23	698.318
2357.76	695.453
2371.37	692.598
2385.06	689.755
2398.83	686.923
2412.68	684.103
2426.61	681.294
2440.62	678.496
2454.71	675.71
2468.88	672.935
2483.13	670.172
2497.47	667.421
2511.89	664.68
2526.39	661.952
2540.97	659.235
2555.64	656.53
2570.4	653.836
2585.23	651.154
2600.16	648.483
2615.17	645.824
2630.27	643.176
2645.45	640.54
2660.73	637.915
2676.09	635.301
2691.53	632.698
2707.07	630.107
2722.7	627.526
2738.42	624.956
2754.23	622.398
2770.13	619.85
2786.12	617.313
2802.21	614.787
2818.38	612.272
2834.65	609.768
2851.02	607.275
2867.48	604.792
2884.03	602.321
2900.68	599.861
2917.43	597.412
2934.27	594.973
2951.21	592.545
2968.25	590.128
2985.38	587.722
3002.62	585.327
3019.95	582.942
3037.39	580.568
3054.92	578.204
3072.56	575.85
3090.3	573.507
3108.14	571.173
3126.08	568.85
3144.13	566.537
3162.28	564.234
3180.53	561.94
3198.9	559.657
3217.36	557.383
3235.94	555.12
3254.62	552.867
3273.41	550.624
3292.3	548.391
3311.31	546.168
3330.43	543.955
3349.65	541.752
3368.99	539.56
3388.44	537.377
3408	535.204
3427.68	533.042
3447.47	530.889
3467.37	528.746
3487.39	526.613
3507.52	524.49
3527.77	522.377
3548.13	520.273
3568.62	518.178
3589.22	516.094
3609.94	514.018
3630.78	511.952
3651.74	509.896
3672.82	507.848
3694.03	505.81
3715.35	503.781
3736.8	501.761
3758.37	499.749
3780.07	497.746
3801.89	495.752
3823.84	493.765
3845.92	491.788
3868.12	489.818
3890.45	487.856
3912.91	485.899
3935.5	483.948
3958.22	482.004
3981.07	480.069
4004.05	478.141
4027.17	476.221
4050.42	474.309
4073.8	472.405
4097.32	470.51
4120.98	468.622
4144.77	466.743
4168.69	464.873
4192.76	463.01
4216.97	461.157
4241.31	459.312
4265.8	457.475
4290.42	455.648
4315.19	453.829
4340.1	452.019
4365.16	450.218
4390.36	448.426
4415.7	446.643
4441.2	444.869
4466.84	443.104
4492.62	441.349
4518.56	439.602
4544.65	437.865
4570.88	436.137
4597.27	434.418
4623.81	432.708
4650.5	431.008
4677.35	429.317
4704.35	427.635
4731.51	425.963
4758.83	424.3
4786.3	422.646
4813.93	421.001
4841.72	419.366
4869.68	417.739
4897.79	416.122
4926.06	414.514
4954.5	412.915
4983.1	411.326
5011.87	409.745
5040.81	408.172
5069.91	406.609
5099.18	405.055
5128.61	403.509
5158.22	401.971
5188	400.442
5217.95	398.921
5248.07	397.409
5278.37	395.904
5308.84	394.407
5339.49	392.918
5370.32	391.437
5401.32	389.963
5432.5	388.496
5463.87	387.036
5495.41	385.583
5527.13	384.136
5559.04	382.696
5591.14	381.191
5623.41	379.644
5655.88	378.104
5688.53	376.57
5721.37	375.042
5754.4	373.521
5787.62	372.005
5821.03	370.493
5854.64	368.991
5888.44	367.532
5922.43	366.077
5956.62	364.627
5991.01	363.182
6025.6	361.741
6060.38	360.306
6095.37	358.876
6130.56	357.451
6165.95	356.031
6201.55	354.617
6237.35	353.208
6273.36	351.804
6309.57	350.406
6346	349.013
6382.63	347.626
6419.48	346.245
6456.54	344.869
6493.82	343.499
6531.31	342.135
6569.01	340.777
6606.93	339.425
6645.08	338.078
6683.44	336.738
6722.02	335.404
6760.83	334.076
6799.86	332.754
6839.12	331.438
6878.6	330.129
6918.31	328.826
6958.25	327.529
6998.42	326.239
7038.82	324.956
7079.46	323.679
7120.33	322.408
7161.43	321.144
7202.78	319.887
7244.36	318.636
7286.18	317.392
7328.25	316.155
7370.55	314.924
7413.1	313.701
7455.9	312.484
7498.94	311.274
7542.23	310.07
7585.78	308.874
7629.57	307.684
7673.61	306.502
7717.92	305.326
7762.47	304.157
7807.28	302.995
7852.36	301.833
7897.69	300.678
7943.28	299.53
7989.14	298.389
8035.26	297.255
8081.65	296.127
8128.31	295.007
8175.23	293.893
8222.43	292.787
8269.9	291.687
8317.64	290.594
8365.66	289.508
8413.95	288.429
8462.53	287.357
8511.38	286.292
8560.52	285.233
8609.94	284.181
8659.64	283.135
8709.64	282.097
8759.92	281.064
8810.49	280.039
8861.35	279.02
8912.51	278.007
8963.96	277
9015.71	276
9067.76	275.006
9120.11	274.018
9172.76	273.036
9225.71	272.06
9278.97	271.089
9332.54	270.125
9386.42	269.166
9440.61	268.212
9495.11	267.263
9549.93	266.32
9605.06	265.382
9660.51	264.448
9716.28	263.519
9772.37	262.595
9828.79	261.675
9885.53	260.759
9942.6	259.847
10000	258.94
10057.7	258.038
10115.8	257.14
10174.2	256.246
10232.9	255.357
10292	254.473
10351.4	253.593
10411.2	252.718
10471.3	251.847
10531.7	250.981
10592.5	250.119
10653.7	249.262
10715.2	248.41
10777.1	247.562
10839.3	246.719
10901.8	245.881
10964.8	245.047
11028.1	244.217
11091.7	243.392
11155.8	242.572
11220.2	241.756
11285	240.945
11350.1	240.138
11415.6	239.336
11481.5	238.538
11547.8	237.744
11614.5	236.955
11681.5	236.17
11749	235.388
11816.8	234.61
11885	233.836
11953.6	233.066
12022.6	232.301
12092.1	231.54
12161.9	230.783
12232.1	230.031
12302.7	229.283
12373.7	228.539
12445.1	227.8
12517	227.066
12589.3	226.335
12661.9	225.609
12735	224.888
12808.6	224.171
12882.5	223.459
12956.9	222.751
13031.7	222.047
13106.9	221.348
13182.6	220.653
13258.7	219.963
13335.2	219.277
13412.2	218.596
13489.6	217.919
13567.5	217.246
13645.8	216.578
13724.6	215.914
13803.8	215.254
13883.5	214.598
13963.7	213.947
14044.3	213.3
14125.4	212.657
14206.9	212.018
14288.9	211.384
14371.4	210.753
14454.4	210.126
14537.8	209.503
14621.8	208.884
14706.2	208.269
14791.1	207.657
14876.5	207.049
14962.4	206.444
15048.7	205.843
15135.6	205.245
15223	204.651
15310.9	204.059
15399.3	203.471
15488.2	202.886
15577.6	202.303
15667.5	201.727
15758	201.155
15848.9	200.586
15940.4	200.02
16032.5	199.457
16125	198.896
16218.1	198.339
16311.7	197.784
16405.9	197.232
16500.6	196.682
16595.9	196.136
16691.7	195.593
16788	195.052
16885	194.515
16982.4	193.98
17080.5	193.449
17179.1	192.92
17278.3	192.395
17378	191.873
17478.3	191.353
17579.2	190.837
17680.7	190.324
17782.8	189.813
17885.5	189.306
17988.7	188.802
18092.6	188.301
18197	187.803
18302.1	187.308
18407.7	186.816
18514	186.328
18620.9	185.842
18728.4	185.36
18836.5	184.88
18945.2	184.404
19054.6	183.93
19164.6	183.46
19275.2	182.992
19386.5	182.528
19498.4	182.067
19611	181.607
19724.2	181.15
19838.1	180.696
19952.6	180.245
20067.8	179.797
20183.7	179.352
20300.2	178.91
20417.4	178.471
20535.3	178.035
20653.8	177.602
20773	177.172
20893	176.744
21013.6	176.32
21134.9	175.899
21256.9	175.48
21379.6	175.064
21503	174.651
21627.2	174.241
21752	173.834
21877.6	173.43
22003.9	173.028
22130.9	172.629
22258.7	172.233
22387.2	171.839
22516.5	171.448
22646.4	171.06
22777.2	170.674
22908.7	170.291
23040.9	169.91
23173.9	169.532
23307.7	169.156
23442.3	168.782
23577.6	168.41
23713.7	168.041
23850.6	167.674
23988.3	167.309
24126.8	166.947
24266.1	166.587
24406.2	166.229
24547.1	165.874
24688.8	165.52
24831.3	165.17
24974.7	164.821
25118.9	164.475
25263.9	164.131
25409.7	163.789
25556.4	163.45
25704	163.113
25852.3	162.778
26001.6	162.446
26151.7	162.116
26302.7	161.788
26454.5	161.462
26607.3	161.139
26760.9	160.817
26915.3	160.498
27070.7	160.181
27227	159.867
27384.2	159.554
27542.3	159.244
27701.3	158.935
27861.2	158.629
28022.1	158.325
28183.8	158.023
28346.5	157.723
28510.2	157.425
28674.8	157.13
28840.3	156.836
29006.8	156.545
29174.3	156.255
29342.7	155.968
29512.1	155.683
29682.5	155.4
29853.8	155.119
30026.2	154.84
30199.5	154.563
30373.9	154.288
30549.2	154.015
30725.6	153.744
30903	153.475
31081.4	153.208
31260.8	152.942
31441.3	152.679
31622.8	152.417
31805.3	152.158
31989	151.9
32173.6	151.644
32359.4	151.39
32546.2	151.138
32734.1	150.888
32923	150.639
33113.1	150.393
33304.3	150.148
33496.5	149.905
33689.9	149.664
33884.4	149.424
34080	149.187
34276.8	148.951
34474.7	148.717
34673.7	148.484
34873.9	148.254
35075.2	148.024
35277.7	147.797
35481.3	147.571
35686.2	147.347
35892.2	147.124
36099.4	146.903
36307.8	146.684
36517.4	146.465
36728.2	146.249
36940.3	146.033
37153.5	145.819
37368	145.606
37583.7	145.395
37800.7	145.184
38018.9	144.975
38238.4	144.767
38459.2	144.56
38681.2	144.354
38904.5	144.148
39129.1	143.935
39355	143.714
39582.2	143.496
39810.7	143.279
40040.5	143.064
40271.7	142.85
40504.2	142.638
40738	142.428
40973.2	142.219
41209.8	142.012
41447.7	141.807
41686.9	141.603
41927.6	141.401
42169.7	141.2
42413.1	141.001
42658	140.804
42904.2	140.608
43151.9	140.413
43401	140.22
43651.6	140.029
43903.6	139.839
44157	139.651
44412	139.464
44668.4	139.279
44926.2	139.095
45185.6	138.913
45446.5	138.732
45708.8	138.553
45972.7	138.375
46238.1	138.198
46505	138.023
46773.5	137.85
47043.5	137.678
47315.1	137.507
47588.3	137.337
47863	137.169
48139.3	137.003
48417.2	136.838
48696.8	136.674
48977.9	136.511
49260.6	136.35
49545	136.191
49831	136.032
50118.7	135.875
50408.1	135.719
50699.1	135.565
50991.8	135.412
51286.1	135.26
51582.2	135.109
51880	134.96
52179.5	134.812
52480.7	134.666
52783.7	134.52
53088.4	134.376
53394.9	134.233
53703.2	134.091
54013.2	133.951
54325	133.812
54638.7	133.674
54954.1	133.537
55271.3	133.401
55590.4	133.267
55911.4	133.134
56234.1	133.002
56558.8	132.871
56885.3	132.741
57213.7	132.613
57544	132.486
57876.2	132.359
58210.3	132.234
58546.4	132.11
58884.4	131.988
59224.3	131.866
59566.2	131.745
59910.1	131.626
60256	131.508
60603.8	131.39
60953.7	131.274
61305.6	131.159
61659.5	131.045
62015.5	130.932
62373.5	130.82
62733.6	130.709
63095.7	130.6
63460	130.491
63826.3	130.383
64194.8	130.277
64565.4	130.171
64938.2	130.066
65313.1	129.963
65690.1	129.86
66069.3	129.759
66450.8	129.658
66834.4	129.558
67220.2	129.46
67608.3	129.362
67998.6	129.265
68391.2	129.169
68786	129.075
69183.1	128.981
69582.5	128.888
69984.2	128.796
70388.2	128.705
70794.6	128.615
71203.3	128.525
71614.3	128.437
72027.8	128.35
72443.6	128.263
72861.8	128.178
73282.5	128.093
73705.5	128.009
74131	127.926
74559	127.844
74989.4	127.763
75422.3	127.683
75857.8	127.603
76295.7	127.525
76736.1	127.447
77179.2	127.37
77624.7	127.294
78072.8	127.218
78523.6	127.144
78976.9	127.07
79432.8	126.997
79891.4	126.925
80352.6	126.854
80816.5	126.784
81283.1	126.714
81752.3	126.645
82224.3	126.577
82699	126.51
83176.4	126.443
83656.6	126.378
84139.5	126.313
84625.3	126.248
85113.8	126.185
85605.2	126.122
86099.4	126.06
86596.4	125.999
87096.4	125.938
87599.2	125.878
88104.9	125.819
88613.5	125.761
89125.1	125.703
89639.6	125.646
90157.1	125.59
90677.6	125.534
91201.1	125.479
91727.6	125.425
92257.1	125.372
92789.7	125.319
93325.4	125.266
93864.2	125.215
94406.1	125.164
94951.1	125.114
95499.3	125.064
96050.6	125.015
96605.1	124.967
97162.8	124.919
97723.7	124.872
98287.9	124.826
98855.3	124.78
99426	124.735
100000	124.691
100577	124.647
101158	124.603
101742	124.561
102329	124.519
102920	124.477
103514	124.436
104112	124.396
104713	124.356
105317	124.317
105925	124.278
106537	124.24
107152	124.203
107771	124.166
108393	124.13
109018	124.094
109648	124.059
110281	124.024
110917	123.99
111558	123.956
112202	123.923
112850	123.89
113501	123.858
114156	123.827
114815	123.796
115478	123.765
116145	123.735
116815	123.706
117490	123.677
118168	123.648
118850	123.62
119536	123.593
120226	123.565
120921	123.539
121619	123.513
122321	123.487
123027	123.462
123737	123.437
124451	123.413
125170	123.389
125893	123.366
126619	123.343
127350	123.321
128086	123.299
128825	123.277
129569	123.256
130317	123.235
131069	123.215
131826	123.195
132587	123.176
133352	123.157
134122	123.138
134896	123.12
135675	123.102
136458	123.085
137246	123.068
138038	123.052
138835	123.035
139637	123.02
140443	123.004
141254	122.989
142069	122.975
142889	122.961
143714	122.947
144544	122.933
145378	122.92
146218	122.907
147062	122.895
147911	122.883
148765	122.871
149624	122.86
150487	122.849
151356	122.838
152230	122.828
153109	122.818
153993	122.809
154882	122.799
155776	122.79
156675	122.782
157580	122.773
158489	122.765
159404	122.758
160325	122.75
161250	122.743
162181	122.737
163117	122.73
164059	122.724
165006	122.719
165959	122.713
166917	122.708
167880	122.703
168850	122.698
169824	122.694
170805	122.69
171791	122.686
172783	122.683
173780	122.68
174783	122.677
175792	122.674
176807	122.672
177828	122.67
178855	122.668
179887	122.666
180926	122.665
181970	122.664
183021	122.663
184077	122.663
185140	122.662
186209	122.662
187284	122.662
188365	122.663
189452	122.664
190546	122.664
191646	122.666
192752	122.667
193865	122.669
194984	122.67
196110	122.673
197242	122.675
198381	122.677
199526	122.68
200678	122.683
201837	122.686
203002	122.69
204174	122.693
205353	122.697
206538	122.701
207730	122.705
208930	122.709
210136	122.714
211349	122.719
212569	122.724
213796	122.729
215030	122.734
216272	122.74
217520	122.746
218776	122.752
220039	122.758
221309	122.764
222587	122.77
223872	122.777
225165	122.784
226464	122.791
227772	122.798
229087	122.805
230409	122.813
231739	122.821
233077	122.828
234423	122.836
235776	122.844
237137	122.853
238506	122.861
239883	122.87
241268	122.879
242661	122.887
244062	122.896
245471	122.906
246888	122.915
248313	122.924
249747	122.934
251189	122.944
252639	122.954
254097	122.964
255564	122.974
257040	122.984
258523	122.995
260016	123.005
261517	123.016
263027	123.027
264545	123.038
266073	123.049
267609	123.06
269153	123.071
270707	123.082
272270	123.094
273842	123.106
275423	123.117
277013	123.129
278612	123.141
280221	123.153
281838	123.165
283465	123.178
285102	123.19
286748	123.203
288403	123.215
290068	123.228
291743	123.241
293427	123.253
295121	123.266
296825	123.279
298538	123.293
300262	123.306
301995	123.319
303739	123.333
305492	123.346
307256	123.36
309030	123.373
310814	123.387
312608	123.401
314413	123.415
316228	123.429
318053	123.443
319890	123.457
321736	123.471
323594	123.485
325462	123.5
327341	123.514
329230	123.529
331131	123.543
333043	123.558
334965	123.573
336899	123.587
338844	123.602
340800	123.617
342768	123.632
344747	123.647
346737	123.662
348739	123.677
350752	123.692
352777	123.708
354813	123.723
356862	123.738
358922	123.754
360994	123.769
363078	123.785
365174	123.8
367282	123.816
369403	123.831
371535	123.847
373680	123.863
375837	123.879
378007	123.894
380189	123.91
382384	123.926
384592	123.942
386812	123.958
389045	123.974
391291	123.99
393550	124.006
395822	124.022
398107	124.038
400405	124.055
402717	124.071
405042	124.087
407380	124.103
409732	124.12
412098	124.136
414477	124.152
416869	124.169
419276	124.185
421697	124.202
424131	124.218
426580	124.235
429042	124.251
431519	124.268
434010	124.284
436516	124.301
439036	124.317
441570	124.334
444120	124.351
446684	124.367
449262	124.384
451856	124.401
454465	124.417
457088	124.434
459727	124.451
462381	124.468
465050	124.484
467735	124.501
470435	124.518
473151	124.535
475883	124.552
478630	124.568
481393	124.585
484172	124.602
486968	124.619
489779	124.636
492606	124.652
495450	124.669
498310	124.686
501187	124.703
504081	124.72
506991	124.737
509918	124.754
512861	124.77
515822	124.787
518800	124.804
521795	124.821
524807	124.838
527837	124.855
530884	124.872
533949	124.888
537032	124.905
540132	124.922
543250	124.939
546387	124.956
549541	124.973
552713	124.989
555904	125.006
559114	125.023
562341	125.04
565588	125.057
568853	125.073
572137	125.09
575440	125.107
578762	125.124
582103	125.14
585464	125.157
588844	125.174
592243	125.19
595662	125.207
599101	125.224
602560	125.24
606038	125.257
609537	125.274
613056	125.29
616595	125.307
620155	125.324
623735	125.34
627336	125.357
630957	125.373
634600	125.39
638263	125.406
641948	125.423
645654	125.439
649382	125.456
653131	125.472
656901	125.488
660693	125.505
664508	125.521
668344	125.537
672202	125.554
676083	125.57
679986	125.586
683912	125.603
687860	125.619
691831	125.635
695825	125.651
699842	125.667
703882	125.683
707946	125.7
712033	125.716
716143	125.732
720278	125.748
724436	125.764
728618	125.78
732825	125.796
737055	125.812
741310	125.827
745590	125.843
749894	125.859
754223	125.875
758578	125.891
762957	125.906
767361	125.922
771792	125.938
776247	125.954
780728	125.969
785236	125.985
789769	126
794328	126.016
798914	126.031
803526	126.047
808165	126.062
812831	126.078
817523	126.093
822243	126.109
826990	126.124
831764	126.139
836566	126.154
841395	126.17
846253	126.185
851138	126.2
856052	126.215
860994	126.23
865964	126.245
870964	126.26
875992	126.275
881049	126.29
886135	126.305
891251	126.32
896396	126.335
901571	126.35
906776	126.365
912011	126.379
917276	126.394
922571	126.409
927897	126.423
933254	126.438
938642	126.453
944061	126.467
949511	126.482
954993	126.496
960506	126.51
966051	126.525
971628	126.539
977237	126.554
982879	126.568
988553	126.582
994260	126.596
1e+06	126.61
1.00577e+06	126.625
1.01158e+06	126.639
1.01742e+06	126.653
1.02329e+06	126.667
1.0292e+06	126.681
1.03514e+06	126.695
1.04112e+06	126.708
1.04713e+06	126.722
1.05317e+06	126.736
1.05925e+06	126.75
1.06537e+06	126.764
1.07152e+06	126.777
1.07771e+06	126.791
1.08393e+06	126.805
1.09018e+06	126.818
1.09648e+06	126.832
1.10281e+06	126.845
1.10917e+06	126.859
1.11558e+06	126.872
1.12202e+06	126.885
1.1285e+06	126.899
1.13501e+06	126.912
1.14156e+06	126.925
1.14815e+06	126.939
1.15478e+06	126.952
1.16145e+06	126.965
1.16815e+06	126.978
1.1749e+06	126.991
1.18168e+06	127.004
1.1885e+06	127.017
1.19536e+06	127.03
1.20226e+06	127.043
1.20921e+06	127.056
1.21619e+06	127.068
1.22321e+06	127.081
1.23027e+06	127.094
1.23737e+06	127.107
1.24451e+06	127.119
1.2517e+06	127.132
1.25893e+06	127.144
1.26619e+06	127.157
1.2735e+06	127.169
1.28086e+06	127.182
1.28825e+06	127.194
1.29569e+06	127.207
1.30317e+06	127.219
1.31069e+06	127.231
1.31826e+06	127.243
1.32587e+06	127.256
1.33352e+06	127.268
1.34122e+06	127.28
1.34896e+06	127.292
1.35675e+06	127.304
1.36458e+06	127.316
1.37246e+06	127.328
1.38038e+06	127.34
1.38835e+06	127.351
1.39637e+06	127.363
1.40443e+06	127.375
1.41254e+06	127.387
1.42069e+06	127.398
1.42889e+06	127.41
1.43714e+06	127.422
1.44544e+06	127.433
1.45378e+06	127.445
1.46218e+06	127.456
1.47062e+06	127.468
1.47911e+06	127.479
1.48765e+06	127.49
1.49624e+06	127.502
1.50487e+06	127.513
1.51356e+06	127.524
1.5223e+06	127.535
1.53109e+06	127.546
1.53993e+06	127.557
1.54882e+06	127.569
1.55776e+06	127.58
1.56675e+06	127.59
1.5758e+06	127.601
1.58489e+06	127.612
1.59404e+06	127.623
1.60325e+06	127.634
1.6125e+06	127.645
1.62181e+06	127.655
1.63117e+06	127.666
1.64059e+06	127.677
1.65006e+06	127.687
1.65959e+06	127.698
1.66917e+06	127.708
1.6788e+06	127.719
1.6885e+06	127.729
1.69824e+06	127.739
1.70805e+06	127.75
1.71791e+06	127.76
1.72783e+06	127.77
1.7378e+06	127.78
1.74783e+06	127.791
1.75792e+06	127.801
1.76807e+06	127.811
1.77828e+06	127.821
1.78855e+06	127.831
1.79887e+06	127.841
1.80926e+06	127.851
1.8197e+06	127.861
1.83021e+06	127.87
1.84077e+06	127.88
1.8514e+06	127.89
1.86209e+06	127.9
1.87284e+06	127.909
1.88365e+06	127.919
1.89452e+06	127.928
1.90546e+06	127.938
1.91646e+06	127.947
1.92752e+06	127.957
1.93865e+06	127.966
1.94984e+06	127.976
1.9611e+06	127.985
1.97242e+06	127.994
1.98381e+06	128.003
1.99526e+06	128.013
2.00678e+06	128.022
2.01837e+06	128.031
2.03002e+06	128.04
2.04174e+06	128.049
2.05353e+06	128.058
2.06538e+06	128.067
2.0773e+06	128.076
2.0893e+06	128.085
2.10136e+06	128.094
2.11349e+06	128.102
2.12569e+06	128.111
2.13796e+06	128.12
2.1503e+06	128.129
2.16272e+06	128.137
2.1752e+06	128.146
2.18776e+06	128.154
2.20039e+06	128.163
2.21309e+06	128.171
2.22587e+06	128.18
2.23872e+06	128.188
2.25165e+06	128.196
2.26464e+06	128.205
2.27772e+06	128.213
2.29087e+06	128.221
2.30409e+06	128.229
2.31739e+06	128.238
2.33077e+06	128.246
2.34423e+06	128.254
2.35776e+06	128.262
2.37137e+06	128.27
2.38506e+06	128.278
2.39883e+06	128.286
2.41268e+06	128.293
2.42661e+06	128.301
2.44062e+06	128.309
2.45471e+06	128.317
2.46888e+06	128.325
2.48313e+06	128.332
2.49747e+06	128.34
2.51189e+06	128.347
2.52639e+06	128.355
2.54097e+06	128.363
2.55564e+06	128.37
2.5704e+06	128.377
2.58523e+06	128.385
2.60016e+06	128.392
2.61517e+06	128.4
2.63027e+06	128.407
2.64545e+06	128.414
2.66073e+06	128.421
2.67609e+06	128.428
2.69153e+06	128.436
2.70707e+06	128.443
2.7227e+06	128.45
2.73842e+06	128.457
2.75423e+06	128.464
2.77013e+06	128.471
2.78612e+06	128.478
2.80221e+06	128.485
2.81838e+06	128.491
2.83465e+06	128.498
2.85102e+06	128.505
2.86748e+06	128.512
2.88403e+06	128.518
2.90068e+06	128.525
2.91743e+06	128.532
2.93427e+06	128.538
2.95121e+06	128.545
2.96825e+06	128.551
2.98538e+06	128.558
3.00262e+06	128.564
3.01995e+06	128.571
3.03739e+06	128.577
3.05492e+06	128.583
3.07256e+06	128.59
3.0903e+06	128.596
3.10814e+06	128.602
3.12608e+06	128.608
3.14413e+06	128.614
3.16228e+06	128.62
3.18053e+06	128.627
3.1989e+06	128.633
3.21736e+06	128.639
3.23594e+06	128.645
3.25462e+06	128.651
3.27341e+06	128.656
3.2923e+06	128.662
3.31131e+06	128.668
3.33043e+06	128.674
3.34965e+06	128.68
3.36899e+06	128.685
3.38844e+06	128.691
3.408e+06	128.697
3.42768e+06	128.702
3.44747e+06	128.708
3.46737e+06	128.714
3.48739e+06	128.719
3.50752e+06	128.725
3.52777e+06	128.73
3.54813e+06	128.735
3.56862e+06	128.741
3.58922e+06	128.746
3.60994e+06	128.752
3.63078e+06	128.757
3.65174e+06	128.762
3.67282e+06	128.767
3.69403e+06	128.773
3.71535e+06	128.778
3.7368e+06	128.783
3.75837e+06	128.788
3.78007e+06	128.793
3.80189e+06	128.798
3.82384e+06	128.803
3.84592e+06	128.808
3.86812e+06	128.813
3.89045e+06	128.818
3.91291e+06	128.823
3.9355e+06	128.827
3.95822e+06	128.832
3.98107e+06	128.837
4.00405e+06	128.842
4.02717e+06	128.847
4.05042e+06	128.851
4.0738e+06	128.856
4.09732e+06	128.86
4.12098e+06	128.865
4.14477e+06	128.87
4.16869e+06	128.874
4.19276e+06	128.879
4.21697e+06	128.883
4.24131e+06	128.888
4.2658e+06	128.892
4.29042e+06	128.896
4.31519e+06	128.901
4.3401e+06	128.905
4.36516e+06	128.909
4.39036e+06	128.913
4.4157e+06	128.918
4.4412e+06	128.922
4.46684e+06	128.926
4.49262e+06	128.93
4.51856e+06	128.934
4.54465e+06	128.938
4.57088e+06	128.942
4.59727e+06	128.946
4.62381e+06	128.95
4.6505e+06	128.954
4.67735e+06	128.958
4.70435e+06	128.962
4.73151e+06	128.966
4.75883e+06	128.97
4.7863e+06	128.974
4.81393e+06	128.978
4.84172e+06	128.981
4.86968e+06	128.985
4.89779e+06	128.989
4.92606e+06	128.992
4.9545e+06	128.996
4.9831e+06	129
5.01187e+06	129.003
5.04081e+06	129.007
5.06991e+06	129.01
5.09918e+06	129.014
5.12861e+06	129.017
5.15822e+06	129.021
5.188e+06	129.024
5.21795e+06	129.028
5.24807e+06	129.031
5.27837e+06	129.034
5.30884e+06	129.038
5.33949e+06	129.041
5.37032e+06	129.044
5.40132e+06	129.048
5.4325e+06	129.051
5.46387e+06	129.054
5.49541e+06	129.057
5.52713e+06	129.06
5.55904e+06	129.063
5.59114e+06	129.066
5.62341e+06	129.07
5.65588e+06	129.073
5.68853e+06	129.076
5.72137e+06	129.079
5.7544e+06	129.082
5.78762e+06	129.085
5.82103e+06	129.087
5.85464e+06	129.09
5.88844e+06	129.093
5.92243e+06	129.096
5.95662e+06	129.099
5.99101e+06	129.102
6.0256e+06	129.104
6.06038e+06	129.107
6.09537e+06	129.11
6.13056e+06	129.113
6.16595e+06	129.115
6.20155e+06	129.118
6.23735e+06	129.121
6.27336e+06	129.123
6.30957e+06	129.126
6.346e+06	129.128
6.38263e+06	129.131
6.41948e+06	129.133
6.45654e+06	129.136
6.49382e+06	129.138
6.53131e+06	129.141
6.56901e+06	129.143
6.60693e+06	129.146
6.64508e+06	129.148
6.68344e+06	129.15
6.72202e+06	129.153
6.76083e+06	129.155
6.79986e+06	129.157
6.83912e+06	129.16
6.8786e+06	129.162
6.91831e+06	129.164
6.95825e+06	129.166
6.99842e+06	129.168
7.03882e+06	129.171
7.07946e+06	129.173
7.12033e+06	129.175
7.16143e+06	129.177
7.20278e+06	129.179
7.24436e+06	129.181
7.28618e+06	129.183
7.32825e+06	129.185
7.37055e+06	129.187
7.4131e+06	129.189
7.4559e+06	129.191
7.49894e+06	129.193
7.54223e+06	129.195
7.58578e+06	129.197
7.62957e+06	129.199
7.67361e+06	129.201
7.71792e+06	129.202
7.76247e+06	129.204
7.80728e+06	129.206
7.85236e+06	129.208
7.89769e+06	129.21
7.94328e+06	129.211
7.98914e+06	129.213
8.03526e+06	129.215
8.08165e+06	129.216
8.12831e+06	129.218
8.17523e+06	129.22
8.22243e+06	129.221
8.2699e+06	129.223
8.31764e+06	129.225
8.36566e+06	129.226
8.41395e+06	129.228
8.46253e+06	129.229
8.51138e+06	129.231
8.56052e+06	129.232
8.60994e+06	129.234
8.65964e+06	129.235
8.70964e+06	129.237
8.75992e+06	129.238
8.81049e+06	129.24
8.86135e+06	129.241
8.91251e+06	129.242
8.96396e+06	129.244
9.01571e+06	129.245
9.06776e+06	129.246
9.12011e+06	129.248
9.17276e+06	129.249
9.22571e+06	129.25
9.27897e+06	129.252
9.33254e+06	129.253
9.38642e+06	129.254
9.44061e+06	129.255
9.49511e+06	129.257
9.54993e+06	129.258
9.60506e+06	129.259
9.66051e+06	129.26
9.71628e+06	129.261
9.77237e+06	129.262
9.82879e+06	129.264
9.88553e+06	129.265
9.9426e+06	129.266
1e+07	129.267
