Stopping power dEdx from Ionisation for kaon+ Z = 0 in G4_TISSUE_SOFT_ICRP, process name: hIoni
E [MeV]	dEdx [MeV/mm]
0.001	23.8164
0.00100577	23.8851
0.00101158	23.9539
0.00101742	24.023
0.00102329	24.0922
0.0010292	24.1617
0.00103514	24.2313
0.00104112	24.3012
0.00104713	24.3712
0.00105317	24.4415
0.00105925	24.5119
0.00106537	24.5826
0.00107152	24.6534
0.00107771	24.7245
0.00108393	24.7957
0.00109018	24.8672
0.00109648	24.9389
0.00110281	25.0108
0.00110917	25.0829
0.00111558	25.1552
0.00112202	25.2277
0.0011285	25.3004
0.00113501	25.3733
0.00114156	25.4464
0.00114815	25.5198
0.00115478	25.5933
0.00116145	25.6671
0.00116815	25.7411
0.0011749	25.8153
0.00118168	25.8897
0.0011885	25.9643
0.00119536	26.0392
0.00120226	26.1142
0.00120921	26.1895
0.00121619	26.265
0.00122321	26.3407
0.00123027	26.4166
0.00123737	26.4927
0.00124451	26.5691
0.0012517	26.6457
0.00125893	26.7225
0.00126619	26.7995
0.0012735	26.8768
0.00128086	26.9542
0.00128825	27.0319
0.00129569	27.1098
0.00130317	27.188
0.00131069	27.2663
0.00131826	27.3449
0.00132587	27.4238
0.00133352	27.5028
0.00134122	27.5821
0.00134896	27.6616
0.00135675	27.7413
0.00136458	27.8213
0.00137246	27.9015
0.00138038	27.9819
0.00138835	28.0625
0.00139637	28.1434
0.00140443	28.2245
0.00141254	28.3059
0.00142069	28.3875
0.00142889	28.4693
0.00143714	28.5514
0.00144544	28.6337
0.00145378	28.7162
0.00146218	28.799
0.00147062	28.882
0.00147911	28.9652
0.00148765	29.0487
0.00149624	29.1324
0.00150487	29.2164
0.00151356	29.3006
0.0015223	29.3851
0.00153109	29.4698
0.00153993	29.5547
0.00154882	29.6399
0.00155776	29.7253
0.00156675	29.811
0.0015758	29.897
0.00158489	29.9831
0.00159404	30.0696
0.00160325	30.1562
0.0016125	30.2431
0.00162181	30.3303
0.00163117	30.4177
0.00164059	30.5054
0.00165006	30.5933
0.00165959	30.6815
0.00166917	30.77
0.0016788	30.8587
0.0016885	30.9476
0.00169824	31.0368
0.00170805	31.1263
0.00171791	31.216
0.00172783	31.306
0.0017378	31.3962
0.00174783	31.4867
0.00175792	31.5774
0.00176807	31.6685
0.00177828	31.7597
0.00178855	31.8513
0.00179887	31.9431
0.00180926	32.0352
0.0018197	32.1275
0.00183021	32.2201
0.00184077	32.313
0.0018514	32.4061
0.00186209	32.4995
0.00187284	32.5932
0.00188365	32.6871
0.00189452	32.7814
0.00190546	32.8758
0.00191646	32.9706
0.00192752	33.0656
0.00193865	33.161
0.00194984	33.2565
0.0019611	33.3524
0.00197242	33.4485
0.00198381	33.5449
0.00199526	33.6416
0.00200678	33.7386
0.00201837	33.8358
0.00203002	33.9334
0.00204174	34.0312
0.00205353	34.1293
0.00206538	34.2276
0.0020773	34.3263
0.0020893	34.4252
0.00210136	34.5245
0.00211349	34.624
0.00212569	34.7238
0.00213796	34.8239
0.0021503	34.9242
0.00216272	35.0249
0.0021752	35.1259
0.00218776	35.2271
0.00220039	35.3286
0.00221309	35.4305
0.00222587	35.5326
0.00223872	35.635
0.00225165	35.7377
0.00226464	35.8407
0.00227772	35.944
0.00229087	36.0477
0.00230409	36.1516
0.00231739	36.2558
0.00233077	36.3603
0.00234423	36.4651
0.00235776	36.5702
0.00237137	36.6756
0.00238506	36.7813
0.00239883	36.8873
0.00241268	36.9936
0.00242661	37.1003
0.00244062	37.2072
0.00245471	37.3144
0.00246888	37.422
0.00248313	37.5299
0.00249747	37.638
0.00251189	37.7465
0.00252639	37.8553
0.00254097	37.9644
0.00255564	38.0739
0.0025704	38.1836
0.00258523	38.2937
0.00260016	38.404
0.00261517	38.5147
0.00263027	38.6258
0.00264545	38.7371
0.00266073	38.8487
0.00267609	38.9607
0.00269153	39.073
0.00270707	39.1856
0.0027227	39.2986
0.00273842	39.4119
0.00275423	39.5255
0.00277013	39.6394
0.00278612	39.7536
0.00280221	39.8682
0.00281838	39.9831
0.00283465	40.0984
0.00285102	40.214
0.00286748	40.3299
0.00288403	40.4461
0.00290068	40.5627
0.00291743	40.6796
0.00293427	40.7969
0.00295121	40.9145
0.00296825	41.0324
0.00298538	41.1507
0.00300262	41.2693
0.00301995	41.3882
0.00303739	41.5075
0.00305492	41.6272
0.00307256	41.7472
0.0030903	41.8675
0.00310814	41.9882
0.00312608	42.1092
0.00314413	42.2306
0.00316228	42.3523
0.00318053	42.4744
0.0031989	42.5968
0.00321736	42.7196
0.00323594	42.8427
0.00325462	42.9662
0.00327341	43.09
0.0032923	43.2142
0.00331131	43.3388
0.00333043	43.4637
0.00334965	43.589
0.00336899	43.7146
0.00338844	43.8406
0.003408	43.967
0.00342768	44.0937
0.00344747	44.2208
0.00346737	44.3483
0.00348739	44.4761
0.00350752	44.6043
0.00352777	44.7329
0.00354813	44.8618
0.00356862	44.9911
0.00358922	45.1208
0.00360994	45.2509
0.00363078	45.3813
0.00365174	45.5121
0.00367282	45.6433
0.00369403	45.7749
0.00371535	45.9068
0.0037368	46.0391
0.00375837	46.1718
0.00378007	46.3049
0.00380189	46.4384
0.00382384	46.5722
0.00384592	46.7065
0.00386812	46.8411
0.00389045	46.9761
0.00391291	47.1115
0.0039355	47.2473
0.00395822	47.3835
0.00398107	47.5201
0.00400405	47.657
0.00402717	47.7944
0.00405042	47.9322
0.0040738	48.0703
0.00409732	48.2089
0.00412098	48.3478
0.00414477	48.4872
0.00416869	48.6269
0.00419276	48.7671
0.00421697	48.9077
0.00424131	49.0486
0.0042658	49.19
0.00429042	49.3318
0.00431519	49.474
0.0043401	49.6166
0.00436516	49.7596
0.00439036	49.903
0.0044157	50.0469
0.0044412	50.1911
0.00446684	50.3358
0.00449262	50.4809
0.00451856	50.6264
0.00454465	50.7723
0.00457088	50.9187
0.00459727	51.0654
0.00462381	51.2126
0.0046505	51.3602
0.00467735	51.5083
0.00470435	51.6567
0.00473151	51.8056
0.00475883	51.955
0.0047863	52.1047
0.00481393	52.2549
0.00484172	52.4055
0.00486968	52.5566
0.00489779	52.7081
0.00492606	52.86
0.0049545	53.0123
0.0049831	53.1651
0.00501187	53.3184
0.00504081	53.4721
0.00506991	53.6262
0.00509918	53.7808
0.00512861	53.9358
0.00515822	54.0912
0.005188	54.2472
0.00521795	54.4035
0.00524807	54.5603
0.00527837	54.7176
0.00530884	54.8693
0.00533949	55.0069
0.00537032	55.1447
0.00540132	55.2829
0.0054325	55.4213
0.00546387	55.56
0.00549541	55.699
0.00552713	55.8383
0.00555904	55.9778
0.00559114	56.1176
0.00562341	56.2577
0.00565588	56.3981
0.00568853	56.5388
0.00572137	56.6797
0.0057544	56.8209
0.00578762	56.9624
0.00582103	57.1042
0.00585464	57.2463
0.00588844	57.3886
0.00592243	57.5312
0.00595662	57.6741
0.00599101	57.8172
0.0060256	57.9607
0.00606038	58.1044
0.00609537	58.2484
0.00613056	58.3926
0.00616595	58.5371
0.00620155	58.6819
0.00623735	58.827
0.00627336	58.9724
0.00630957	59.118
0.006346	59.2639
0.00638263	59.41
0.00641948	59.5564
0.00645654	59.7031
0.00649382	59.8501
0.00653131	59.9973
0.00656901	60.1448
0.00660693	60.2926
0.00664508	60.4406
0.00668344	60.5889
0.00672202	60.7375
0.00676083	60.8863
0.00679986	61.0354
0.00683912	61.1847
0.0068786	61.3344
0.00691831	61.4842
0.00695825	61.6344
0.00699842	61.7847
0.00703882	61.9354
0.00707946	62.0863
0.00712033	62.2375
0.00716143	62.3889
0.00720278	62.5406
0.00724436	62.6925
0.00728618	62.8447
0.00732825	62.9971
0.00737055	63.1498
0.0074131	63.3027
0.0074559	63.4559
0.00749894	63.6093
0.00754223	63.763
0.00758578	63.9169
0.00762957	64.0711
0.00767361	64.2255
0.00771792	64.3801
0.00776247	64.535
0.00780728	64.6901
0.00785236	64.8455
0.00789769	65.0011
0.00794328	65.157
0.00798914	65.313
0.00803526	65.4694
0.00808165	65.6259
0.00812831	65.7827
0.00817523	65.9397
0.00822243	66.0969
0.0082699	66.2544
0.00831764	66.412
0.00836566	66.57
0.00841395	66.7281
0.00846253	66.8864
0.00851138	67.045
0.00856052	67.2038
0.00860994	67.3628
0.00865964	67.522
0.00870964	67.6814
0.00875992	67.8411
0.00881049	68.0009
0.00886135	68.161
0.00891251	68.3213
0.00896396	68.4817
0.00901571	68.6424
0.00906776	68.8033
0.00912011	68.9643
0.00917276	69.1256
0.00922571	69.2871
0.00927897	69.4487
0.00933254	69.6106
0.00938642	69.7726
0.00944061	69.9348
0.00949511	70.0972
0.00954993	70.2598
0.00960506	70.4226
0.00966051	70.5856
0.00971628	70.7487
0.00977237	70.912
0.00982879	71.0755
0.00988553	71.2391
0.0099426	71.4029
0.01	71.5669
0.0100577	71.731
0.0101158	71.8953
0.0101742	72.0598
0.0102329	72.2244
0.010292	72.3892
0.0103514	72.5541
0.0104112	72.7191
0.0104713	72.8843
0.0105317	73.0497
0.0105925	73.2152
0.0106537	73.3808
0.0107152	73.5466
0.0107771	73.7125
0.0108393	73.8785
0.0109018	74.0447
0.0109648	74.2109
0.0110281	74.3773
0.0110917	74.5439
0.0111558	74.7105
0.0112202	74.8772
0.011285	75.0441
0.0113501	75.211
0.0114156	75.3781
0.0114815	75.5453
0.0115478	75.7125
0.0116145	75.8799
0.0116815	76.0473
0.011749	76.2148
0.0118168	76.3824
0.011885	76.5501
0.0119536	76.7179
0.0120226	76.8857
0.0120921	77.0536
0.0121619	77.2216
0.0122321	77.3897
0.0123027	77.5578
0.0123737	77.7259
0.0124451	77.8941
0.012517	78.0624
0.0125893	78.2307
0.0126619	78.399
0.012735	78.5674
0.0128086	78.7358
0.0128825	78.9042
0.0129569	79.0727
0.0130317	79.2412
0.0131069	79.4097
0.0131826	79.5782
0.0132587	79.7467
0.0133352	79.9152
0.0134122	80.0838
0.0134896	80.2523
0.0135675	80.4208
0.0136458	80.5893
0.0137246	80.7578
0.0138038	80.9262
0.0138835	81.0947
0.0139637	81.2631
0.0140443	81.4315
0.0141254	81.5998
0.0142069	81.7681
0.0142889	81.9363
0.0143714	82.1045
0.0144544	82.2727
0.0145378	82.4407
0.0146218	82.6087
0.0147062	82.7767
0.0147911	82.9445
0.0148765	83.1123
0.0149624	83.28
0.0150487	83.4476
0.0151356	83.6151
0.015223	83.7825
0.0153109	83.9497
0.0153993	84.1169
0.0154882	84.284
0.0155776	84.4509
0.0156675	84.6177
0.015758	84.7844
0.0158489	84.9509
0.0159404	85.1173
0.0160325	85.2835
0.016125	85.4496
0.0162181	85.6155
0.0163117	85.7813
0.0164059	85.9468
0.0165006	86.1122
0.0165959	86.2774
0.0166917	86.4425
0.016788	86.6073
0.016885	86.7719
0.0169824	86.9363
0.0170805	87.1005
0.0171791	87.2645
0.0172783	87.4283
0.017378	87.5918
0.0174783	87.7551
0.0175792	87.9181
0.0176807	88.0809
0.0177828	88.2435
0.0178855	88.4057
0.0179887	88.5677
0.0180926	88.7295
0.018197	88.8909
0.0183021	89.0521
0.0184077	89.2129
0.018514	89.3735
0.0186209	89.5337
0.0187284	89.6937
0.0188365	89.8533
0.0189452	90.0125
0.0190546	90.1715
0.0191646	90.3301
0.0192752	90.4884
0.0193865	90.6463
0.0194984	90.8038
0.019611	90.961
0.0197242	91.1177
0.0198381	91.2742
0.0199526	91.4302
0.0200678	91.5858
0.0201837	91.741
0.0203002	91.8958
0.0204174	92.0502
0.0205353	92.2042
0.0206538	92.3577
0.020773	92.5108
0.020893	92.6634
0.0210136	92.8156
0.0211349	92.9673
0.0212569	93.1098
0.0213796	93.2419
0.021503	93.3733
0.0216272	93.504
0.021752	93.6339
0.0218776	93.7631
0.0220039	93.8916
0.0221309	94.0194
0.0222587	94.1464
0.0223872	94.2726
0.0225165	94.398
0.0226464	94.5227
0.0227772	94.6465
0.0229087	94.7696
0.0230409	94.8918
0.0231739	95.0132
0.0233077	95.1338
0.0234423	95.2536
0.0235776	95.3724
0.0237137	95.4904
0.0238506	95.6076
0.0239883	95.7238
0.0241268	95.8392
0.0242661	95.9536
0.0244062	96.0671
0.0245471	96.1797
0.0246888	96.2914
0.0248313	96.4021
0.0249747	96.5119
0.0251189	96.6206
0.0252639	96.7285
0.0254097	96.8353
0.0255564	96.9411
0.025704	97.0459
0.0258523	97.1497
0.0260016	97.2525
0.0261517	97.3542
0.0263027	97.4549
0.0264545	97.5545
0.0266073	97.653
0.0267609	97.7505
0.0269153	97.8469
0.0270707	97.9421
0.027227	98.0363
0.0273842	98.1293
0.0275423	98.2212
0.0277013	98.3119
0.0278612	98.4015
0.0280221	98.49
0.0281838	98.5772
0.0283465	98.6633
0.0285102	98.7482
0.0286748	98.8318
0.0288403	98.9143
0.0290068	98.9955
0.0291743	99.0755
0.0293427	99.1542
0.0295121	99.2317
0.0296825	99.3079
0.0298538	99.3829
0.0300262	99.4565
0.0301995	99.5289
0.0303739	99.5999
0.0305492	99.6696
0.0307256	99.738
0.030903	99.8051
0.0310814	99.8708
0.0312608	99.9352
0.0314413	99.9981
0.0316228	100.06
0.0318053	100.12
0.031989	100.179
0.0321736	100.236
0.0323594	100.292
0.0325462	100.347
0.0327341	100.4
0.032923	100.452
0.0331131	100.502
0.0333043	100.551
0.0334965	100.598
0.0336899	100.644
0.0338844	100.688
0.03408	100.731
0.0342768	100.772
0.0344747	100.812
0.0346737	100.85
0.0348739	100.887
0.0350752	100.922
0.0352777	100.956
0.0354813	100.988
0.0356862	101.019
0.0358922	101.047
0.0360994	101.075
0.0363078	101.101
0.0365174	101.125
0.0367282	101.147
0.0369403	101.168
0.0371535	101.188
0.037368	101.205
0.0375837	101.221
0.0378007	101.236
0.0380189	101.248
0.0382384	101.259
0.0384592	101.269
0.0386812	101.277
0.0389045	101.283
0.0391291	101.287
0.039355	101.29
0.0395822	101.291
0.0398107	101.29
0.0400405	101.287
0.0402717	101.283
0.0405042	101.277
0.040738	101.27
0.0409732	101.26
0.0412098	101.249
0.0414477	101.236
0.0416869	101.222
0.0419276	101.205
0.0421697	101.187
0.0424131	101.167
0.042658	101.145
0.0429042	101.122
0.0431519	101.097
0.043401	101.07
0.0436516	101.041
0.0439036	101.01
0.044157	100.978
0.044412	100.944
0.0446684	100.908
0.0449262	100.87
0.0451856	100.83
0.0454465	100.789
0.0457088	100.745
0.0459727	100.7
0.0462381	100.654
0.046505	100.605
0.0467735	100.554
0.0470435	100.502
0.0473151	100.448
0.0475883	100.392
0.047863	100.334
0.0481393	100.274
0.0484172	100.213
0.0486968	100.149
0.0489779	100.084
0.0492606	100.017
0.049545	99.9483
0.049831	99.8776
0.0501187	99.8051
0.0504081	99.7308
0.0506991	99.6546
0.0509918	99.5767
0.0512861	99.4969
0.0515822	99.4152
0.05188	99.3318
0.0521795	99.2465
0.0524807	99.1594
0.0527837	99.0705
0.0530884	98.9798
0.0533949	98.8872
0.0537032	98.7929
0.0540132	98.6967
0.054325	98.5988
0.0546387	98.499
0.0549541	98.3975
0.0552713	98.2941
0.0555904	98.189
0.0559114	98.0821
0.0562341	97.9734
0.0565588	97.863
0.0568853	97.7507
0.0572137	97.6367
0.057544	97.521
0.0578762	97.4035
0.0582103	97.2843
0.0585464	97.1633
0.0588844	97.0406
0.0592243	96.9162
0.0595662	96.79
0.0599101	96.6621
0.060256	96.5326
0.0606038	96.4013
0.0609537	96.2683
0.0613056	96.1337
0.0616595	95.9974
0.0620155	95.8594
0.0623735	95.7198
0.0627336	95.5785
0.0630957	95.4356
0.06346	95.291
0.0638263	95.1448
0.0641948	94.997
0.0645654	94.8476
0.0649382	94.6967
0.0653131	94.5441
0.0656901	94.39
0.0660693	94.2343
0.0664508	94.077
0.0668344	93.9182
0.0672202	93.7579
0.0676083	93.5961
0.0679986	93.4327
0.0683912	93.2679
0.068786	93.1016
0.0691831	92.9338
0.0695825	92.7645
0.0699842	92.5938
0.0703882	92.4217
0.0707946	92.2481
0.0712033	92.0732
0.0716143	91.8968
0.0720278	91.7191
0.0724436	91.5399
0.0728618	91.3595
0.0732825	91.1777
0.0737055	90.9945
0.074131	90.8101
0.074559	90.6243
0.0749894	90.4373
0.0754223	90.2489
0.0758578	90.0594
0.0762957	89.8685
0.0767361	89.6765
0.0771792	89.4832
0.0776247	89.2888
0.0780728	89.0931
0.0785236	88.8963
0.0789769	88.6984
0.0794328	88.4992
0.0798914	88.299
0.0803526	88.0977
0.0808165	87.8953
0.0812831	87.6918
0.0817523	87.4872
0.0822243	87.2816
0.082699	87.075
0.0831764	86.8673
0.0836566	86.6587
0.0841395	86.4491
0.0846253	86.2385
0.0851138	86.0269
0.0856052	85.8145
0.0860994	85.6011
0.0865964	85.3869
0.0870964	85.1717
0.0875992	84.9557
0.0881049	84.7389
0.0886135	84.5212
0.0891251	84.3027
0.0896396	84.0834
0.0901571	83.8633
0.0906776	83.6425
0.0912011	83.4209
0.0917276	83.1987
0.0922571	82.9756
0.0927897	82.7519
0.0933254	82.5276
0.0938642	82.3025
0.0944061	82.0769
0.0949511	81.8506
0.0954993	81.6236
0.0960506	81.3961
0.0966051	81.1681
0.0971628	80.9394
0.0977237	80.7103
0.0982879	80.4806
0.0988553	80.2504
0.099426	80.0197
0.1	79.7885
0.100577	79.5569
0.101158	79.3249
0.101742	79.0924
0.102329	78.8595
0.10292	78.6262
0.103514	78.3926
0.104112	78.1586
0.104713	77.9243
0.105317	77.6896
0.105925	77.4546
0.106537	77.2194
0.107152	76.9838
0.107771	76.7481
0.108393	76.512
0.109018	76.2758
0.109648	76.0393
0.110281	75.8026
0.110917	75.5658
0.111558	75.3288
0.112202	75.0916
0.11285	74.8544
0.113501	74.6169
0.114156	74.3794
0.114815	74.1418
0.115478	73.9042
0.116145	73.6664
0.116815	73.4287
0.11749	73.1909
0.118168	72.9531
0.11885	72.7152
0.119536	72.4774
0.120226	72.2397
0.120921	72.0019
0.121619	71.7642
0.122321	71.5266
0.123027	71.2891
0.123737	71.0517
0.124451	70.8143
0.12517	70.5771
0.125893	70.3401
0.126619	70.1031
0.12735	69.8664
0.128086	69.6298
0.128825	69.3934
0.129569	69.1572
0.130317	68.9212
0.131069	68.6854
0.131826	68.4498
0.132587	68.2145
0.133352	67.9794
0.134122	67.7446
0.134896	67.5101
0.135675	67.2759
0.136458	67.042
0.137246	66.8083
0.138038	66.575
0.138835	66.3421
0.139637	66.1094
0.140443	65.8771
0.141254	65.6452
0.142069	65.4136
0.142889	65.1825
0.143714	64.9517
0.144544	64.7213
0.145378	64.4913
0.146218	64.2617
0.147062	64.0325
0.147911	63.8038
0.148765	63.5755
0.149624	63.3476
0.150487	63.1202
0.151356	62.8933
0.15223	62.6668
0.153109	62.4408
0.153993	62.2153
0.154882	61.9903
0.155776	61.7658
0.156675	61.5418
0.15758	61.3183
0.158489	61.0953
0.159404	60.8728
0.160325	60.6509
0.16125	60.4295
0.162181	60.2087
0.163117	59.9884
0.164059	59.7686
0.165006	59.5494
0.165959	59.3308
0.166917	59.1127
0.16788	58.8952
0.16885	58.6783
0.169824	58.462
0.170805	58.2462
0.171791	58.0311
0.172783	57.8165
0.17378	57.6026
0.174783	57.3892
0.175792	57.1765
0.176807	56.9643
0.177828	56.7528
0.178855	56.5419
0.179887	56.3316
0.180926	56.122
0.18197	55.9129
0.183021	55.7045
0.184077	55.4968
0.18514	55.2896
0.186209	55.0831
0.187284	54.8773
0.188365	54.6721
0.189452	54.4675
0.190546	54.2636
0.191646	54.0603
0.192752	53.8576
0.193865	53.6557
0.194984	53.4543
0.19611	53.2537
0.197242	53.0536
0.198381	52.8543
0.199526	52.6556
0.200678	52.4575
0.201837	52.2601
0.203002	52.0634
0.204174	51.8673
0.205353	51.6719
0.206538	51.4772
0.20773	51.2831
0.20893	51.0897
0.210136	50.8969
0.211349	50.7048
0.212569	50.5134
0.213796	50.3226
0.21503	50.1325
0.216272	49.9431
0.21752	49.7543
0.218776	49.5662
0.220039	49.3787
0.221309	49.1919
0.222587	49.0058
0.223872	48.8203
0.225165	48.6355
0.226464	48.4514
0.227772	48.2679
0.229087	48.085
0.230409	47.9028
0.231739	47.7213
0.233077	47.5404
0.234423	47.3602
0.235776	47.1806
0.237137	47.0017
0.238506	46.8234
0.239883	46.6458
0.241268	46.4688
0.242661	46.2925
0.244062	46.1168
0.245471	45.9418
0.246888	45.7673
0.248313	45.5936
0.249747	45.4204
0.251189	45.2479
0.252639	45.0761
0.254097	44.9049
0.255564	44.7343
0.25704	44.5643
0.258523	44.3949
0.260016	44.2262
0.261517	44.0581
0.263027	43.8906
0.264545	43.7238
0.266073	43.5575
0.267609	43.3919
0.269153	43.2269
0.270707	43.0625
0.27227	42.8987
0.273842	42.7355
0.275423	42.5729
0.277013	42.4109
0.278612	42.2496
0.280221	42.0888
0.281838	41.9286
0.283465	41.769
0.285102	41.61
0.286748	41.4516
0.288403	41.2937
0.290068	41.1365
0.291743	40.9798
0.293427	40.8237
0.295121	40.6682
0.296825	40.5133
0.298538	40.3589
0.300262	40.2051
0.301995	40.0519
0.303739	39.8993
0.305492	39.7472
0.307256	39.5956
0.30903	39.4447
0.310814	39.2943
0.312608	39.1444
0.314413	38.9951
0.316228	38.8463
0.318053	38.6981
0.31989	38.5504
0.321736	38.4033
0.323594	38.2567
0.325462	38.1107
0.327341	37.9651
0.32923	37.8202
0.331131	37.6757
0.333043	37.5318
0.334965	37.3884
0.336899	37.2455
0.338844	37.1031
0.3408	36.9613
0.342768	36.82
0.344747	36.6792
0.346737	36.5389
0.348739	36.3991
0.350752	36.2598
0.352777	36.121
0.354813	35.9827
0.356862	35.845
0.358922	35.7077
0.360994	35.5709
0.363078	35.4346
0.365174	35.2988
0.367282	35.1635
0.369403	35.0287
0.371535	34.8944
0.37368	34.7605
0.375837	34.6271
0.378007	34.4942
0.380189	34.3618
0.382384	34.2299
0.384592	34.0984
0.386812	33.9674
0.389045	33.8368
0.391291	33.7068
0.39355	33.5772
0.395822	33.448
0.398107	33.3193
0.400405	33.1911
0.402717	33.0633
0.405042	32.936
0.40738	32.8091
0.409732	32.6827
0.412098	32.5567
0.414477	32.4312
0.416869	32.3061
0.419276	32.1815
0.421697	32.0573
0.424131	31.9335
0.42658	31.8102
0.429042	31.6873
0.431519	31.5648
0.43401	31.4427
0.436516	31.3211
0.439036	31.2
0.44157	31.0792
0.44412	30.9589
0.446684	30.8389
0.449262	30.7194
0.451856	30.6004
0.454465	30.4817
0.457088	30.3635
0.459727	30.2456
0.462381	30.1282
0.46505	30.0112
0.467735	29.8946
0.470435	29.7784
0.473151	29.6626
0.475883	29.5472
0.47863	29.4322
0.481393	29.3176
0.484172	29.2034
0.486968	29.0895
0.489779	28.9761
0.492606	28.8631
0.49545	28.7505
0.49831	28.6382
0.501187	28.5264
0.504081	28.4149
0.506991	28.3039
0.509918	28.1932
0.512861	28.0828
0.515822	27.9729
0.5188	27.8634
0.521795	27.7542
0.524807	27.6454
0.527837	27.537
0.530884	27.4289
0.533949	27.3212
0.537032	27.2139
0.540132	27.107
0.54325	27.0004
0.546387	26.8942
0.549541	26.7884
0.552713	26.6829
0.555904	26.5778
0.559114	26.473
0.562341	26.3686
0.565588	26.2646
0.568853	26.1609
0.572137	26.0576
0.57544	25.9546
0.578762	25.852
0.582103	25.7498
0.585464	25.6479
0.588844	25.5463
0.592243	25.4451
0.595662	25.3442
0.599101	25.2437
0.60256	25.1436
0.606038	25.0437
0.609537	24.9443
0.613056	24.8451
0.616595	24.7463
0.620155	24.6479
0.623735	24.5497
0.627336	24.452
0.630957	24.3545
0.6346	24.2574
0.638263	24.1606
0.641948	24.0642
0.645654	23.9681
0.649382	23.8723
0.653131	23.7768
0.656901	23.6817
0.660693	23.5869
0.664508	23.4924
0.668344	23.3983
0.672202	23.3045
0.676083	23.211
0.679986	23.1178
0.683912	23.025
0.68786	22.9324
0.691831	22.8402
0.695825	22.7483
0.699842	22.6568
0.703882	22.5655
0.707946	22.4746
0.712033	22.3839
0.716143	22.2936
0.720278	22.2036
0.724436	22.1139
0.728618	22.0246
0.732825	21.9355
0.737055	21.8467
0.74131	21.7583
0.74559	21.6701
0.749894	21.5823
0.754223	21.4948
0.758578	21.4075
0.762957	21.3206
0.767361	21.234
0.771792	21.1477
0.776247	21.0617
0.780728	20.9759
0.785236	20.8905
0.789769	20.8054
0.794328	20.7206
0.798914	20.6361
0.803526	20.5518
0.808165	20.4679
0.812831	20.3843
0.817523	20.3009
0.822243	20.2179
0.82699	20.1351
0.831764	20.0526
0.836566	19.9704
0.841395	19.8885
0.846253	19.8069
0.851138	19.7256
0.856052	19.6446
0.860994	19.5638
0.865964	19.4834
0.870964	19.4032
0.875992	19.3233
0.881049	19.2437
0.886135	19.1644
0.891251	19.0853
0.896396	19.0066
0.901571	18.9281
0.906776	18.8499
0.912011	18.772
0.917276	18.6943
0.922571	18.6169
0.927897	18.5398
0.933254	18.463
0.938642	18.3865
0.944061	18.3102
0.949511	18.2342
0.954993	18.1584
0.960506	18.083
0.966051	18.0078
0.971628	17.9329
0.977237	17.8582
0.982879	17.7838
0.988553	17.7097
0.99426	17.6359
1	17.5623
1.00577	17.489
1.01158	17.4159
1.01742	17.3431
1.02329	17.2706
1.0292	17.1983
1.03514	17.1263
1.04112	17.0546
1.04713	16.9831
1.05317	16.9114
1.05925	16.837
1.06537	16.7629
1.07152	16.6892
1.07771	16.6157
1.08393	16.5425
1.09018	16.4697
1.09648	16.3981
1.10281	16.3259
1.10917	16.2539
1.11558	16.1822
1.12202	16.1109
1.1285	16.0398
1.13501	15.969
1.14156	15.8985
1.14815	15.8283
1.15478	15.7584
1.16145	15.6887
1.16815	15.6194
1.1749	15.5524
1.18168	15.4836
1.1885	15.4157
1.19536	15.3475
1.20226	15.2796
1.20921	15.2119
1.21619	15.1446
1.22321	15.0775
1.23027	15.0106
1.23737	14.9441
1.24451	14.8779
1.2517	14.8119
1.25893	14.7462
1.26619	14.6807
1.2735	14.6156
1.28086	14.5507
1.28825	14.4945
1.29569	14.4301
1.30317	14.3659
1.31069	14.302
1.31826	14.2383
1.32587	14.1463
1.33352	14.0853
1.34122	14.022
1.34896	13.959
1.35675	13.8963
1.36458	13.8338
1.37246	13.7717
1.38038	13.7098
1.38835	13.6482
1.39637	13.5868
1.40443	13.5257
1.41254	13.4649
1.42069	13.4043
1.42889	13.344
1.43714	13.2839
1.44544	13.224
1.45378	13.1645
1.46218	13.1051
1.47062	13.0461
1.47911	12.9872
1.48765	12.9287
1.49624	12.8703
1.50487	12.8122
1.51356	12.7544
1.5223	12.6968
1.53109	12.6394
1.53993	12.5823
1.54882	12.5254
1.55776	12.4688
1.56675	12.4202
1.5758	12.364
1.58489	12.3081
1.59404	12.2523
1.60325	12.1968
1.6125	12.1416
1.62181	12.0866
1.63117	12.0318
1.64059	11.9772
1.65006	11.9229
1.65959	11.8688
1.66917	11.815
1.6788	11.7613
1.6885	11.7079
1.69824	11.6547
1.70805	11.6018
1.71791	11.5491
1.72783	11.4966
1.7378	11.4443
1.74783	11.3922
1.75792	11.3404
1.76807	11.2888
1.77828	11.2374
1.78855	11.1867
1.79887	11.1358
1.80926	11.0851
1.8197	11.0345
1.83021	10.9842
1.84077	10.9342
1.8514	10.8846
1.86209	10.8361
1.87284	10.7877
1.88365	10.7396
1.89452	10.6917
1.90546	10.6439
1.91646	10.5964
1.92752	10.549
1.93865	10.5018
1.94984	10.4548
1.9611	10.4081
1.97242	10.3615
1.98381	10.3151
1.99526	10.2688
2.00678	10.2228
2.01837	10.177
2.03002	10.1313
2.04174	10.0859
2.05353	10.0406
2.06538	9.99549
2.0773	9.95059
2.0893	9.90587
2.10136	9.86133
2.11349	9.81698
2.12569	9.77281
2.13796	9.72883
2.1503	9.68773
2.16272	9.64406
2.1752	9.60057
2.18776	9.55728
2.20039	9.51415
2.21309	9.4712
2.22587	9.42844
2.23872	9.38586
2.25165	9.34345
2.26464	9.30122
2.27772	9.25917
2.29087	9.21729
2.30409	9.17559
2.31739	9.13407
2.33077	9.09272
2.34423	9.05155
2.35776	9.01669
2.37137	8.97579
2.38506	8.93506
2.39883	8.89451
2.41268	8.85413
2.42661	8.81392
2.44062	8.77389
2.45471	8.73402
2.46888	8.69432
2.48313	8.65479
2.49747	8.61544
2.51189	8.57624
2.52639	8.53722
2.54097	8.49837
2.55564	8.45968
2.5704	8.42115
2.58523	8.38279
2.60016	8.3446
2.61517	8.30658
2.63027	8.26872
2.64545	8.23101
2.66073	8.19348
2.67609	8.1561
2.69153	8.11888
2.70707	8.08182
2.7227	8.04492
2.73842	8.00819
2.75423	7.97161
2.77013	7.93519
2.78612	7.89892
2.80221	7.86282
2.81838	7.82687
2.83465	7.79108
2.85102	7.75544
2.86748	7.71996
2.88403	7.68463
2.90068	7.64946
2.91743	7.61443
2.93427	7.57957
2.95121	7.54485
2.96825	7.51028
2.98538	7.47602
3.00262	7.44175
3.01995	7.40923
3.03739	7.37523
3.05492	7.34139
3.07256	7.30769
3.0903	7.27414
3.10814	7.24074
3.12608	7.20748
3.14413	7.17436
3.16228	7.1414
3.18053	7.10858
3.1989	7.0759
3.21736	7.04337
3.23594	7.01098
3.25462	6.97873
3.27341	6.94663
3.2923	6.91466
3.31131	6.88284
3.33043	6.85116
3.34965	6.81961
3.36899	6.78821
3.38844	6.75694
3.408	6.72581
3.42768	6.69482
3.44747	6.66397
3.46737	6.63325
3.48739	6.60267
3.50752	6.57223
3.52777	6.54192
3.54813	6.51174
3.56862	6.4817
3.58922	6.45179
3.60994	6.42202
3.63078	6.39237
3.65174	6.36286
3.67282	6.33348
3.69403	6.30423
3.71535	6.27511
3.7368	6.24613
3.75837	6.21727
3.78007	6.18853
3.80189	6.15993
3.82384	6.13145
3.84592	6.1031
3.86812	6.07488
3.89045	6.04678
3.91291	6.01881
3.9355	5.99096
3.95822	5.96517
3.98107	5.93753
4.00405	5.91002
4.02717	5.88264
4.05042	5.85537
4.0738	5.82823
4.09732	5.80121
4.12098	5.77431
4.14477	5.74753
4.16869	5.72087
4.19276	5.69442
4.21697	5.668
4.24131	5.6417
4.2658	5.61552
4.29042	5.58945
4.31519	5.5635
4.3401	5.53767
4.36516	5.51196
4.39036	5.48637
4.4157	5.46089
4.4412	5.43553
4.46684	5.41028
4.49262	5.38514
4.51856	5.36012
4.54465	5.33521
4.57088	5.31041
4.59727	5.28573
4.62381	5.26115
4.6505	5.23669
4.67735	5.21234
4.70435	5.18809
4.73151	5.16396
4.75883	5.13994
4.7863	5.11602
4.81393	5.09221
4.84172	5.06851
4.86968	5.04492
4.89779	5.02143
4.92606	4.99805
4.9545	4.97478
4.9831	4.95161
5.01187	4.92855
5.04081	4.90559
5.06991	4.88273
5.09918	4.85998
5.12861	4.83733
5.15822	4.81479
5.188	4.79234
5.21795	4.77
5.24807	4.74776
5.27837	4.72563
5.30884	4.70359
5.33949	4.68165
5.37032	4.65981
5.40132	4.63808
5.4325	4.61644
5.46387	4.5949
5.49541	4.57346
5.52713	4.55211
5.55904	4.53201
5.59114	4.51085
5.62341	4.48977
5.65588	4.4688
5.68853	4.44792
5.72137	4.42714
5.7544	4.40645
5.78762	4.38586
5.82103	4.36536
5.85464	4.34495
5.88844	4.32464
5.92243	4.30442
5.95662	4.2843
5.99101	4.26426
6.0256	4.24432
6.06038	4.22447
6.09537	4.20471
6.13056	4.18504
6.16595	4.16546
6.20155	4.14597
6.23735	4.12657
6.27336	4.10726
6.30957	4.08804
6.346	4.06891
6.38263	4.04987
6.41948	4.03091
6.45654	4.01204
6.49382	3.99326
6.53131	3.97456
6.56901	3.95595
6.60693	3.93743
6.64508	3.91899
6.68344	3.90064
6.72202	3.88237
6.76083	3.86419
6.79986	3.84609
6.83912	3.82807
6.8786	3.81014
6.91831	3.79229
6.95825	3.77452
6.99842	3.75683
7.03882	3.73923
7.07946	3.72171
7.12033	3.70427
7.16143	3.68691
7.20278	3.66963
7.24436	3.65243
7.28618	3.63531
7.32825	3.61827
7.37055	3.6013
7.4131	3.58442
7.4559	3.56762
7.49894	3.55089
7.54223	3.53424
7.58578	3.51767
7.62957	3.50118
7.67361	3.48476
7.71792	3.46842
7.76247	3.45215
7.80728	3.43596
7.85236	3.41985
7.89769	3.40381
7.94328	3.38784
7.98914	3.37195
8.03526	3.35614
8.08165	3.3404
8.12831	3.32474
8.17523	3.30915
8.22243	3.29363
8.2699	3.27818
8.31764	3.26281
8.36566	3.2475
8.41395	3.23227
8.46253	3.21711
8.51138	3.20202
8.56052	3.187
8.60994	3.17205
8.65964	3.15717
8.70964	3.14236
8.75992	3.12762
8.81049	3.11295
8.86135	3.09835
8.91251	3.08381
8.96396	3.06934
9.01571	3.05494
9.06776	3.04061
9.12011	3.02635
9.17276	3.01215
9.22571	2.99802
9.27897	2.98395
9.33254	2.96995
9.38642	2.95602
9.44061	2.94215
9.49511	2.92834
9.54993	2.9146
9.60506	2.90093
9.66051	2.88732
9.71628	2.87377
9.77237	2.86029
9.82879	2.84687
9.88553	2.83351
9.9426	2.82022
10	2.80699
10.0577	2.79382
10.1158	2.78071
10.1742	2.76767
10.2329	2.75468
10.292	2.74176
10.3514	2.7289
10.4112	2.71609
10.4713	2.70335
10.5317	2.69067
10.5925	2.67805
10.6537	2.66549
10.7152	2.65299
10.7771	2.64054
10.8393	2.62816
10.9018	2.61583
10.9648	2.60356
11.0281	2.59135
11.0917	2.5792
11.1558	2.5671
11.2202	2.55506
11.285	2.54308
11.3501	2.53116
11.4156	2.51929
11.4815	2.50748
11.5478	2.49572
11.6145	2.48402
11.6815	2.47238
11.749	2.46079
11.8168	2.44925
11.885	2.43777
11.9536	2.42635
12.0226	2.41497
12.0921	2.40366
12.1619	2.39239
12.2321	2.38118
12.3027	2.37002
12.3737	2.35892
12.4451	2.34787
12.517	2.33687
12.5893	2.32592
12.6619	2.31502
12.735	2.30418
12.8086	2.29339
12.8825	2.28265
12.9569	2.27196
13.0317	2.26132
13.1069	2.25073
13.1826	2.2402
13.2587	2.22971
13.3352	2.21927
13.4122	2.20888
13.4896	2.19854
13.5675	2.18825
13.6458	2.17801
13.7246	2.16782
13.8038	2.15768
13.8835	2.14759
13.9637	2.13754
14.0443	2.12755
14.1254	2.1176
14.2069	2.10769
14.2889	2.09784
14.3714	2.08803
14.4544	2.07827
14.5378	2.06856
14.6218	2.05889
14.7062	2.04927
14.7911	2.03969
14.8765	2.03016
14.9624	2.02068
15.0487	2.01124
15.1356	2.00185
15.223	1.9925
15.3109	1.9832
15.3993	1.97394
15.4882	1.96472
15.5776	1.95555
15.6675	1.94643
15.758	1.93734
15.8489	1.9283
15.9404	1.91931
16.0325	1.91035
16.125	1.90145
16.2181	1.89258
16.3117	1.88376
16.4059	1.87497
16.5006	1.86624
16.5959	1.85754
16.6917	1.84888
16.788	1.84027
16.885	1.8317
16.9824	1.82317
17.0805	1.81468
17.1791	1.80623
17.2783	1.79782
17.378	1.78945
17.4783	1.78113
17.5792	1.77284
17.6807	1.76459
17.7828	1.75639
17.8855	1.74822
17.9887	1.74009
18.0926	1.732
18.197	1.72395
18.3021	1.71594
18.4077	1.70797
18.514	1.70004
18.6209	1.69214
18.7284	1.68428
18.8365	1.67646
18.9452	1.66868
19.0546	1.66094
19.1646	1.65323
19.2752	1.64556
19.3865	1.63793
19.4984	1.63034
19.611	1.62278
19.7242	1.61526
19.8381	1.60777
19.9526	1.60033
20.0678	1.59291
20.1837	1.58554
20.3002	1.5782
20.4174	1.57089
20.5353	1.56362
20.6538	1.55639
20.773	1.54919
20.893	1.54202
21.0136	1.5349
21.1349	1.5278
21.2569	1.52074
21.3796	1.51372
21.503	1.50672
21.6272	1.49977
21.752	1.49284
21.8776	1.48595
22.0039	1.4791
22.1309	1.47227
22.2587	1.46548
22.3872	1.45873
22.5165	1.452
22.6464	1.44531
22.7772	1.43865
22.9087	1.43203
23.0409	1.42543
23.1739	1.41887
23.3077	1.41234
23.4423	1.40585
23.5776	1.39938
23.7137	1.39295
23.8506	1.38654
23.9883	1.38017
24.1268	1.37383
24.2661	1.36752
24.4062	1.36125
24.5471	1.355
24.6888	1.34878
24.8313	1.3426
24.9747	1.33644
25.1189	1.33031
25.2639	1.32422
25.4097	1.31815
25.5564	1.31212
25.704	1.30611
25.8523	1.30013
26.0016	1.29418
26.1517	1.28826
26.3027	1.28237
26.4545	1.27651
26.6073	1.27068
26.7609	1.26488
26.9153	1.2591
27.0707	1.25336
27.227	1.24764
27.3842	1.24195
27.5423	1.23629
27.7013	1.23065
27.8612	1.22505
28.0221	1.21947
28.1838	1.21392
28.3465	1.20839
28.5102	1.2029
28.6748	1.19743
28.8403	1.19198
29.0068	1.18657
29.1743	1.18118
29.3427	1.17581
29.5121	1.17048
29.6825	1.16517
29.8538	1.15988
30.0262	1.15463
30.1995	1.1494
30.3739	1.14419
30.5492	1.13901
30.7256	1.13386
30.903	1.12873
31.0814	1.12362
31.2608	1.11855
31.4413	1.11349
31.6228	1.10846
31.8053	1.10346
31.989	1.09848
32.1736	1.09353
32.3594	1.0886
32.5462	1.08369
32.7341	1.07881
32.923	1.07396
33.1131	1.06913
33.3043	1.06432
33.4965	1.05953
33.6899	1.05477
33.8844	1.05004
34.08	1.04532
34.2768	1.04063
34.4747	1.03597
34.6737	1.03132
34.8739	1.0267
35.0752	1.0221
35.2777	1.01753
35.4813	1.01298
35.6862	1.00845
35.8922	1.00394
36.0994	0.99946
36.3078	0.994998
36.5174	0.990558
36.7282	0.986141
36.9403	0.981746
37.1535	0.977373
37.368	0.973021
37.5837	0.968691
37.8007	0.964383
38.0189	0.960097
38.2384	0.955832
38.4592	0.951588
38.6812	0.947365
38.9045	0.943164
39.1291	0.938983
39.355	0.934823
39.5822	0.930685
39.8107	0.926567
40.0405	0.922469
40.2717	0.918392
40.5042	0.914336
40.738	0.9103
40.9732	0.906284
41.2098	0.902288
41.4477	0.898313
41.6869	0.894357
41.9276	0.890421
42.1697	0.886505
42.4131	0.882608
42.658	0.878732
42.9042	0.874874
43.1519	0.871036
43.401	0.867218
43.6516	0.863418
43.9036	0.859638
44.157	0.855877
44.412	0.852134
44.6684	0.848411
44.9262	0.844706
45.1856	0.84102
45.4465	0.837352
45.7088	0.833703
45.9727	0.830073
46.2381	0.826461
46.505	0.822867
46.7735	0.819291
47.0435	0.815733
47.3151	0.812193
47.5883	0.808671
47.863	0.805167
48.1393	0.801681
48.4172	0.798212
48.6968	0.794761
48.9779	0.791327
49.2606	0.787911
49.545	0.784512
49.831	0.78113
50.1187	0.777766
50.4081	0.774418
50.6991	0.771087
50.9918	0.767774
51.2861	0.764477
51.5822	0.761197
51.88	0.757933
52.1795	0.754687
52.4807	0.751456
52.7837	0.748242
53.0884	0.745045
53.3949	0.741864
53.7032	0.738699
54.0132	0.73555
54.325	0.732417
54.6387	0.7293
54.9541	0.726199
55.2713	0.723114
55.5904	0.720044
55.9114	0.71699
56.2341	0.713952
56.5588	0.710929
56.8853	0.707922
57.2137	0.70493
57.544	0.701954
57.8762	0.698992
58.2103	0.696046
58.5464	0.693115
58.8844	0.690199
59.2243	0.687298
59.5662	0.684411
59.9101	0.68154
60.256	0.678683
60.6038	0.675841
60.9537	0.673013
61.3056	0.6702
61.6595	0.667402
62.0155	0.664618
62.3735	0.661848
62.7336	0.659092
63.0957	0.656351
63.46	0.653623
63.8263	0.65091
64.1948	0.648211
64.5654	0.645525
64.9382	0.642854
65.3131	0.640196
65.6901	0.637552
66.0693	0.634922
66.4508	0.632305
66.8344	0.629702
67.2202	0.627112
67.6083	0.624535
67.9986	0.621972
68.3912	0.619422
68.786	0.616886
69.1831	0.614362
69.5825	0.611852
69.9842	0.609354
70.3882	0.60687
70.7946	0.604398
71.2033	0.601939
71.6143	0.599493
72.0278	0.59706
72.4436	0.594639
72.8618	0.592231
73.2825	0.589836
73.7055	0.587453
74.131	0.585082
74.559	0.582724
74.9894	0.580378
75.4223	0.578044
75.8578	0.575722
76.2957	0.573413
76.7361	0.571115
77.1792	0.56883
77.6247	0.566556
78.0728	0.564295
78.5236	0.562045
78.9769	0.559807
79.4328	0.557581
79.8914	0.555366
80.3526	0.553163
80.8165	0.550972
81.2831	0.548792
81.7523	0.546623
82.2243	0.544466
82.699	0.54232
83.1764	0.540186
83.6566	0.538062
84.1395	0.53595
84.6253	0.533849
85.1138	0.531759
85.6052	0.52968
86.0994	0.527612
86.5964	0.525555
87.0964	0.523509
87.5992	0.521474
88.1049	0.519449
88.6135	0.517435
89.1251	0.515432
89.6396	0.513439
90.1571	0.511457
90.6776	0.509486
91.2011	0.507524
91.7276	0.505574
92.2571	0.503633
92.7897	0.501703
93.3254	0.499783
93.8642	0.497874
94.4061	0.495974
94.9511	0.494085
95.4993	0.492206
96.0506	0.490336
96.6051	0.488477
97.1628	0.486628
97.7237	0.484788
98.2879	0.482959
98.8553	0.481139
99.426	0.479328
100	0.477528
100.577	0.475737
101.158	0.473956
101.742	0.472184
102.329	0.470422
102.92	0.468669
103.514	0.466926
104.112	0.465192
104.713	0.463467
105.317	0.461752
105.925	0.460046
106.537	0.458349
107.152	0.456661
107.771	0.454983
108.393	0.453313
109.018	0.451652
109.648	0.450001
110.281	0.448358
110.917	0.446724
111.558	0.4451
112.202	0.443484
112.85	0.441876
113.501	0.440278
114.156	0.438688
114.815	0.437106
115.478	0.435534
116.145	0.43397
116.815	0.432414
117.49	0.430867
118.168	0.429328
118.85	0.427798
119.536	0.426276
120.226	0.424763
120.921	0.423257
121.619	0.42176
122.321	0.420271
123.027	0.418791
123.737	0.417318
124.451	0.415854
125.17	0.414397
125.893	0.412949
126.619	0.411509
127.35	0.410076
128.086	0.408652
128.825	0.407235
129.569	0.405826
130.317	0.404425
131.069	0.403032
131.826	0.401646
132.587	0.400268
133.352	0.398898
134.122	0.397535
134.896	0.39618
135.675	0.394832
136.458	0.393492
137.246	0.39216
138.038	0.390835
138.835	0.389517
139.637	0.388206
140.443	0.386903
141.254	0.385608
142.069	0.384319
142.889	0.383038
143.714	0.381764
144.544	0.380497
145.378	0.379237
146.218	0.377984
147.062	0.376738
147.911	0.3755
148.765	0.374268
149.624	0.373043
150.487	0.371825
151.356	0.370614
152.23	0.36941
153.109	0.368213
153.993	0.367023
154.882	0.365839
155.776	0.364662
156.675	0.363492
157.58	0.362328
158.489	0.361171
159.404	0.360021
160.325	0.358877
161.25	0.35774
162.181	0.35661
163.117	0.355485
164.059	0.354368
165.006	0.353256
165.959	0.352151
166.917	0.351053
167.88	0.349961
168.85	0.348875
169.824	0.347795
170.805	0.346722
171.791	0.345655
172.783	0.344594
173.78	0.343539
174.783	0.34249
175.792	0.341447
176.807	0.340411
177.828	0.33938
178.855	0.338356
179.887	0.337337
180.926	0.336325
181.97	0.335318
183.021	0.334318
184.077	0.333323
185.14	0.332334
186.209	0.331351
187.284	0.330374
188.365	0.329402
189.452	0.328436
190.546	0.327476
191.646	0.326522
192.752	0.325573
193.865	0.32463
194.984	0.323693
196.11	0.322761
197.242	0.321834
198.381	0.320914
199.526	0.319998
200.678	0.319088
201.837	0.318184
203.002	0.317285
204.174	0.316392
205.353	0.315504
206.538	0.314621
207.73	0.313743
208.93	0.312871
210.136	0.312004
211.349	0.311143
212.569	0.310287
213.796	0.309435
215.03	0.30859
216.272	0.307749
217.52	0.306913
218.776	0.306083
220.039	0.305257
221.309	0.304437
222.587	0.303621
223.872	0.302811
225.165	0.302006
226.464	0.301206
227.772	0.30041
229.087	0.29962
230.409	0.298834
231.739	0.298054
233.077	0.297278
234.423	0.296507
235.776	0.295741
237.137	0.29498
238.506	0.294223
239.883	0.293471
241.268	0.292724
242.661	0.291982
244.062	0.291244
245.471	0.290511
246.888	0.289783
248.313	0.289059
249.747	0.28834
251.189	0.287625
252.639	0.286915
254.097	0.28621
255.564	0.285509
257.04	0.284813
258.523	0.284121
260.016	0.283433
261.517	0.28275
263.027	0.282072
264.545	0.281397
266.073	0.280728
267.609	0.280062
269.153	0.279401
270.707	0.278744
272.27	0.278091
273.842	0.277443
275.423	0.276799
277.013	0.276159
278.612	0.275524
280.221	0.274893
281.838	0.274265
283.465	0.273642
285.102	0.273024
286.748	0.272409
288.403	0.271798
290.068	0.271192
291.743	0.270589
293.427	0.269991
295.121	0.269396
296.825	0.268806
298.538	0.26822
300.262	0.267637
301.995	0.267059
303.739	0.266484
305.492	0.265914
307.256	0.265347
309.03	0.264784
310.814	0.264225
312.608	0.26367
314.413	0.263119
316.228	0.262572
318.053	0.262028
319.89	0.261488
321.736	0.260952
323.594	0.26042
325.462	0.259891
327.341	0.259366
329.23	0.258845
331.131	0.258328
333.043	0.257814
334.965	0.257304
336.899	0.256797
338.844	0.256295
340.8	0.255795
342.768	0.255299
344.747	0.254807
346.737	0.254319
348.739	0.253834
350.752	0.253352
352.777	0.252874
354.813	0.2524
356.862	0.251928
358.922	0.251461
360.994	0.250997
363.078	0.250536
365.174	0.250079
367.282	0.249625
369.403	0.249174
371.535	0.248727
373.68	0.248283
375.837	0.247843
378.007	0.247405
380.189	0.246971
382.384	0.246541
384.592	0.246114
386.812	0.245689
389.045	0.245269
391.291	0.244851
393.55	0.244437
395.822	0.244025
398.107	0.243617
400.405	0.243213
402.717	0.242811
405.042	0.242413
407.38	0.242017
409.732	0.241625
412.098	0.241236
414.477	0.24085
416.869	0.240467
419.276	0.240087
421.697	0.23971
424.131	0.239336
426.58	0.238965
429.042	0.238597
431.519	0.238232
434.01	0.237871
436.516	0.237512
439.036	0.237156
441.57	0.236803
444.12	0.236453
446.684	0.236105
449.262	0.235761
451.856	0.23542
454.465	0.235081
457.088	0.234746
459.727	0.234413
462.381	0.234083
465.05	0.233756
467.735	0.233431
470.435	0.23311
473.151	0.232791
475.883	0.232475
478.63	0.232162
481.393	0.231851
484.172	0.231544
486.968	0.231239
489.779	0.230936
492.606	0.230637
495.45	0.23034
498.31	0.230045
501.187	0.229754
504.081	0.229465
506.991	0.229179
509.918	0.228895
512.861	0.228604
515.822	0.2283
518.8	0.228
521.795	0.227701
524.807	0.227406
527.837	0.227112
530.884	0.226822
533.949	0.226534
537.032	0.226248
540.132	0.225965
543.25	0.225684
546.387	0.225405
549.541	0.225129
552.713	0.224856
555.904	0.224585
559.114	0.224316
562.341	0.22405
565.588	0.223786
568.853	0.223524
572.137	0.223265
575.44	0.223008
578.762	0.222753
582.103	0.222501
585.464	0.222251
588.844	0.222004
592.243	0.221758
595.662	0.221515
599.101	0.221274
602.56	0.221036
606.038	0.220799
609.537	0.220565
613.056	0.220333
616.595	0.220104
620.155	0.219876
623.735	0.219651
627.336	0.219428
630.957	0.219207
634.6	0.218988
638.263	0.218771
641.948	0.218556
645.654	0.218344
649.382	0.218134
653.131	0.217925
656.901	0.217719
660.693	0.217515
664.508	0.217313
668.344	0.217113
672.202	0.216915
676.083	0.216719
679.986	0.216526
683.912	0.216334
687.86	0.216144
691.831	0.215956
695.825	0.21577
699.842	0.215586
703.882	0.215405
707.946	0.215225
712.033	0.215047
716.143	0.214871
720.278	0.214696
724.436	0.214524
728.618	0.214354
732.825	0.214186
737.055	0.214019
741.31	0.213854
745.59	0.213692
749.894	0.213531
754.223	0.213372
758.578	0.213214
762.957	0.213059
767.361	0.212905
771.792	0.212754
776.247	0.212604
780.728	0.212455
785.236	0.212309
789.769	0.212164
794.328	0.212022
798.914	0.21188
803.526	0.211741
808.165	0.211603
812.831	0.211468
817.523	0.211333
822.243	0.211201
826.99	0.21107
831.764	0.210941
836.566	0.210814
841.395	0.210688
846.253	0.210564
851.138	0.210441
856.052	0.210321
860.994	0.210202
865.964	0.210084
870.964	0.209968
875.992	0.209854
881.049	0.209741
886.135	0.20963
891.251	0.209521
896.396	0.209413
901.571	0.209306
906.776	0.209202
912.011	0.209098
917.276	0.208997
922.571	0.208897
927.897	0.208798
933.254	0.208701
938.642	0.208605
944.061	0.208511
949.511	0.208419
954.993	0.208328
960.506	0.208238
966.051	0.20815
971.628	0.208063
977.237	0.207978
982.879	0.207894
988.553	0.207812
994.26	0.207731
1000	0.207651
1005.77	0.207573
1011.58	0.207496
1017.42	0.207421
1023.29	0.207347
1029.2	0.207274
1035.14	0.207203
1041.12	0.207133
1047.13	0.207065
1053.17	0.206998
1059.25	0.206932
1065.37	0.206868
1071.52	0.206804
1077.71	0.206743
1083.93	0.206682
1090.18	0.206623
1096.48	0.206565
1102.81	0.206509
1109.17	0.206453
1115.58	0.206399
1122.02	0.206346
1128.5	0.206295
1135.01	0.206245
1141.56	0.206196
1148.15	0.206148
1154.78	0.206101
1161.45	0.206056
1168.15	0.206012
1174.9	0.205969
1181.68	0.205927
1188.5	0.205887
1195.36	0.205847
1202.26	0.205809
1209.21	0.205772
1216.19	0.205736
1223.21	0.205702
1230.27	0.205668
1237.37	0.205636
1244.51	0.205604
1251.7	0.205574
1258.93	0.205545
1266.19	0.205517
1273.5	0.205491
1280.86	0.205465
1288.25	0.20544
1295.69	0.205417
1303.17	0.205395
1310.69	0.205373
1318.26	0.205353
1325.87	0.205334
1333.52	0.205316
1341.22	0.205299
1348.96	0.205283
1356.75	0.205268
1364.58	0.205254
1372.46	0.205241
1380.38	0.205229
1388.35	0.205218
1396.37	0.205208
1404.43	0.205199
1412.54	0.205191
1420.69	0.205184
1428.89	0.205178
1437.14	0.205173
1445.44	0.205169
1453.78	0.205166
1462.18	0.205164
1470.62	0.205162
1479.11	0.205162
1487.65	0.205163
1496.24	0.205165
1504.87	0.205167
1513.56	0.205171
1522.3	0.205175
1531.09	0.20518
1539.93	0.205186
1548.82	0.205193
1557.76	0.205201
1566.75	0.20521
1575.8	0.20522
1584.89	0.20523
1594.04	0.205242
1603.25	0.205254
1612.5	0.205267
1621.81	0.205281
1631.17	0.205296
1640.59	0.205312
1650.06	0.205328
1659.59	0.205345
1669.17	0.205364
1678.8	0.205383
1688.5	0.205402
1698.24	0.205423
1708.05	0.205444
1717.91	0.205466
1727.83	0.205489
1737.8	0.205513
1747.83	0.205537
1757.92	0.205563
1768.07	0.205589
1778.28	0.205615
1788.55	0.205643
1798.87	0.205671
1809.26	0.2057
1819.7	0.20573
1830.21	0.20576
1840.77	0.205791
1851.4	0.205823
1862.09	0.205856
1872.84	0.205889
1883.65	0.205923
1894.52	0.205958
1905.46	0.205993
1916.46	0.206029
1927.52	0.206066
1938.65	0.206104
1949.84	0.206142
1961.1	0.206181
1972.42	0.20622
1983.81	0.20626
1995.26	0.206301
2006.78	0.206343
2018.37	0.206385
2030.02	0.206427
2041.74	0.206471
2053.53	0.206515
2065.38	0.206559
2077.3	0.206605
2089.3	0.206651
2101.36	0.206697
2113.49	0.206744
2125.69	0.206792
2137.96	0.20684
2150.3	0.206889
2162.72	0.206938
2175.2	0.206988
2187.76	0.207039
2200.39	0.20709
2213.09	0.207142
2225.87	0.207194
2238.72	0.207247
2251.65	0.207301
2264.64	0.207355
2277.72	0.207409
2290.87	0.207464
2304.09	0.20752
2317.39	0.207576
2330.77	0.207633
2344.23	0.20769
2357.76	0.207748
2371.37	0.207806
2385.06	0.207865
2398.83	0.207925
2412.68	0.207984
2426.61	0.208045
2440.62	0.208106
2454.71	0.208167
2468.88	0.208229
2483.13	0.208291
2497.47	0.208354
2511.89	0.208417
2526.39	0.208481
2540.97	0.208545
2555.64	0.20861
2570.4	0.208675
2585.23	0.20874
2600.16	0.208806
2615.17	0.208873
2630.27	0.20894
2645.45	0.209007
2660.73	0.209075
2676.09	0.209144
2691.53	0.209212
2707.07	0.209281
2722.7	0.209351
2738.42	0.209421
2754.23	0.209491
2770.13	0.209562
2786.12	0.209633
2802.21	0.209705
2818.38	0.209777
2834.65	0.20985
2851.02	0.209922
2867.48	0.209996
2884.03	0.210069
2900.68	0.210143
2917.43	0.210218
2934.27	0.210293
2951.21	0.210368
2968.25	0.210443
2985.38	0.210519
3002.62	0.210596
3019.95	0.210672
3037.39	0.210749
3054.92	0.210827
3072.56	0.210904
3090.3	0.210982
3108.14	0.211061
3126.08	0.211139
3144.13	0.211219
3162.28	0.211298
3180.53	0.211378
3198.9	0.211458
3217.36	0.211538
3235.94	0.211619
3254.62	0.2117
3273.41	0.211782
3292.3	0.211863
3311.31	0.211945
3330.43	0.212028
3349.65	0.21211
3368.99	0.212193
3388.44	0.212277
3408	0.21236
3427.68	0.212444
3447.47	0.212528
3467.37	0.212613
3487.39	0.212697
3507.52	0.212782
3527.77	0.212868
3548.13	0.212953
3568.62	0.213039
3589.22	0.213125
3609.94	0.213212
3630.78	0.213298
3651.74	0.213385
3672.82	0.213472
3694.03	0.21356
3715.35	0.213648
3736.8	0.213736
3758.37	0.213824
3780.07	0.213912
3801.89	0.214001
3823.84	0.21409
3845.92	0.214179
3868.12	0.214269
3890.45	0.214358
3912.91	0.214448
3935.5	0.214538
3958.22	0.214629
3981.07	0.214719
4004.05	0.21481
4027.17	0.214901
4050.42	0.214993
4073.8	0.215084
4097.32	0.215176
4120.98	0.215268
4144.77	0.21536
4168.69	0.215452
4192.76	0.215545
4216.97	0.215638
4241.31	0.215731
4265.8	0.215824
4290.42	0.215917
4315.19	0.216011
4340.1	0.216104
4365.16	0.216198
4390.36	0.216293
4415.7	0.216387
4441.2	0.216481
4466.84	0.216576
4492.62	0.216671
4518.56	0.216766
4544.65	0.216861
4570.88	0.216957
4597.27	0.217052
4623.81	0.217148
4650.5	0.217244
4677.35	0.21734
4704.35	0.217436
4731.51	0.217533
4758.83	0.217629
4786.3	0.217726
4813.93	0.217823
4841.72	0.21792
4869.68	0.218017
4897.79	0.218115
4926.06	0.218212
4954.5	0.21831
4983.1	0.218408
5011.87	0.218506
5040.81	0.218604
5069.91	0.218702
5099.18	0.2188
5128.61	0.218899
5158.22	0.218997
5188	0.219096
5217.95	0.219195
5248.07	0.219294
5278.37	0.219393
5308.84	0.219493
5339.49	0.219592
5370.32	0.219692
5401.32	0.219791
5432.5	0.219891
5463.87	0.219991
5495.41	0.220091
5527.13	0.220191
5559.04	0.220291
5591.14	0.220392
5623.41	0.220492
5655.88	0.220593
5688.53	0.220694
5721.37	0.220794
5754.4	0.220895
5787.62	0.220996
5821.03	0.221097
5854.64	0.221199
5888.44	0.2213
5922.43	0.221401
5956.62	0.221503
5991.01	0.221605
6025.6	0.221706
6060.38	0.221808
6095.37	0.22191
6130.56	0.222012
6165.95	0.222114
6201.55	0.222216
6237.35	0.222318
6273.36	0.222421
6309.57	0.222523
6346	0.222626
6382.63	0.222728
6419.48	0.222831
6456.54	0.222934
6493.82	0.223036
6531.31	0.223139
6569.01	0.223242
6606.93	0.223345
6645.08	0.223448
6683.44	0.223551
6722.02	0.223655
6760.83	0.223758
6799.86	0.223861
6839.12	0.223965
6878.6	0.224068
6918.31	0.224172
6958.25	0.224275
6998.42	0.224379
7038.82	0.224483
7079.46	0.224587
7120.33	0.22469
7161.43	0.224794
7202.78	0.224898
7244.36	0.225002
7286.18	0.225106
7328.25	0.22521
7370.55	0.225315
7413.1	0.225419
7455.9	0.225523
7498.94	0.225627
7542.23	0.225732
7585.78	0.225836
7629.57	0.225941
7673.61	0.226045
7717.92	0.22615
7762.47	0.226254
7807.28	0.226359
7852.36	0.226464
7897.69	0.226568
7943.28	0.226673
7989.14	0.226778
8035.26	0.226883
8081.65	0.226987
8128.31	0.227092
8175.23	0.227197
8222.43	0.227302
8269.9	0.227407
8317.64	0.227512
8365.66	0.227617
8413.95	0.227722
8462.53	0.227827
8511.38	0.227932
8560.52	0.228038
8609.94	0.228143
8659.64	0.228248
8709.64	0.228353
8759.92	0.228458
8810.49	0.228564
8861.35	0.228669
8912.51	0.228774
8963.96	0.22888
9015.71	0.228985
9067.76	0.22909
9120.11	0.229196
9172.76	0.229301
9225.71	0.229407
9278.97	0.229512
9332.54	0.229617
9386.42	0.229723
9440.61	0.229828
9495.11	0.229934
9549.93	0.230039
9605.06	0.230145
9660.51	0.23025
9716.28	0.230356
9772.37	0.230461
9828.79	0.230567
9885.53	0.230672
9942.6	0.230778
10000	0.230884
10057.7	0.230989
10115.8	0.231095
10174.2	0.2312
10232.9	0.231306
10292	0.231411
10351.4	0.231517
10411.2	0.231623
10471.3	0.231728
10531.7	0.231834
10592.5	0.231939
10653.7	0.232045
10715.2	0.232151
10777.1	0.232256
10839.3	0.232362
10901.8	0.232467
10964.8	0.232573
11028.1	0.232678
11091.7	0.232784
11155.8	0.23289
11220.2	0.232995
11285	0.233101
11350.1	0.233206
11415.6	0.233312
11481.5	0.233417
11547.8	0.233523
11614.5	0.233628
11681.5	0.233734
11749	0.233839
11816.8	0.233945
11885	0.23405
11953.6	0.234156
12022.6	0.234261
12092.1	0.234366
12161.9	0.234472
12232.1	0.234577
12302.7	0.234683
12373.7	0.234788
12445.1	0.234893
12517	0.234999
12589.3	0.235104
12661.9	0.235209
12735	0.235315
12808.6	0.23542
12882.5	0.235525
12956.9	0.23563
13031.7	0.235736
13106.9	0.235841
13182.6	0.235946
13258.7	0.236051
13335.2	0.236156
13412.2	0.236261
13489.6	0.236367
13567.5	0.236472
13645.8	0.236577
13724.6	0.236682
13803.8	0.236787
13883.5	0.236892
13963.7	0.236997
14044.3	0.237102
14125.4	0.237206
14206.9	0.237311
14288.9	0.237416
14371.4	0.237521
14454.4	0.237626
14537.8	0.237731
14621.8	0.237835
14706.2	0.23794
14791.1	0.238045
14876.5	0.23815
14962.4	0.238254
15048.7	0.238359
15135.6	0.238463
15223	0.238568
15310.9	0.238672
15399.3	0.238777
15488.2	0.238881
15577.6	0.238986
15667.5	0.23909
15758	0.239195
15848.9	0.239299
15940.4	0.239403
16032.5	0.239508
16125	0.239612
16218.1	0.239716
16311.7	0.23982
16405.9	0.239925
16500.6	0.240029
16595.9	0.240133
16691.7	0.240237
16788	0.240341
16885	0.240445
16982.4	0.240549
17080.5	0.240653
17179.1	0.240757
17278.3	0.24086
17378	0.240964
17478.3	0.241068
17579.2	0.241172
17680.7	0.241275
17782.8	0.241379
17885.5	0.241483
17988.7	0.241586
18092.6	0.24169
18197	0.241793
18302.1	0.241897
18407.7	0.242
18514	0.242104
18620.9	0.242207
18728.4	0.24231
18836.5	0.242414
18945.2	0.242517
19054.6	0.24262
19164.6	0.242723
19275.2	0.242826
19386.5	0.24293
19498.4	0.243033
19611	0.243136
19724.2	0.243239
19838.1	0.243341
19952.6	0.243444
20067.8	0.243547
20183.7	0.24365
20300.2	0.243753
20417.4	0.243855
20535.3	0.243958
20653.8	0.244061
20773	0.244163
20893	0.244266
21013.6	0.244368
21134.9	0.244471
21256.9	0.244573
21379.6	0.244676
21503	0.244778
21627.2	0.24488
21752	0.244982
21877.6	0.245085
22003.9	0.245187
22130.9	0.245289
22258.7	0.245391
22387.2	0.245493
22516.5	0.245595
22646.4	0.245697
22777.2	0.245799
22908.7	0.2459
23040.9	0.246002
23173.9	0.246104
23307.7	0.246206
23442.3	0.246307
23577.6	0.246409
23713.7	0.24651
23850.6	0.246612
23988.3	0.246713
24126.8	0.246815
24266.1	0.246916
24406.2	0.247017
24547.1	0.247118
24688.8	0.24722
24831.3	0.247321
24974.7	0.247422
25118.9	0.247523
25263.9	0.247624
25409.7	0.247725
25556.4	0.247826
25704	0.247927
25852.3	0.248028
26001.6	0.248128
26151.7	0.248229
26302.7	0.24833
26454.5	0.24843
26607.3	0.248531
26760.9	0.248631
26915.3	0.248732
27070.7	0.248832
27227	0.248933
27384.2	0.249033
27542.3	0.249133
27701.3	0.249233
27861.2	0.249333
28022.1	0.249434
28183.8	0.249534
28346.5	0.249634
28510.2	0.249734
28674.8	0.249833
28840.3	0.249933
29006.8	0.250033
29174.3	0.250133
29342.7	0.250232
29512.1	0.250332
29682.5	0.250432
29853.8	0.250531
30026.2	0.250631
30199.5	0.25073
30373.9	0.250829
30549.2	0.250929
30725.6	0.251028
30903	0.251127
31081.4	0.251226
31260.8	0.251325
31441.3	0.251424
31622.8	0.251523
31805.3	0.251622
31989	0.251721
32173.6	0.25182
32359.4	0.251919
32546.2	0.252017
32734.1	0.252116
32923	0.252215
33113.1	0.252313
33304.3	0.252412
33496.5	0.25251
33689.9	0.252609
33884.4	0.252707
34080	0.252805
34276.8	0.252903
34474.7	0.253001
34673.7	0.2531
34873.9	0.253198
35075.2	0.253296
35277.7	0.253394
35481.3	0.253491
35686.2	0.253589
35892.2	0.253687
36099.4	0.253785
36307.8	0.253882
36517.4	0.25398
36728.2	0.254077
36940.3	0.254175
37153.5	0.254272
37368	0.25437
37583.7	0.254467
37800.7	0.254564
38018.9	0.254661
38238.4	0.254758
38459.2	0.254856
38681.2	0.254953
38904.5	0.25505
39129.1	0.255146
39355	0.255243
39582.2	0.25534
39810.7	0.255437
40040.5	0.255533
40271.7	0.25563
40504.2	0.255727
40738	0.255823
40973.2	0.255919
41209.8	0.256016
41447.7	0.256112
41686.9	0.256208
41927.6	0.256305
42169.7	0.256401
42413.1	0.256497
42658	0.256593
42904.2	0.256689
43151.9	0.256785
43401	0.25688
43651.6	0.256976
43903.6	0.257072
44157	0.257167
44412	0.257263
44668.4	0.257359
44926.2	0.257454
45185.6	0.257549
45446.5	0.257645
45708.8	0.25774
45972.7	0.257835
46238.1	0.25793
46505	0.258026
46773.5	0.258121
47043.5	0.258216
47315.1	0.25831
47588.3	0.258405
47863	0.2585
48139.3	0.258595
48417.2	0.258689
48696.8	0.258784
48977.9	0.258879
49260.6	0.258973
49545	0.259068
49831	0.259162
50118.7	0.259256
50408.1	0.25935
50699.1	0.259445
50991.8	0.259539
51286.1	0.259633
51582.2	0.259727
51880	0.259821
52179.5	0.259914
52480.7	0.260008
52783.7	0.260102
53088.4	0.260196
53394.9	0.260289
53703.2	0.260383
54013.2	0.260476
54325	0.26057
54638.7	0.260663
54954.1	0.260756
55271.3	0.26085
55590.4	0.260943
55911.4	0.261036
56234.1	0.261129
56558.8	0.261222
56885.3	0.261315
57213.7	0.261408
57544	0.2615
57876.2	0.261593
58210.3	0.261686
58546.4	0.261778
58884.4	0.261871
59224.3	0.261963
59566.2	0.262056
59910.1	0.262148
60256	0.26224
60603.8	0.262332
60953.7	0.262425
61305.6	0.262517
61659.5	0.262609
62015.5	0.2627
62373.5	0.262792
62733.6	0.262884
63095.7	0.262976
63460	0.263068
63826.3	0.263159
64194.8	0.263251
64565.4	0.263342
64938.2	0.263434
65313.1	0.263525
65690.1	0.263616
66069.3	0.263707
66450.8	0.263799
66834.4	0.26389
67220.2	0.263981
67608.3	0.264072
67998.6	0.264162
68391.2	0.264253
68786	0.264344
69183.1	0.264435
69582.5	0.264525
69984.2	0.264616
70388.2	0.264706
70794.6	0.264797
71203.3	0.264887
71614.3	0.264977
72027.8	0.265067
72443.6	0.265158
72861.8	0.265248
73282.5	0.265338
73705.5	0.265428
74131	0.265517
74559	0.265607
74989.4	0.265697
75422.3	0.265787
75857.8	0.265876
76295.7	0.265966
76736.1	0.266055
77179.2	0.266145
77624.7	0.266234
78072.8	0.266323
78523.6	0.266412
78976.9	0.266501
79432.8	0.26659
79891.4	0.266679
80352.6	0.266768
80816.5	0.266857
81283.1	0.266946
81752.3	0.267035
82224.3	0.267123
82699	0.267212
83176.4	0.2673
83656.6	0.267389
84139.5	0.267477
84625.3	0.267565
85113.8	0.267654
85605.2	0.267742
86099.4	0.26783
86596.4	0.267918
87096.4	0.268006
87599.2	0.268094
88104.9	0.268181
88613.5	0.268269
89125.1	0.268357
89639.6	0.268444
90157.1	0.268532
90677.6	0.268619
91201.1	0.268707
91727.6	0.268794
92257.1	0.268881
92789.7	0.268969
93325.4	0.269056
93864.2	0.269143
94406.1	0.26923
94951.1	0.269316
95499.3	0.269403
96050.6	0.26949
96605.1	0.269577
97162.8	0.269663
97723.7	0.26975
98287.9	0.269836
98855.3	0.269923
99426	0.270009
100000	0.270095
100577	0.270181
101158	0.270267
101742	0.270354
102329	0.270439
102920	0.270525
103514	0.270611
104112	0.270697
104713	0.270783
105317	0.270868
105925	0.270954
106537	0.271039
107152	0.271125
107771	0.27121
108393	0.271295
109018	0.27138
109648	0.271465
110281	0.27155
110917	0.271635
111558	0.27172
112202	0.271805
112850	0.27189
113501	0.271974
114156	0.272059
114815	0.272144
115478	0.272228
116145	0.272312
116815	0.272397
117490	0.272481
118168	0.272565
118850	0.272649
119536	0.272733
120226	0.272817
120921	0.272901
121619	0.272985
122321	0.273069
123027	0.273152
123737	0.273236
124451	0.273319
125170	0.273403
125893	0.273486
126619	0.273569
127350	0.273653
128086	0.273736
128825	0.273819
129569	0.273902
130317	0.273985
131069	0.274067
131826	0.27415
132587	0.274233
133352	0.274316
134122	0.274398
134896	0.274481
135675	0.274563
136458	0.274645
137246	0.274728
138038	0.27481
138835	0.274892
139637	0.274974
140443	0.275056
141254	0.275138
142069	0.27522
142889	0.275301
143714	0.275383
144544	0.275465
145378	0.275546
146218	0.275627
147062	0.275709
147911	0.27579
148765	0.275871
149624	0.275952
150487	0.276034
151356	0.276115
152230	0.276195
153109	0.276276
153993	0.276357
154882	0.276438
155776	0.276518
156675	0.276599
157580	0.276679
158489	0.27676
159404	0.27684
160325	0.27692
161250	0.277001
162181	0.277081
163117	0.277161
164059	0.277241
165006	0.277321
165959	0.2774
166917	0.27748
167880	0.27756
168850	0.277639
169824	0.277719
170805	0.277798
171791	0.277878
172783	0.277957
173780	0.278036
174783	0.278115
175792	0.278195
176807	0.278274
177828	0.278352
178855	0.278431
179887	0.27851
180926	0.278589
181970	0.278667
183021	0.278746
184077	0.278824
185140	0.278903
186209	0.278981
187284	0.279059
188365	0.279138
189452	0.279216
190546	0.279294
191646	0.279372
192752	0.27945
193865	0.279527
194984	0.279605
196110	0.279683
197242	0.279761
198381	0.279838
199526	0.279915
200678	0.279993
201837	0.28007
203002	0.280147
204174	0.280225
205353	0.280302
206538	0.280379
207730	0.280456
208930	0.280532
210136	0.280609
211349	0.280686
212569	0.280763
213796	0.280839
215030	0.280916
216272	0.280992
217520	0.281068
218776	0.281145
220039	0.281221
221309	0.281297
222587	0.281373
223872	0.281449
225165	0.281525
226464	0.281601
227772	0.281676
229087	0.281752
230409	0.281828
231739	0.281903
233077	0.281979
234423	0.282054
235776	0.282129
237137	0.282205
238506	0.28228
239883	0.282355
241268	0.28243
242661	0.282505
244062	0.28258
245471	0.282655
246888	0.282729
248313	0.282804
249747	0.282879
251189	0.282953
252639	0.283028
254097	0.283102
255564	0.283176
257040	0.283251
258523	0.283325
260016	0.283399
261517	0.283473
263027	0.283547
264545	0.283621
266073	0.283694
267609	0.283768
269153	0.283842
270707	0.283915
272270	0.283989
273842	0.284062
275423	0.284136
277013	0.284209
278612	0.284282
280221	0.284355
281838	0.284429
283465	0.284502
285102	0.284574
286748	0.284647
288403	0.28472
290068	0.284793
291743	0.284866
293427	0.284938
295121	0.285011
296825	0.285083
298538	0.285155
300262	0.285228
301995	0.2853
303739	0.285372
305492	0.285444
307256	0.285516
309030	0.285588
310814	0.28566
312608	0.285732
314413	0.285804
316228	0.285875
318053	0.285947
319890	0.286019
321736	0.28609
323594	0.286161
325462	0.286233
327341	0.286304
329230	0.286375
331131	0.286446
333043	0.286517
334965	0.286588
336899	0.286659
338844	0.28673
340800	0.286801
342768	0.286872
344747	0.286942
346737	0.287013
348739	0.287083
350752	0.287154
352777	0.287224
354813	0.287294
356862	0.287365
358922	0.287435
360994	0.287505
363078	0.287575
365174	0.287645
367282	0.287715
369403	0.287784
371535	0.287854
373680	0.287924
375837	0.287994
378007	0.288063
380189	0.288133
382384	0.288202
384592	0.288271
386812	0.288341
389045	0.28841
391291	0.288479
393550	0.288548
395822	0.288617
398107	0.288686
400405	0.288755
402717	0.288824
405042	0.288892
407380	0.288961
409732	0.28903
412098	0.289098
414477	0.289167
416869	0.289235
419276	0.289303
421697	0.289372
424131	0.28944
426580	0.289508
429042	0.289576
431519	0.289644
434010	0.289712
436516	0.28978
439036	0.289848
441570	0.289915
444120	0.289983
446684	0.290051
449262	0.290118
451856	0.290186
454465	0.290253
457088	0.29032
459727	0.290388
462381	0.290455
465050	0.290522
467735	0.290589
470435	0.290656
473151	0.290723
475883	0.29079
478630	0.290857
481393	0.290924
484172	0.29099
486968	0.291057
489779	0.291124
492606	0.29119
495450	0.291257
498310	0.291323
501187	0.291389
504081	0.291456
506991	0.291522
509918	0.291588
512861	0.291654
515822	0.29172
518800	0.291786
521795	0.291852
524807	0.291918
527837	0.291984
530884	0.292049
533949	0.292115
537032	0.292181
540132	0.292246
543250	0.292312
546387	0.292377
549541	0.292442
552713	0.292508
555904	0.292573
559114	0.292638
562341	0.292703
565588	0.292768
568853	0.292833
572137	0.292898
575440	0.292963
578762	0.293028
582103	0.293093
585464	0.293157
588844	0.293222
592243	0.293286
595662	0.293351
599101	0.293415
602560	0.29348
606038	0.293544
609537	0.293608
613056	0.293673
616595	0.293737
620155	0.293801
623735	0.293865
627336	0.293929
630957	0.293993
634600	0.294057
638263	0.294121
641948	0.294184
645654	0.294248
649382	0.294312
653131	0.294375
656901	0.294439
660693	0.294502
664508	0.294566
668344	0.294629
672202	0.294693
676083	0.294756
679986	0.294819
683912	0.294882
687860	0.294945
691831	0.295008
695825	0.295071
699842	0.295134
703882	0.295197
707946	0.29526
712033	0.295323
716143	0.295385
720278	0.295448
724436	0.295511
728618	0.295573
732825	0.295636
737055	0.295698
741310	0.295761
745590	0.295823
749894	0.295885
754223	0.295947
758578	0.29601
762957	0.296072
767361	0.296134
771792	0.296196
776247	0.296258
780728	0.29632
785236	0.296382
789769	0.296443
794328	0.296505
798914	0.296567
803526	0.296629
808165	0.29669
812831	0.296752
817523	0.296813
822243	0.296875
826990	0.296936
831764	0.296998
836566	0.297059
841395	0.29712
846253	0.297181
851138	0.297243
856052	0.297304
860994	0.297365
865964	0.297426
870964	0.297487
875992	0.297548
881049	0.297609
886135	0.297669
891251	0.29773
896396	0.297791
901571	0.297852
906776	0.297912
912011	0.297973
917276	0.298033
922571	0.298094
927897	0.298154
933254	0.298215
938642	0.298275
944061	0.298335
949511	0.298396
954993	0.298456
960506	0.298516
966051	0.298576
971628	0.298636
977237	0.298696
982879	0.298756
988553	0.298816
994260	0.298876
1e+06	0.298936
1.00577e+06	0.298996
1.01158e+06	0.299056
1.01742e+06	0.299115
1.02329e+06	0.299175
1.0292e+06	0.299235
1.03514e+06	0.299294
1.04112e+06	0.299354
1.04713e+06	0.299413
1.05317e+06	0.299473
1.05925e+06	0.299532
1.06537e+06	0.299591
1.07152e+06	0.299651
1.07771e+06	0.29971
1.08393e+06	0.299769
1.09018e+06	0.299829
1.09648e+06	0.299888
1.10281e+06	0.299947
1.10917e+06	0.300006
1.11558e+06	0.300065
1.12202e+06	0.300124
1.1285e+06	0.300183
1.13501e+06	0.300242
1.14156e+06	0.300301
1.14815e+06	0.300359
1.15478e+06	0.300418
1.16145e+06	0.300477
1.16815e+06	0.300536
1.1749e+06	0.300594
1.18168e+06	0.300653
1.1885e+06	0.300712
1.19536e+06	0.30077
1.20226e+06	0.300829
1.20921e+06	0.300887
1.21619e+06	0.300945
1.22321e+06	0.301004
1.23027e+06	0.301062
1.23737e+06	0.30112
1.24451e+06	0.301179
1.2517e+06	0.301237
1.25893e+06	0.301295
1.26619e+06	0.301305
1.2735e+06	0.301305
1.28086e+06	0.301305
1.28825e+06	0.301305
1.29569e+06	0.301305
1.30317e+06	0.301305
1.31069e+06	0.301305
1.31826e+06	0.301305
1.32587e+06	0.301305
1.33352e+06	0.301305
1.34122e+06	0.301305
1.34896e+06	0.301305
1.35675e+06	0.301305
1.36458e+06	0.301305
1.37246e+06	0.301305
1.38038e+06	0.301305
1.38835e+06	0.301305
1.39637e+06	0.301305
1.40443e+06	0.301305
1.41254e+06	0.301305
1.42069e+06	0.301305
1.42889e+06	0.301305
1.43714e+06	0.301305
1.44544e+06	0.301305
1.45378e+06	0.301305
1.46218e+06	0.301305
1.47062e+06	0.301305
1.47911e+06	0.301305
1.48765e+06	0.301305
1.49624e+06	0.301305
1.50487e+06	0.301305
1.51356e+06	0.301305
1.5223e+06	0.301305
1.53109e+06	0.301305
1.53993e+06	0.301305
1.54882e+06	0.301305
1.55776e+06	0.301305
1.56675e+06	0.301305
1.5758e+06	0.301305
1.58489e+06	0.301305
1.59404e+06	0.301305
1.60325e+06	0.301305
1.6125e+06	0.301305
1.62181e+06	0.301305
1.63117e+06	0.301305
1.64059e+06	0.301305
1.65006e+06	0.301305
1.65959e+06	0.301305
1.66917e+06	0.301305
1.6788e+06	0.301305
1.6885e+06	0.301305
1.69824e+06	0.301305
1.70805e+06	0.301305
1.71791e+06	0.301305
1.72783e+06	0.301305
1.7378e+06	0.301305
1.74783e+06	0.301305
1.75792e+06	0.301305
1.76807e+06	0.301305
1.77828e+06	0.301305
1.78855e+06	0.301305
1.79887e+06	0.301305
1.80926e+06	0.301305
1.8197e+06	0.301305
1.83021e+06	0.301305
1.84077e+06	0.301305
1.8514e+06	0.301305
1.86209e+06	0.301305
1.87284e+06	0.301305
1.88365e+06	0.301305
1.89452e+06	0.301305
1.90546e+06	0.301305
1.91646e+06	0.301305
1.92752e+06	0.301305
1.93865e+06	0.301305
1.94984e+06	0.301305
1.9611e+06	0.301305
1.97242e+06	0.301305
1.98381e+06	0.301305
1.99526e+06	0.301305
2.00678e+06	0.301305
2.01837e+06	0.301305
2.03002e+06	0.301305
2.04174e+06	0.301305
2.05353e+06	0.301305
2.06538e+06	0.301305
2.0773e+06	0.301305
2.0893e+06	0.301305
2.10136e+06	0.301305
2.11349e+06	0.301305
2.12569e+06	0.301305
2.13796e+06	0.301305
2.1503e+06	0.301305
2.16272e+06	0.301305
2.1752e+06	0.301305
2.18776e+06	0.301305
2.20039e+06	0.301305
2.21309e+06	0.301305
2.22587e+06	0.301305
2.23872e+06	0.301305
2.25165e+06	0.301305
2.26464e+06	0.301305
2.27772e+06	0.301305
2.29087e+06	0.301305
2.30409e+06	0.301305
2.31739e+06	0.301305
2.33077e+06	0.301305
2.34423e+06	0.301305
2.35776e+06	0.301305
2.37137e+06	0.301305
2.38506e+06	0.301305
2.39883e+06	0.301305
2.41268e+06	0.301305
2.42661e+06	0.301305
2.44062e+06	0.301305
2.45471e+06	0.301305
2.46888e+06	0.301305
2.48313e+06	0.301305
2.49747e+06	0.301305
2.51189e+06	0.301305
2.52639e+06	0.301305
2.54097e+06	0.301305
2.55564e+06	0.301305
2.5704e+06	0.301305
2.58523e+06	0.301305
2.60016e+06	0.301305
2.61517e+06	0.301305
2.63027e+06	0.301305
2.64545e+06	0.301305
2.66073e+06	0.301305
2.67609e+06	0.301305
2.69153e+06	0.301305
2.70707e+06	0.301305
2.7227e+06	0.301305
2.73842e+06	0.301305
2.75423e+06	0.301305
2.77013e+06	0.301305
2.78612e+06	0.301305
2.80221e+06	0.301305
2.81838e+06	0.301305
2.83465e+06	0.301305
2.85102e+06	0.301305
2.86748e+06	0.301305
2.88403e+06	0.301305
2.90068e+06	0.301305
2.91743e+06	0.301305
2.93427e+06	0.301305
2.95121e+06	0.301305
2.96825e+06	0.301305
2.98538e+06	0.301305
3.00262e+06	0.301305
3.01995e+06	0.301305
3.03739e+06	0.301305
3.05492e+06	0.301305
3.07256e+06	0.301305
3.0903e+06	0.301305
3.10814e+06	0.301305
3.12608e+06	0.301305
3.14413e+06	0.301305
3.16228e+06	0.301305
3.18053e+06	0.301305
3.1989e+06	0.301305
3.21736e+06	0.301305
3.23594e+06	0.301305
3.25462e+06	0.301305
3.27341e+06	0.301305
3.2923e+06	0.301305
3.31131e+06	0.301305
3.33043e+06	0.301305
3.34965e+06	0.301305
3.36899e+06	0.301305
3.38844e+06	0.301305
3.408e+06	0.301305
3.42768e+06	0.301305
3.44747e+06	0.301305
3.46737e+06	0.301305
3.48739e+06	0.301305
3.50752e+06	0.301305
3.52777e+06	0.301305
3.54813e+06	0.301305
3.56862e+06	0.301305
3.58922e+06	0.301305
3.60994e+06	0.301305
3.63078e+06	0.301305
3.65174e+06	0.301305
3.67282e+06	0.301305
3.69403e+06	0.301305
3.71535e+06	0.301305
3.7368e+06	0.301305
3.75837e+06	0.301305
3.78007e+06	0.301305
3.80189e+06	0.301305
3.82384e+06	0.301305
3.84592e+06	0.301305
3.86812e+06	0.301305
3.89045e+06	0.301305
3.91291e+06	0.301305
3.9355e+06	0.301305
3.95822e+06	0.301305
3.98107e+06	0.301305
4.00405e+06	0.301305
4.02717e+06	0.301305
4.05042e+06	0.301305
4.0738e+06	0.301305
4.09732e+06	0.301305
4.12098e+06	0.301305
4.14477e+06	0.301305
4.16869e+06	0.301305
4.19276e+06	0.301305
4.21697e+06	0.301305
4.24131e+06	0.301305
4.2658e+06	0.301305
4.29042e+06	0.301305
4.31519e+06	0.301305
4.3401e+06	0.301305
4.36516e+06	0.301305
4.39036e+06	0.301305
4.4157e+06	0.301305
4.4412e+06	0.301305
4.46684e+06	0.301305
4.49262e+06	0.301305
4.51856e+06	0.301305
4.54465e+06	0.301305
4.57088e+06	0.301305
4.59727e+06	0.301305
4.62381e+06	0.301305
4.6505e+06	0.301305
4.67735e+06	0.301305
4.70435e+06	0.301305
4.73151e+06	0.301305
4.75883e+06	0.301305
4.7863e+06	0.301305
4.81393e+06	0.301305
4.84172e+06	0.301305
4.86968e+06	0.301305
4.89779e+06	0.301305
4.92606e+06	0.301305
4.9545e+06	0.301305
4.9831e+06	0.301305
5.01187e+06	0.301305
5.04081e+06	0.301305
5.06991e+06	0.301305
5.09918e+06	0.301305
5.12861e+06	0.301305
5.15822e+06	0.301305
5.188e+06	0.301305
5.21795e+06	0.301305
5.24807e+06	0.301305
5.27837e+06	0.301305
5.30884e+06	0.301305
5.33949e+06	0.301305
5.37032e+06	0.301305
5.40132e+06	0.301305
5.4325e+06	0.301305
5.46387e+06	0.301305
5.49541e+06	0.301305
5.52713e+06	0.301305
5.55904e+06	0.301305
5.59114e+06	0.301305
5.62341e+06	0.301305
5.65588e+06	0.301305
5.68853e+06	0.301305
5.72137e+06	0.301305
5.7544e+06	0.301305
5.78762e+06	0.301305
5.82103e+06	0.301305
5.85464e+06	0.301305
5.88844e+06	0.301305
5.92243e+06	0.301305
5.95662e+06	0.301305
5.99101e+06	0.301305
6.0256e+06	0.301305
6.06038e+06	0.301305
6.09537e+06	0.301305
6.13056e+06	0.301305
6.16595e+06	0.301305
6.20155e+06	0.301305
6.23735e+06	0.301305
6.27336e+06	0.301305
6.30957e+06	0.301305
6.346e+06	0.301305
6.38263e+06	0.301305
6.41948e+06	0.301305
6.45654e+06	0.301305
6.49382e+06	0.301305
6.53131e+06	0.301305
6.56901e+06	0.301305
6.60693e+06	0.301305
6.64508e+06	0.301305
6.68344e+06	0.301305
6.72202e+06	0.301305
6.76083e+06	0.301305
6.79986e+06	0.301305
6.83912e+06	0.301305
6.8786e+06	0.301305
6.91831e+06	0.301305
6.95825e+06	0.301305
6.99842e+06	0.301305
7.03882e+06	0.301305
7.07946e+06	0.301305
7.12033e+06	0.301305
7.16143e+06	0.301305
7.20278e+06	0.301305
7.24436e+06	0.301305
7.28618e+06	0.301305
7.32825e+06	0.301305
7.37055e+06	0.301305
7.4131e+06	0.301305
7.4559e+06	0.301305
7.49894e+06	0.301305
7.54223e+06	0.301305
7.58578e+06	0.301305
7.62957e+06	0.301305
7.67361e+06	0.301305
7.71792e+06	0.301305
7.76247e+06	0.301305
7.80728e+06	0.301305
7.85236e+06	0.301305
7.89769e+06	0.301305
7.94328e+06	0.301305
7.98914e+06	0.301305
8.03526e+06	0.301305
8.08165e+06	0.301305
8.12831e+06	0.301305
8.17523e+06	0.301305
8.22243e+06	0.301305
8.2699e+06	0.301305
8.31764e+06	0.301305
8.36566e+06	0.301305
8.41395e+06	0.301305
8.46253e+06	0.301305
8.51138e+06	0.301305
8.56052e+06	0.301305
8.60994e+06	0.301305
8.65964e+06	0.301305
8.70964e+06	0.301305
8.75992e+06	0.301305
8.81049e+06	0.301305
8.86135e+06	0.301305
8.91251e+06	0.301305
8.96396e+06	0.301305
9.01571e+06	0.301305
9.06776e+06	0.301305
9.12011e+06	0.301305
9.17276e+06	0.301305
9.22571e+06	0.301305
9.27897e+06	0.301305
9.33254e+06	0.301305
9.38642e+06	0.301305
9.44061e+06	0.301305
9.49511e+06	0.301305
9.54993e+06	0.301305
9.60506e+06	0.301305
9.66051e+06	0.301305
9.71628e+06	0.301305
9.77237e+06	0.301305
9.82879e+06	0.301305
9.88553e+06	0.301305
9.9426e+06	0.301305
1e+07	0.301305
