Stopping power dEdx from Ionisation for kaon+ Z = 0 in Water, process name: hIoni
E [MeV]	dEdx [MeV/mm]
0.001	23.6907
0.00100577	23.7589
0.00101158	23.8274
0.00101742	23.8961
0.00102329	23.965
0.0010292	24.0341
0.00103514	24.1033
0.00104112	24.1728
0.00104713	24.2425
0.00105317	24.3124
0.00105925	24.3824
0.00106537	24.4527
0.00107152	24.5232
0.00107771	24.5939
0.00108393	24.6648
0.00109018	24.7359
0.00109648	24.8072
0.00110281	24.8787
0.00110917	24.9504
0.00111558	25.0223
0.00112202	25.0944
0.0011285	25.1667
0.00113501	25.2393
0.00114156	25.312
0.00114815	25.385
0.00115478	25.4582
0.00116145	25.5315
0.00116815	25.6051
0.0011749	25.6789
0.00118168	25.753
0.0011885	25.8272
0.00119536	25.9016
0.00120226	25.9763
0.00120921	26.0512
0.00121619	26.1262
0.00122321	26.2016
0.00123027	26.2771
0.00123737	26.3528
0.00124451	26.4288
0.0012517	26.505
0.00125893	26.5813
0.00126619	26.658
0.0012735	26.7348
0.00128086	26.8119
0.00128825	26.8891
0.00129569	26.9667
0.00130317	27.0444
0.00131069	27.1223
0.00131826	27.2005
0.00132587	27.2789
0.00133352	27.3575
0.00134122	27.4364
0.00134896	27.5155
0.00135675	27.5948
0.00136458	27.6743
0.00137246	27.7541
0.00138038	27.8341
0.00138835	27.9143
0.00139637	27.9948
0.00140443	28.0755
0.00141254	28.1564
0.00142069	28.2375
0.00142889	28.3189
0.00143714	28.4006
0.00144544	28.4824
0.00145378	28.5645
0.00146218	28.6469
0.00147062	28.7294
0.00147911	28.8122
0.00148765	28.8953
0.00149624	28.9786
0.00150487	29.0621
0.00151356	29.1459
0.0015223	29.2299
0.00153109	29.3141
0.00153993	29.3986
0.00154882	29.4834
0.00155776	29.5683
0.00156675	29.6536
0.0015758	29.739
0.00158489	29.8248
0.00159404	29.9107
0.00160325	29.9969
0.0016125	30.0834
0.00162181	30.1701
0.00163117	30.2571
0.00164059	30.3443
0.00165006	30.4318
0.00165959	30.5195
0.00166917	30.6074
0.0016788	30.6957
0.0016885	30.7841
0.00169824	30.8729
0.00170805	30.9619
0.00171791	31.0511
0.00172783	31.1406
0.0017378	31.2304
0.00174783	31.3204
0.00175792	31.4107
0.00176807	31.5012
0.00177828	31.592
0.00178855	31.6831
0.00179887	31.7744
0.00180926	31.866
0.0018197	31.9578
0.00183021	32.0499
0.00184077	32.1423
0.0018514	32.235
0.00186209	32.3279
0.00187284	32.421
0.00188365	32.5145
0.00189452	32.6082
0.00190546	32.7022
0.00191646	32.7965
0.00192752	32.891
0.00193865	32.9858
0.00194984	33.0809
0.0019611	33.1762
0.00197242	33.2719
0.00198381	33.3678
0.00199526	33.4639
0.00200678	33.5604
0.00201837	33.6571
0.00203002	33.7541
0.00204174	33.8514
0.00205353	33.949
0.00206538	34.0469
0.0020773	34.145
0.0020893	34.2434
0.00210136	34.3421
0.00211349	34.4411
0.00212569	34.5404
0.00213796	34.6399
0.0021503	34.7398
0.00216272	34.8399
0.0021752	34.9403
0.00218776	35.041
0.00220039	35.142
0.00221309	35.2433
0.00222587	35.3449
0.00223872	35.4468
0.00225165	35.549
0.00226464	35.6514
0.00227772	35.7542
0.00229087	35.8573
0.00230409	35.9606
0.00231739	36.0643
0.00233077	36.1682
0.00234423	36.2725
0.00235776	36.377
0.00237137	36.4819
0.00238506	36.587
0.00239883	36.6925
0.00241268	36.7982
0.00242661	36.9043
0.00244062	37.0107
0.00245471	37.1174
0.00246888	37.2243
0.00248313	37.3316
0.00249747	37.4392
0.00251189	37.5472
0.00252639	37.6554
0.00254097	37.7639
0.00255564	37.8728
0.0025704	37.9819
0.00258523	38.0914
0.00260016	38.2012
0.00261517	38.3113
0.00263027	38.4217
0.00264545	38.5325
0.00266073	38.6435
0.00267609	38.7549
0.00269153	38.8666
0.00270707	38.9787
0.0027227	39.091
0.00273842	39.2037
0.00275423	39.3167
0.00277013	39.43
0.00278612	39.5437
0.00280221	39.6577
0.00281838	39.772
0.00283465	39.8866
0.00285102	40.0016
0.00286748	40.1169
0.00288403	40.2325
0.00290068	40.3485
0.00291743	40.4648
0.00293427	40.5814
0.00295121	40.6984
0.00296825	40.8157
0.00298538	40.9333
0.00300262	41.0513
0.00301995	41.1696
0.00303739	41.2883
0.00305492	41.4073
0.00307256	41.5267
0.0030903	41.6464
0.00310814	41.7664
0.00312608	41.8868
0.00314413	42.0075
0.00316228	42.1286
0.00318053	42.25
0.0031989	42.3718
0.00321736	42.4939
0.00323594	42.6164
0.00325462	42.7393
0.00327341	42.8625
0.0032923	42.986
0.00331131	43.1099
0.00333043	43.2342
0.00334965	43.3588
0.00336899	43.4838
0.00338844	43.6091
0.003408	43.7348
0.00342768	43.8608
0.00344747	43.9873
0.00346737	44.1141
0.00348739	44.2412
0.00350752	44.3687
0.00352777	44.4966
0.00354813	44.6249
0.00356862	44.7535
0.00358922	44.8825
0.00360994	45.0119
0.00363078	45.1416
0.00365174	45.2717
0.00367282	45.4022
0.00369403	45.5331
0.00371535	45.6643
0.0037368	45.7959
0.00375837	45.9279
0.00378007	46.0603
0.00380189	46.1931
0.00382384	46.3262
0.00384592	46.4598
0.00386812	46.5937
0.00389045	46.728
0.00391291	46.8627
0.0039355	46.9977
0.00395822	47.1332
0.00398107	47.2691
0.00400405	47.4053
0.00402717	47.542
0.00405042	47.679
0.0040738	47.8164
0.00409732	47.9542
0.00412098	48.0925
0.00414477	48.2311
0.00416869	48.3701
0.00419276	48.5095
0.00421697	48.6493
0.00424131	48.7896
0.0042658	48.9302
0.00429042	49.0712
0.00431519	49.2127
0.0043401	49.3545
0.00436516	49.4968
0.00439036	49.6395
0.0044157	49.7825
0.0044412	49.926
0.00446684	50.0699
0.00449262	50.2143
0.00451856	50.359
0.00454465	50.5041
0.00457088	50.6497
0.00459727	50.7957
0.00462381	50.9421
0.0046505	51.089
0.00467735	51.2362
0.00470435	51.3839
0.00473151	51.532
0.00475883	51.6805
0.0047863	51.8295
0.00481393	51.9789
0.00484172	52.1287
0.00486968	52.279
0.00489779	52.4297
0.00492606	52.5808
0.0049545	52.7323
0.0049831	52.8843
0.00501187	53.0368
0.00504081	53.1896
0.00506991	53.3429
0.00509918	53.4967
0.00512861	53.6509
0.00515822	53.8055
0.005188	53.9606
0.00521795	54.1162
0.00524807	54.2721
0.00527837	54.4286
0.00530884	54.5785
0.00533949	54.7122
0.00537032	54.8462
0.00540132	54.9804
0.0054325	55.1149
0.00546387	55.2497
0.00549541	55.3846
0.00552713	55.5199
0.00555904	55.6554
0.00559114	55.7911
0.00562341	55.9271
0.00565588	56.0634
0.00568853	56.1999
0.00572137	56.3366
0.0057544	56.4736
0.00578762	56.6109
0.00582103	56.7484
0.00585464	56.8861
0.00588844	57.0241
0.00592243	57.1624
0.00595662	57.3009
0.00599101	57.4396
0.0060256	57.5786
0.00606038	57.7178
0.00609537	57.8573
0.00613056	57.997
0.00616595	58.137
0.00620155	58.2772
0.00623735	58.4176
0.00627336	58.5583
0.00630957	58.6992
0.006346	58.8404
0.00638263	58.9818
0.00641948	59.1234
0.00645654	59.2653
0.00649382	59.4074
0.00653131	59.5497
0.00656901	59.6923
0.00660693	59.8351
0.00664508	59.9782
0.00668344	60.1214
0.00672202	60.2649
0.00676083	60.4087
0.00679986	60.5526
0.00683912	60.6968
0.0068786	60.8412
0.00691831	60.9859
0.00695825	61.1307
0.00699842	61.2758
0.00703882	61.4211
0.00707946	61.5667
0.00712033	61.7124
0.00716143	61.8584
0.00720278	62.0046
0.00724436	62.151
0.00728618	62.2976
0.00732825	62.4444
0.00737055	62.5914
0.0074131	62.7387
0.0074559	62.8861
0.00749894	63.0338
0.00754223	63.1817
0.00758578	63.3298
0.00762957	63.478
0.00767361	63.6265
0.00771792	63.7752
0.00776247	63.9241
0.00780728	64.0732
0.00785236	64.2224
0.00789769	64.3719
0.00794328	64.5216
0.00798914	64.6714
0.00803526	64.8215
0.00808165	64.9717
0.00812831	65.1221
0.00817523	65.2727
0.00822243	65.4235
0.0082699	65.5745
0.00831764	65.7256
0.00836566	65.8769
0.00841395	66.0284
0.00846253	66.1801
0.00851138	66.3319
0.00856052	66.4839
0.00860994	66.6361
0.00865964	66.7885
0.00870964	66.941
0.00875992	67.0936
0.00881049	67.2465
0.00886135	67.3995
0.00891251	67.5526
0.00896396	67.7059
0.00901571	67.8593
0.00906776	68.0129
0.00912011	68.1667
0.00917276	68.3205
0.00922571	68.4746
0.00927897	68.6287
0.00933254	68.783
0.00938642	68.9374
0.00944061	69.092
0.00949511	69.2467
0.00954993	69.4015
0.00960506	69.5565
0.00966051	69.7115
0.00971628	69.8667
0.00977237	70.022
0.00982879	70.1774
0.00988553	70.3329
0.0099426	70.4885
0.01	70.6443
0.0100577	70.8001
0.0101158	70.956
0.0101742	71.1121
0.0102329	71.2682
0.010292	71.4244
0.0103514	71.5807
0.0104112	71.7371
0.0104713	71.8935
0.0105317	72.0501
0.0105925	72.2067
0.0106537	72.3634
0.0107152	72.5201
0.0107771	72.677
0.0108393	72.8338
0.0109018	72.9908
0.0109648	73.1478
0.0110281	73.3048
0.0110917	73.4619
0.0111558	73.619
0.0112202	73.7762
0.011285	73.9334
0.0113501	74.0906
0.0114156	74.2479
0.0114815	74.4052
0.0115478	74.5625
0.0116145	74.7198
0.0116815	74.8772
0.011749	75.0345
0.0118168	75.1919
0.011885	75.3493
0.0119536	75.5066
0.0120226	75.664
0.0120921	75.8213
0.0121619	75.9786
0.0122321	76.1359
0.0123027	76.2932
0.0123737	76.4505
0.0124451	76.6077
0.012517	76.7649
0.0125893	76.922
0.0126619	77.0791
0.012735	77.2362
0.0128086	77.3932
0.0128825	77.5501
0.0129569	77.7069
0.0130317	77.8637
0.0131069	78.0205
0.0131826	78.1771
0.0132587	78.3337
0.0133352	78.4901
0.0134122	78.6465
0.0134896	78.8028
0.0135675	78.959
0.0136458	79.115
0.0137246	79.271
0.0138038	79.4268
0.0138835	79.5825
0.0139637	79.7381
0.0140443	79.8935
0.0141254	80.0488
0.0142069	80.2039
0.0142889	80.3589
0.0143714	80.5138
0.0144544	80.6684
0.0145378	80.8229
0.0146218	80.9773
0.0147062	81.1314
0.0147911	81.2854
0.0148765	81.4391
0.0149624	81.5927
0.0150487	81.7461
0.0151356	81.8992
0.015223	82.0521
0.0153109	82.2049
0.0153993	82.3573
0.0154882	82.5096
0.0155776	82.6616
0.0156675	82.8133
0.015758	82.9648
0.0158489	83.116
0.0159404	83.267
0.0160325	83.4177
0.016125	83.5681
0.0162181	83.7182
0.0163117	83.868
0.0164059	84.0176
0.0165006	84.1668
0.0165959	84.3157
0.0166917	84.4642
0.016788	84.6125
0.016885	84.7604
0.0169824	84.908
0.0170805	85.0552
0.0171791	85.202
0.0172783	85.3485
0.017378	85.4946
0.0174783	85.6404
0.0175792	85.7857
0.0176807	85.9307
0.0177828	86.0752
0.0178855	86.2193
0.0179887	86.3631
0.0180926	86.5063
0.018197	86.6492
0.0183021	86.7916
0.0184077	86.9336
0.018514	87.0751
0.0186209	87.2161
0.0187284	87.3567
0.0188365	87.4968
0.0189452	87.6364
0.0190546	87.7755
0.0191646	87.9141
0.0192752	88.0522
0.0193865	88.1897
0.0194984	88.3268
0.019611	88.4633
0.0197242	88.5992
0.0198381	88.7346
0.0199526	88.8694
0.0200678	89.0037
0.0201837	89.1373
0.0203002	89.2704
0.0204174	89.4029
0.0205353	89.5348
0.0206538	89.666
0.020773	89.7967
0.020893	89.9267
0.0210136	90.056
0.0211349	90.1847
0.0212569	90.3128
0.0213796	90.4401
0.021503	90.5668
0.0216272	90.6928
0.021752	90.8181
0.0218776	90.9427
0.0220039	91.0666
0.0221309	91.1898
0.0222587	91.3122
0.0223872	91.4339
0.0225165	91.5548
0.0226464	91.675
0.0227772	91.7944
0.0229087	91.913
0.0230409	92.0308
0.0231739	92.1479
0.0233077	92.2641
0.0234423	92.3795
0.0235776	92.494
0.0237137	92.6078
0.0238506	92.7207
0.0239883	92.8327
0.0241268	92.9439
0.0242661	93.0541
0.0244062	93.1635
0.0245471	93.272
0.0246888	93.3796
0.0248313	93.4863
0.0249747	93.5921
0.0251189	93.6969
0.0252639	93.8008
0.0254097	93.9037
0.0255564	94.0057
0.025704	94.1067
0.0258523	94.2067
0.0260016	94.3057
0.0261517	94.4037
0.0263027	94.5007
0.0264545	94.5966
0.0266073	94.6916
0.0267609	94.7855
0.0269153	94.8783
0.0270707	94.9701
0.027227	95.0608
0.0273842	95.1504
0.0275423	95.2389
0.0277013	95.3264
0.0278612	95.4127
0.0280221	95.4979
0.0281838	95.5819
0.0283465	95.6648
0.0285102	95.7466
0.0286748	95.8272
0.0288403	95.9067
0.0290068	95.9849
0.0291743	96.062
0.0293427	96.1379
0.0295121	96.2125
0.0296825	96.286
0.0298538	96.3582
0.0300262	96.4292
0.0301995	96.4989
0.0303739	96.5674
0.0305492	96.6346
0.0307256	96.7005
0.030903	96.7651
0.0310814	96.8285
0.0312608	96.8905
0.0314413	96.9513
0.0316228	97.0107
0.0318053	97.0687
0.031989	97.1255
0.0321736	97.1809
0.0323594	97.2349
0.0325462	97.2876
0.0327341	97.3388
0.032923	97.3887
0.0331131	97.4372
0.0333043	97.4843
0.0334965	97.53
0.0336899	97.5743
0.0338844	97.6171
0.03408	97.6585
0.0342768	97.6985
0.0344747	97.737
0.0346737	97.774
0.0348739	97.8096
0.0350752	97.8437
0.0352777	97.8763
0.0354813	97.9074
0.0356862	97.937
0.0358922	97.9651
0.0360994	97.9917
0.0363078	98.0167
0.0365174	98.0402
0.0367282	98.0622
0.0369403	98.0826
0.0371535	98.1015
0.037368	98.1188
0.0375837	98.1346
0.0378007	98.1487
0.0380189	98.1613
0.0382384	98.1723
0.0384592	98.1817
0.0386812	98.1895
0.0389045	98.1957
0.0391291	98.2002
0.039355	98.2032
0.0395822	98.2045
0.0398107	98.2042
0.0400405	98.2022
0.0402717	98.1986
0.0405042	98.1934
0.040738	98.1865
0.0409732	98.1779
0.0412098	98.1677
0.0414477	98.1558
0.0416869	98.1422
0.0419276	98.1269
0.0421697	98.11
0.0424131	98.0914
0.042658	98.071
0.0429042	98.049
0.0431519	98.0253
0.043401	97.9998
0.0436516	97.9727
0.0439036	97.9438
0.044157	97.9132
0.044412	97.8809
0.0446684	97.8469
0.0449262	97.8112
0.0451856	97.7737
0.0454465	97.7345
0.0457088	97.6936
0.0459727	97.6509
0.0462381	97.6065
0.046505	97.5603
0.0467735	97.5124
0.0470435	97.4628
0.0473151	97.4114
0.0475883	97.3583
0.047863	97.3034
0.0481393	97.2468
0.0484172	97.1884
0.0486968	97.1283
0.0489779	97.0664
0.0492606	97.0028
0.049545	96.9374
0.049831	96.8703
0.0501187	96.8014
0.0504081	96.7308
0.0506991	96.6584
0.0509918	96.5843
0.0512861	96.5084
0.0515822	96.4308
0.05188	96.3514
0.0521795	96.2703
0.0524807	96.1875
0.0527837	96.1029
0.0530884	96.0166
0.0533949	95.9286
0.0537032	95.8388
0.0540132	95.7473
0.054325	95.6541
0.0546387	95.5591
0.0549541	95.4625
0.0552713	95.3641
0.0555904	95.264
0.0559114	95.1622
0.0562341	95.0587
0.0565588	94.9535
0.0568853	94.8466
0.0572137	94.7381
0.057544	94.6278
0.0578762	94.5159
0.0582103	94.4023
0.0585464	94.287
0.0588844	94.17
0.0592243	94.0514
0.0595662	93.9312
0.0599101	93.8093
0.060256	93.6858
0.0606038	93.5606
0.0609537	93.4339
0.0613056	93.3055
0.0616595	93.1755
0.0620155	93.0439
0.0623735	92.9107
0.0627336	92.7759
0.0630957	92.6395
0.06346	92.5016
0.0638263	92.3621
0.0641948	92.2211
0.0645654	92.0785
0.0649382	91.9344
0.0653131	91.7888
0.0656901	91.6416
0.0660693	91.493
0.0664508	91.3428
0.0668344	91.1912
0.0672202	91.0381
0.0676083	90.8835
0.0679986	90.7275
0.0683912	90.57
0.068786	90.4111
0.0691831	90.2507
0.0695825	90.089
0.0699842	89.9259
0.0703882	89.7613
0.0707946	89.5954
0.0712033	89.4281
0.0716143	89.2595
0.0720278	89.0896
0.0724436	88.9183
0.0728618	88.7457
0.0732825	88.5717
0.0737055	88.3965
0.074131	88.22
0.074559	88.0423
0.0749894	87.8633
0.0754223	87.6831
0.0758578	87.5016
0.0762957	87.3189
0.0767361	87.135
0.0771792	86.95
0.0776247	86.7637
0.0780728	86.5764
0.0785236	86.3878
0.0789769	86.1982
0.0794328	86.0074
0.0798914	85.8155
0.0803526	85.6226
0.0808165	85.4285
0.0812831	85.2335
0.0817523	85.0373
0.0822243	84.8402
0.082699	84.642
0.0831764	84.4429
0.0836566	84.2427
0.0841395	84.0416
0.0846253	83.8396
0.0851138	83.6366
0.0856052	83.4327
0.0860994	83.2279
0.0865964	83.0222
0.0870964	82.8156
0.0875992	82.6082
0.0881049	82.3999
0.0886135	82.1908
0.0891251	81.9809
0.0896396	81.7702
0.0901571	81.5587
0.0906776	81.3465
0.0912011	81.1335
0.0917276	80.9198
0.0922571	80.7054
0.0927897	80.4903
0.0933254	80.2745
0.0938642	80.058
0.0944061	79.8409
0.0949511	79.6231
0.0954993	79.4048
0.0960506	79.1858
0.0966051	78.9663
0.0971628	78.7461
0.0977237	78.5255
0.0982879	78.3042
0.0988553	78.0825
0.099426	77.8603
0.1	77.6376
0.100577	77.4144
0.101158	77.1907
0.101742	76.9666
0.102329	76.7421
0.10292	76.5172
0.103514	76.2919
0.104112	76.0662
0.104713	75.8401
0.105317	75.6137
0.105925	75.387
0.106537	75.1599
0.107152	74.9326
0.107771	74.705
0.108393	74.4771
0.109018	74.2489
0.109648	74.0205
0.110281	73.7919
0.110917	73.5631
0.111558	73.3341
0.112202	73.1049
0.11285	72.8755
0.113501	72.646
0.114156	72.4164
0.114815	72.1866
0.115478	71.9567
0.116145	71.7268
0.116815	71.4967
0.11749	71.2666
0.118168	71.0365
0.11885	70.8063
0.119536	70.5761
0.120226	70.3458
0.120921	70.1156
0.121619	69.8854
0.122321	69.6553
0.123027	69.4251
0.123737	69.1951
0.124451	68.9651
0.12517	68.7352
0.125893	68.5054
0.126619	68.2757
0.12735	68.0461
0.128086	67.8166
0.128825	67.5873
0.129569	67.3582
0.130317	67.1292
0.131069	66.9004
0.131826	66.6718
0.132587	66.4434
0.133352	66.2152
0.134122	65.9872
0.134896	65.7594
0.135675	65.532
0.136458	65.3047
0.137246	65.0778
0.138038	64.8511
0.138835	64.6247
0.139637	64.3986
0.140443	64.1728
0.141254	63.9473
0.142069	63.7221
0.142889	63.4973
0.143714	63.2728
0.144544	63.0487
0.145378	62.825
0.146218	62.6016
0.147062	62.3786
0.147911	62.156
0.148765	61.9338
0.149624	61.7119
0.150487	61.4905
0.151356	61.2696
0.15223	61.049
0.153109	60.8289
0.153993	60.6092
0.154882	60.39
0.155776	60.1713
0.156675	59.953
0.15758	59.7351
0.158489	59.5178
0.159404	59.3009
0.160325	59.0846
0.16125	58.8687
0.162181	58.6533
0.163117	58.4385
0.164059	58.2241
0.165006	58.0103
0.165959	57.797
0.166917	57.5842
0.16788	57.372
0.16885	57.1603
0.169824	56.9491
0.170805	56.7386
0.171791	56.5285
0.172783	56.319
0.17378	56.1101
0.174783	55.9018
0.175792	55.694
0.176807	55.4868
0.177828	55.2801
0.178855	55.0741
0.179887	54.8686
0.180926	54.6638
0.18197	54.4595
0.183021	54.2558
0.184077	54.0527
0.18514	53.8503
0.186209	53.6484
0.187284	53.4471
0.188365	53.2465
0.189452	53.0464
0.190546	52.847
0.191646	52.6482
0.192752	52.45
0.193865	52.2524
0.194984	52.0555
0.19611	51.8592
0.197242	51.6635
0.198381	51.4684
0.199526	51.2739
0.200678	51.0801
0.201837	50.887
0.203002	50.6944
0.204174	50.5025
0.205353	50.3112
0.206538	50.1206
0.20773	49.9305
0.20893	49.7412
0.210136	49.5524
0.211349	49.3643
0.212569	49.1769
0.213796	48.99
0.21503	48.8038
0.216272	48.6183
0.21752	48.4334
0.218776	48.2491
0.220039	48.0655
0.221309	47.8825
0.222587	47.7001
0.223872	47.5184
0.225165	47.3373
0.226464	47.1569
0.227772	46.977
0.229087	46.7979
0.230409	46.6193
0.231739	46.4414
0.233077	46.2641
0.234423	46.0875
0.235776	45.9115
0.237137	45.7361
0.238506	45.5614
0.239883	45.3872
0.241268	45.2137
0.242661	45.0409
0.244062	44.8686
0.245471	44.697
0.246888	44.526
0.248313	44.3556
0.249747	44.1859
0.251189	44.0168
0.252639	43.8482
0.254097	43.6803
0.255564	43.513
0.25704	43.3464
0.258523	43.1803
0.260016	43.0148
0.261517	42.85
0.263027	42.6858
0.264545	42.5221
0.266073	42.3591
0.267609	42.1966
0.269153	42.0348
0.270707	41.8736
0.27227	41.7129
0.273842	41.5529
0.275423	41.3934
0.277013	41.2345
0.278612	41.0762
0.280221	40.9185
0.281838	40.7614
0.283465	40.6049
0.285102	40.4489
0.286748	40.2935
0.288403	40.1387
0.290068	39.9845
0.291743	39.8308
0.293427	39.6777
0.295121	39.5252
0.296825	39.3732
0.298538	39.2218
0.300262	39.071
0.301995	38.9207
0.303739	38.771
0.305492	38.6218
0.307256	38.4732
0.30903	38.3251
0.310814	38.1776
0.312608	38.0306
0.314413	37.8841
0.316228	37.7382
0.318053	37.5929
0.31989	37.448
0.321736	37.3037
0.323594	37.16
0.325462	37.0167
0.327341	36.874
0.32923	36.7318
0.331131	36.5902
0.333043	36.449
0.334965	36.3084
0.336899	36.1683
0.338844	36.0287
0.3408	35.8896
0.342768	35.7511
0.344747	35.613
0.346737	35.4754
0.348739	35.3384
0.350752	35.2018
0.352777	35.0658
0.354813	34.9302
0.356862	34.7951
0.358922	34.6605
0.360994	34.5265
0.363078	34.3929
0.365174	34.2597
0.367282	34.1271
0.369403	33.995
0.371535	33.8633
0.37368	33.7321
0.375837	33.6014
0.378007	33.4711
0.380189	33.3413
0.382384	33.212
0.384592	33.0832
0.386812	32.9548
0.389045	32.8269
0.391291	32.6994
0.39355	32.5724
0.395822	32.4459
0.398107	32.3198
0.400405	32.1942
0.402717	32.069
0.405042	31.9442
0.40738	31.82
0.409732	31.6961
0.412098	31.5727
0.414477	31.4497
0.416869	31.3272
0.419276	31.2051
0.421697	31.0835
0.424131	30.9623
0.42658	30.8415
0.429042	30.7211
0.431519	30.6012
0.43401	30.4817
0.436516	30.3626
0.439036	30.244
0.44157	30.1257
0.44412	30.0079
0.446684	29.8905
0.449262	29.7735
0.451856	29.657
0.454465	29.5408
0.457088	29.4251
0.459727	29.3097
0.462381	29.1948
0.46505	29.0803
0.467735	28.9662
0.470435	28.8524
0.473151	28.7391
0.475883	28.6262
0.47863	28.5137
0.481393	28.4016
0.484172	28.2898
0.486968	28.1785
0.489779	28.0675
0.492606	27.957
0.49545	27.8468
0.49831	27.737
0.501187	27.6276
0.504081	27.5186
0.506991	27.41
0.509918	27.3017
0.512861	27.1938
0.515822	27.0863
0.5188	26.9792
0.521795	26.8725
0.524807	26.7661
0.527837	26.6601
0.530884	26.5545
0.533949	26.4492
0.537032	26.3443
0.540132	26.2398
0.54325	26.1356
0.546387	26.0318
0.549541	25.9284
0.552713	25.8253
0.555904	25.7226
0.559114	25.6202
0.562341	25.5182
0.565588	25.4166
0.568853	25.3153
0.572137	25.2144
0.57544	25.1138
0.578762	25.0135
0.582103	24.9136
0.585464	24.8141
0.588844	24.7149
0.592243	24.6161
0.595662	24.5176
0.599101	24.4194
0.60256	24.3216
0.606038	24.2241
0.609537	24.127
0.613056	24.0302
0.616595	23.9338
0.620155	23.8376
0.623735	23.7419
0.627336	23.6464
0.630957	23.5513
0.6346	23.4565
0.638263	23.3621
0.641948	23.2679
0.645654	23.1741
0.649382	23.0807
0.653131	22.9875
0.656901	22.8947
0.660693	22.8022
0.664508	22.7101
0.668344	22.6182
0.672202	22.5267
0.676083	22.4355
0.679986	22.3446
0.683912	22.2541
0.68786	22.1638
0.691831	22.0739
0.695825	21.9843
0.699842	21.895
0.703882	21.806
0.707946	21.7173
0.712033	21.629
0.716143	21.5409
0.720278	21.4532
0.724436	21.3658
0.728618	21.2786
0.732825	21.1918
0.737055	21.1053
0.74131	21.0191
0.74559	20.9332
0.749894	20.8476
0.754223	20.7623
0.758578	20.6773
0.762957	20.5926
0.767361	20.5082
0.771792	20.4241
0.776247	20.3403
0.780728	20.2568
0.785236	20.1736
0.789769	20.0907
0.794328	20.0081
0.798914	19.9258
0.803526	19.8438
0.808165	19.762
0.812831	19.6806
0.817523	19.5994
0.822243	19.5185
0.82699	19.438
0.831764	19.3577
0.836566	19.2777
0.841395	19.1979
0.846253	19.1185
0.851138	19.0394
0.856052	18.9605
0.860994	18.8819
0.865964	18.8036
0.870964	18.7256
0.875992	18.6478
0.881049	18.5704
0.886135	18.4932
0.891251	18.4163
0.896396	18.3396
0.901571	18.2633
0.906776	18.1872
0.912011	18.1114
0.917276	18.0359
0.922571	17.9606
0.927897	17.8856
0.933254	17.8109
0.938642	17.7364
0.944061	17.6623
0.949511	17.5884
0.954993	17.5147
0.960506	17.4413
0.966051	17.3682
0.971628	17.2954
0.977237	17.2228
0.982879	17.1505
0.988553	17.0785
0.99426	17.0067
1	16.9352
1.00577	16.8639
1.01158	16.7929
1.01742	16.7222
1.02329	16.6517
1.0292	16.5815
1.03514	16.5115
1.04112	16.4418
1.04713	16.3724
1.05317	16.3028
1.05925	16.2314
1.06537	16.1603
1.07152	16.0894
1.07771	16.0189
1.08393	15.9487
1.09018	15.8787
1.09648	15.8104
1.10281	15.7411
1.10917	15.672
1.11558	15.6032
1.12202	15.5347
1.1285	15.4665
1.13501	15.3985
1.14156	15.3309
1.14815	15.2635
1.15478	15.1964
1.16145	15.1295
1.16815	15.063
1.1749	14.9996
1.18168	14.9336
1.1885	14.8679
1.19536	14.8024
1.20226	14.7372
1.20921	14.6723
1.21619	14.6077
1.22321	14.5433
1.23027	14.4792
1.23737	14.4153
1.24451	14.3517
1.2517	14.2884
1.25893	14.2254
1.26619	14.1626
1.2735	14.1
1.28086	14.0377
1.28825	13.9757
1.29569	13.914
1.30317	13.8525
1.31069	13.7912
1.31826	13.7302
1.32587	13.6288
1.33352	13.5714
1.34122	13.5106
1.34896	13.45
1.35675	13.3897
1.36458	13.3297
1.37246	13.2699
1.38038	13.2104
1.38835	13.1511
1.39637	13.092
1.40443	13.0332
1.41254	12.9747
1.42069	12.9164
1.42889	12.8584
1.43714	12.8005
1.44544	12.743
1.45378	12.6857
1.46218	12.6286
1.47062	12.5717
1.47911	12.5151
1.48765	12.4587
1.49624	12.4026
1.50487	12.3467
1.51356	12.2911
1.5223	12.2356
1.53109	12.1804
1.53993	12.1255
1.54882	12.0708
1.55776	12.0163
1.56675	11.9731
1.5758	11.919
1.58489	11.8652
1.59404	11.8115
1.60325	11.7581
1.6125	11.7049
1.62181	11.652
1.63117	11.5992
1.64059	11.5467
1.65006	11.4944
1.65959	11.4423
1.66917	11.3905
1.6788	11.3388
1.6885	11.2874
1.69824	11.2362
1.70805	11.1853
1.71791	11.1345
1.72783	11.0839
1.7378	11.0336
1.74783	10.9835
1.75792	10.9336
1.76807	10.8839
1.77828	10.8344
1.78855	10.7851
1.79887	10.736
1.80926	10.6872
1.8197	10.6385
1.83021	10.5901
1.84077	10.5419
1.8514	10.4942
1.86209	10.448
1.87284	10.402
1.88365	10.3561
1.89452	10.3104
1.90546	10.2649
1.91646	10.2196
1.92752	10.1744
1.93865	10.1295
1.94984	10.0847
1.9611	10.04
1.97242	9.99557
1.98381	9.95129
1.99526	9.90718
2.00678	9.86325
2.01837	9.81949
2.03002	9.77591
2.04174	9.73249
2.05353	9.68925
2.06538	9.64618
2.0773	9.60328
2.0893	9.56055
2.10136	9.51799
2.11349	9.47561
2.12569	9.43339
2.13796	9.39134
2.1503	9.34946
2.16272	9.30775
2.1752	9.2662
2.18776	9.22482
2.20039	9.18362
2.21309	9.14257
2.22587	9.1017
2.23872	9.06098
2.25165	9.02044
2.26464	8.98006
2.27772	8.93984
2.29087	8.89979
2.30409	8.85991
2.31739	8.82018
2.33077	8.78062
2.34423	8.74122
2.35776	8.71074
2.37137	8.67156
2.38506	8.63254
2.39883	8.59369
2.41268	8.55499
2.42661	8.51646
2.44062	8.47809
2.45471	8.43987
2.46888	8.40182
2.48313	8.36392
2.49747	8.32618
2.51189	8.2886
2.52639	8.25117
2.54097	8.21391
2.55564	8.17679
2.5704	8.13984
2.58523	8.10304
2.60016	8.06639
2.61517	8.0299
2.63027	7.99356
2.64545	7.95737
2.66073	7.92133
2.67609	7.88545
2.69153	7.84972
2.70707	7.81414
2.7227	7.77871
2.73842	7.74344
2.75423	7.70831
2.77013	7.67333
2.78612	7.63849
2.80221	7.60381
2.81838	7.56927
2.83465	7.53488
2.85102	7.50064
2.86748	7.46655
2.88403	7.43259
2.90068	7.39879
2.91743	7.36513
2.93427	7.33161
2.95121	7.29824
2.96825	7.26501
2.98538	7.23192
3.00262	7.19897
3.01995	7.16617
3.03739	7.1335
3.05492	7.10098
3.07256	7.0686
3.0903	7.03635
3.10814	7.00425
3.12608	6.97228
3.14413	6.94045
3.16228	6.90876
3.18053	6.87721
3.1989	6.84579
3.21736	6.81451
3.23594	6.78336
3.25462	6.75235
3.27341	6.72147
3.2923	6.69073
3.31131	6.66012
3.33043	6.62965
3.34965	6.5993
3.36899	6.56909
3.38844	6.53901
3.408	6.50906
3.42768	6.47925
3.44747	6.44956
3.46737	6.42
3.48739	6.39057
3.50752	6.36127
3.52777	6.3321
3.54813	6.30305
3.56862	6.27413
3.58922	6.24534
3.60994	6.21668
3.63078	6.18814
3.65174	6.15972
3.67282	6.13143
3.69403	6.10327
3.71535	6.07522
3.7368	6.04731
3.75837	6.01951
3.78007	5.99184
3.80189	5.96429
3.82384	5.93686
3.84592	5.90955
3.86812	5.88236
3.89045	5.85529
3.91291	5.82834
3.9355	5.80151
3.95822	5.77755
3.98107	5.75091
4.00405	5.72438
4.02717	5.69797
4.05042	5.67168
4.0738	5.64551
4.09732	5.61945
4.12098	5.59351
4.14477	5.56768
4.16869	5.54196
4.19276	5.51637
4.21697	5.49088
4.24131	5.46551
4.2658	5.44025
4.29042	5.4151
4.31519	5.39007
4.3401	5.36514
4.36516	5.34033
4.39036	5.31563
4.4157	5.29104
4.4412	5.26656
4.46684	5.24218
4.49262	5.21792
4.51856	5.19377
4.54465	5.16972
4.57088	5.14578
4.59727	5.12195
4.62381	5.09822
4.6505	5.0746
4.67735	5.05109
4.70435	5.02768
4.73151	5.00438
4.75883	4.98118
4.7863	4.95808
4.81393	4.93509
4.84172	4.9122
4.86968	4.88942
4.89779	4.86674
4.92606	4.84415
4.9545	4.82168
4.9831	4.7993
5.01187	4.77702
5.04081	4.75484
5.06991	4.73277
5.09918	4.71079
5.12861	4.68891
5.15822	4.66713
5.188	4.64545
5.21795	4.62387
5.24807	4.60238
5.27837	4.581
5.30884	4.5597
5.33949	4.53851
5.37032	4.51741
5.40132	4.49641
5.4325	4.4755
5.46387	4.45468
5.49541	4.43396
5.52713	4.41334
5.55904	4.39445
5.59114	4.37398
5.62341	4.35361
5.65588	4.33333
5.68853	4.31314
5.72137	4.29304
5.7544	4.27304
5.78762	4.25313
5.82103	4.2333
5.85464	4.21357
5.88844	4.19393
5.92243	4.17437
5.95662	4.15491
5.99101	4.13554
6.0256	4.11625
6.06038	4.09705
6.09537	4.07794
6.13056	4.05891
6.16595	4.03998
6.20155	4.02113
6.23735	4.00236
6.27336	3.98369
6.30957	3.96509
6.346	3.94659
6.38263	3.92816
6.41948	3.90983
6.45654	3.89157
6.49382	3.8734
6.53131	3.85531
6.56901	3.83731
6.60693	3.81939
6.64508	3.80155
6.68344	3.78379
6.72202	3.76612
6.76083	3.74852
6.79986	3.73101
6.83912	3.71358
6.8786	3.69622
6.91831	3.67895
6.95825	3.66176
6.99842	3.64464
7.03882	3.62761
7.07946	3.61065
7.12033	3.59378
7.16143	3.57697
7.20278	3.56025
7.24436	3.54361
7.28618	3.52704
7.32825	3.51055
7.37055	3.49413
7.4131	3.47779
7.4559	3.46153
7.49894	3.44534
7.54223	3.42922
7.58578	3.41318
7.62957	3.39722
7.67361	3.38133
7.71792	3.36551
7.76247	3.34976
7.80728	3.33409
7.85236	3.31849
7.89769	3.30297
7.94328	3.28751
7.98914	3.27213
8.03526	3.25683
8.08165	3.24159
8.12831	3.22643
8.17523	3.21134
8.22243	3.19631
8.2699	3.18136
8.31764	3.16648
8.36566	3.15166
8.41395	3.13691
8.46253	3.12224
8.51138	3.10763
8.56052	3.09309
8.60994	3.07861
8.65964	3.06421
8.70964	3.04987
8.75992	3.03559
8.81049	3.02139
8.86135	3.00725
8.91251	2.99317
8.96396	2.97916
9.01571	2.96522
9.06776	2.95134
9.12011	2.93752
9.17276	2.92377
9.22571	2.91009
9.27897	2.89647
9.33254	2.88291
9.38642	2.86941
9.44061	2.85598
9.49511	2.84261
9.54993	2.82931
9.60506	2.81606
9.66051	2.80288
9.71628	2.78976
9.77237	2.7767
9.82879	2.7637
9.88553	2.75076
9.9426	2.73788
10	2.72507
10.0577	2.71231
10.1158	2.69961
10.1742	2.68697
10.2329	2.67439
10.292	2.66187
10.3514	2.64941
10.4112	2.63701
10.4713	2.62467
10.5317	2.61238
10.5925	2.60015
10.6537	2.58798
10.7152	2.57587
10.7771	2.56381
10.8393	2.55181
10.9018	2.53987
10.9648	2.52798
11.0281	2.51615
11.0917	2.50437
11.1558	2.49265
11.2202	2.48098
11.285	2.46937
11.3501	2.45782
11.4156	2.44632
11.4815	2.43487
11.5478	2.42348
11.6145	2.41214
11.6815	2.40085
11.749	2.38962
11.8168	2.37844
11.885	2.36731
11.9536	2.35624
12.0226	2.34521
12.0921	2.33424
12.1619	2.32333
12.2321	2.31246
12.3027	2.30165
12.3737	2.29088
12.4451	2.28017
12.517	2.26951
12.5893	2.25889
12.6619	2.24833
12.735	2.23782
12.8086	2.22736
12.8825	2.21695
12.9569	2.20659
13.0317	2.19627
13.1069	2.18601
13.1826	2.17579
13.2587	2.16562
13.3352	2.15551
13.4122	2.14543
13.4896	2.13541
13.5675	2.12544
13.6458	2.11551
13.7246	2.10563
13.8038	2.09579
13.8835	2.08601
13.9637	2.07627
14.0443	2.06657
14.1254	2.05692
14.2069	2.04732
14.2889	2.03777
14.3714	2.02826
14.4544	2.01879
14.5378	2.00937
14.6218	2
14.7062	1.99066
14.7911	1.98138
14.8765	1.97214
14.9624	1.96294
15.0487	1.95379
15.1356	1.94468
15.223	1.93561
15.3109	1.92659
15.3993	1.91761
15.4882	1.90867
15.5776	1.89978
15.6675	1.89092
15.758	1.88212
15.8489	1.87335
15.9404	1.86462
16.0325	1.85594
16.125	1.8473
16.2181	1.8387
16.3117	1.83014
16.4059	1.82162
16.5006	1.81314
16.5959	1.80471
16.6917	1.79631
16.788	1.78796
16.885	1.77964
16.9824	1.77137
17.0805	1.76313
17.1791	1.75493
17.2783	1.74678
17.378	1.73866
17.4783	1.73058
17.5792	1.72254
17.6807	1.71454
17.7828	1.70658
17.8855	1.69865
17.9887	1.69077
18.0926	1.68292
18.197	1.67511
18.3021	1.66734
18.4077	1.6596
18.514	1.65191
18.6209	1.64424
18.7284	1.63662
18.8365	1.62903
18.9452	1.62148
19.0546	1.61397
19.1646	1.60649
19.2752	1.59905
19.3865	1.59165
19.4984	1.58428
19.611	1.57694
19.7242	1.56964
19.8381	1.56238
19.9526	1.55515
20.0678	1.54796
20.1837	1.5408
20.3002	1.53368
20.4174	1.52659
20.5353	1.51953
20.6538	1.51251
20.773	1.50553
20.893	1.49857
21.0136	1.49166
21.1349	1.48477
21.2569	1.47792
21.3796	1.4711
21.503	1.46431
21.6272	1.45756
21.752	1.45084
21.8776	1.44416
22.0039	1.4375
22.1309	1.43088
22.2587	1.42429
22.3872	1.41773
22.5165	1.4112
22.6464	1.40471
22.7772	1.39825
22.9087	1.39182
23.0409	1.38542
23.1739	1.37905
23.3077	1.37271
23.4423	1.3664
23.5776	1.36013
23.7137	1.35388
23.8506	1.34767
23.9883	1.34148
24.1268	1.33533
24.2661	1.3292
24.4062	1.32311
24.5471	1.31704
24.6888	1.31101
24.8313	1.305
24.9747	1.29903
25.1189	1.29308
25.2639	1.28716
25.4097	1.28127
25.5564	1.27541
25.704	1.26958
25.8523	1.26378
26.0016	1.258
26.1517	1.25226
26.3027	1.24654
26.4545	1.24085
26.6073	1.23518
26.7609	1.22955
26.9153	1.22394
27.0707	1.21836
27.227	1.21281
27.3842	1.20729
27.5423	1.20179
27.7013	1.19632
27.8612	1.19088
28.0221	1.18546
28.1838	1.18007
28.3465	1.17471
28.5102	1.16937
28.6748	1.16406
28.8403	1.15877
29.0068	1.15351
29.1743	1.14828
29.3427	1.14307
29.5121	1.13789
29.6825	1.13273
29.8538	1.1276
30.0262	1.1225
30.1995	1.11742
30.3739	1.11236
30.5492	1.10733
30.7256	1.10233
30.903	1.09735
31.0814	1.09239
31.2608	1.08746
31.4413	1.08255
31.6228	1.07767
31.8053	1.07281
31.989	1.06798
32.1736	1.06316
32.3594	1.05838
32.5462	1.05361
32.7341	1.04887
32.923	1.04416
33.1131	1.03947
33.3043	1.0348
33.4965	1.03015
33.6899	1.02553
33.8844	1.02093
34.08	1.01635
34.2768	1.01179
34.4747	1.00726
34.6737	1.00275
34.8739	0.998263
35.0752	0.993797
35.2777	0.989354
35.4813	0.984933
35.6862	0.980534
35.8922	0.976157
36.0994	0.971802
36.3078	0.967468
36.5174	0.963156
36.7282	0.958866
36.9403	0.954597
37.1535	0.950349
37.368	0.946122
37.5837	0.941916
37.8007	0.937732
38.0189	0.933568
38.2384	0.929425
38.4592	0.925302
38.6812	0.921201
38.9045	0.917119
39.1291	0.913058
39.355	0.909018
39.5822	0.904997
39.8107	0.900997
40.0405	0.897017
40.2717	0.893056
40.5042	0.889116
40.738	0.885195
40.9732	0.881294
41.2098	0.877412
41.4477	0.87355
41.6869	0.869707
41.9276	0.865883
42.1697	0.862079
42.4131	0.858294
42.658	0.854527
42.9042	0.85078
43.1519	0.847051
43.401	0.843341
43.6516	0.83965
43.9036	0.835977
44.157	0.832323
44.412	0.828687
44.6684	0.82507
44.9262	0.821471
45.1856	0.817889
45.4465	0.814326
45.7088	0.810781
45.9727	0.807254
46.2381	0.803744
46.505	0.800252
46.7735	0.796778
47.0435	0.793321
47.3151	0.789882
47.5883	0.78646
47.863	0.783055
48.1393	0.779668
48.4172	0.776298
48.6968	0.772944
48.9779	0.769608
49.2606	0.766289
49.545	0.762986
49.831	0.7597
50.1187	0.756431
50.4081	0.753178
50.6991	0.749942
50.9918	0.746722
51.2861	0.743519
51.5822	0.740332
51.88	0.73716
52.1795	0.734006
52.4807	0.730867
52.7837	0.727744
53.0884	0.724637
53.3949	0.721545
53.7032	0.71847
54.0132	0.71541
54.325	0.712365
54.6387	0.709337
54.9541	0.706323
55.2713	0.703325
55.5904	0.700342
55.9114	0.697375
56.2341	0.694422
56.5588	0.691485
56.8853	0.688562
57.2137	0.685655
57.544	0.682762
57.8762	0.679884
58.2103	0.677021
58.5464	0.674173
58.8844	0.671339
59.2243	0.66852
59.5662	0.665715
59.9101	0.662924
60.256	0.660148
60.6038	0.657386
60.9537	0.654638
61.3056	0.651904
61.6595	0.649184
62.0155	0.646478
62.3735	0.643786
62.7336	0.641108
63.0957	0.638444
63.46	0.635793
63.8263	0.633156
64.1948	0.630533
64.5654	0.627923
64.9382	0.625327
65.3131	0.622744
65.6901	0.620174
66.0693	0.617617
66.4508	0.615074
66.8344	0.612544
67.2202	0.610027
67.6083	0.607522
67.9986	0.605031
68.3912	0.602553
68.786	0.600087
69.1831	0.597635
69.5825	0.595195
69.9842	0.592767
70.3882	0.590352
70.7946	0.58795
71.2033	0.58556
71.6143	0.583183
72.0278	0.580818
72.4436	0.578465
72.8618	0.576124
73.2825	0.573796
73.7055	0.57148
74.131	0.569175
74.559	0.566883
74.9894	0.564603
75.4223	0.562334
75.8578	0.560078
76.2957	0.557833
76.7361	0.555599
77.1792	0.553378
77.6247	0.551168
78.0728	0.54897
78.5236	0.546783
78.9769	0.544607
79.4328	0.542443
79.8914	0.540291
80.3526	0.538149
80.8165	0.536019
81.2831	0.5339
81.7523	0.531792
82.2243	0.529695
82.699	0.527609
83.1764	0.525534
83.6566	0.52347
84.1395	0.521417
84.6253	0.519375
85.1138	0.517343
85.6052	0.515322
86.0994	0.513312
86.5964	0.511312
87.0964	0.509323
87.5992	0.507345
88.1049	0.505376
88.6135	0.503419
89.1251	0.501471
89.6396	0.499534
90.1571	0.497607
90.6776	0.495691
91.2011	0.493784
91.7276	0.491888
92.2571	0.490001
92.7897	0.488125
93.3254	0.486259
93.8642	0.484402
94.4061	0.482556
94.9511	0.480719
95.4993	0.478892
96.0506	0.477075
96.6051	0.475267
97.1628	0.473469
97.7237	0.471681
98.2879	0.469902
98.8553	0.468133
99.426	0.466373
100	0.464622
100.577	0.462881
101.158	0.46115
101.742	0.459427
102.329	0.457714
102.92	0.45601
103.514	0.454315
104.112	0.452629
104.713	0.450953
105.317	0.449285
105.925	0.447626
106.537	0.445976
107.152	0.444336
107.771	0.442704
108.393	0.44108
109.018	0.439466
109.648	0.43786
110.281	0.436263
110.917	0.434675
111.558	0.433095
112.202	0.431524
112.85	0.429961
113.501	0.428407
114.156	0.426861
114.815	0.425323
115.478	0.423794
116.145	0.422274
116.815	0.420761
117.49	0.419257
118.168	0.417761
118.85	0.416273
119.536	0.414793
120.226	0.413322
120.921	0.411858
121.619	0.410403
122.321	0.408955
123.027	0.407515
123.737	0.406084
124.451	0.40466
125.17	0.403244
125.893	0.401835
126.619	0.400435
127.35	0.399042
128.086	0.397657
128.825	0.396279
129.569	0.39491
130.317	0.393547
131.069	0.392193
131.826	0.390845
132.587	0.389505
133.352	0.388173
134.122	0.386848
134.896	0.38553
135.675	0.38422
136.458	0.382917
137.246	0.381621
138.038	0.380333
138.835	0.379052
139.637	0.377777
140.443	0.37651
141.254	0.37525
142.069	0.373997
142.889	0.372752
143.714	0.371513
144.544	0.370281
145.378	0.369056
146.218	0.367837
147.062	0.366626
147.911	0.365422
148.765	0.364224
149.624	0.363033
150.487	0.361849
151.356	0.360672
152.23	0.359501
153.109	0.358337
153.993	0.357179
154.882	0.356028
155.776	0.354884
156.675	0.353746
157.58	0.352614
158.489	0.351489
159.404	0.350371
160.325	0.349259
161.25	0.348153
162.181	0.347053
163.117	0.34596
164.059	0.344873
165.006	0.343793
165.959	0.342718
166.917	0.34165
167.88	0.340588
168.85	0.339532
169.824	0.338482
170.805	0.337438
171.791	0.336401
172.783	0.335369
173.78	0.334343
174.783	0.333323
175.792	0.332309
176.807	0.331302
177.828	0.3303
178.855	0.329303
179.887	0.328313
180.926	0.327328
181.97	0.32635
183.021	0.325376
184.077	0.324409
185.14	0.323447
186.209	0.322491
187.284	0.321541
188.365	0.320596
189.452	0.319657
190.546	0.318724
191.646	0.317795
192.752	0.316873
193.865	0.315956
194.984	0.315044
196.11	0.314138
197.242	0.313237
198.381	0.312342
199.526	0.311452
200.678	0.310567
201.837	0.309688
203.002	0.308813
204.174	0.307945
205.353	0.307081
206.538	0.306223
207.73	0.305369
208.93	0.304521
210.136	0.303678
211.349	0.30284
212.569	0.302008
213.796	0.30118
215.03	0.300357
216.272	0.29954
217.52	0.298727
218.776	0.29792
220.039	0.297117
221.309	0.296319
222.587	0.295526
223.872	0.294738
225.165	0.293955
226.464	0.293177
227.772	0.292404
229.087	0.291635
230.409	0.290871
231.739	0.290112
233.077	0.289357
234.423	0.288608
235.776	0.287863
237.137	0.287122
238.506	0.286387
239.883	0.285656
241.268	0.284929
242.661	0.284207
244.062	0.28349
245.471	0.282777
246.888	0.282069
248.313	0.281365
249.747	0.280666
251.189	0.279971
252.639	0.279281
254.097	0.278595
255.564	0.277913
257.04	0.277236
258.523	0.276563
260.016	0.275895
261.517	0.27523
263.027	0.27457
264.545	0.273915
266.073	0.273263
267.609	0.272616
269.153	0.271973
270.707	0.271335
272.27	0.2707
273.842	0.27007
275.423	0.269443
277.013	0.268821
278.612	0.268203
280.221	0.267589
281.838	0.266979
283.465	0.266374
285.102	0.265772
286.748	0.265174
288.403	0.26458
290.068	0.263991
291.743	0.263405
293.427	0.262823
295.121	0.262245
296.825	0.261671
298.538	0.261101
300.262	0.260534
301.995	0.259972
303.739	0.259413
305.492	0.258858
307.256	0.258307
309.03	0.25776
310.814	0.257217
312.608	0.256677
314.413	0.256141
316.228	0.255609
318.053	0.25508
319.89	0.254555
321.736	0.254034
323.594	0.253516
325.462	0.253002
327.341	0.252492
329.23	0.251985
331.131	0.251482
333.043	0.250983
334.965	0.250487
336.899	0.249994
338.844	0.249505
340.8	0.24902
342.768	0.248538
344.747	0.248059
346.737	0.247584
348.739	0.247113
350.752	0.246644
352.777	0.24618
354.813	0.245718
356.862	0.24526
358.922	0.244805
360.994	0.244354
363.078	0.243906
365.174	0.243462
367.282	0.24302
369.403	0.242582
371.535	0.242147
373.68	0.241716
375.837	0.241288
378.007	0.240862
380.189	0.240441
382.384	0.240022
384.592	0.239607
386.812	0.239194
389.045	0.238785
391.291	0.238379
393.55	0.237976
395.822	0.237577
398.107	0.23718
400.405	0.236786
402.717	0.236396
405.042	0.236009
407.38	0.235624
409.732	0.235243
412.098	0.234864
414.477	0.234489
416.869	0.234117
419.276	0.233748
421.697	0.233381
424.131	0.233018
426.58	0.232657
429.042	0.2323
431.519	0.231945
434.01	0.231593
436.516	0.231244
439.036	0.230898
441.57	0.230555
444.12	0.230215
446.684	0.229878
449.262	0.229543
451.856	0.229211
454.465	0.228882
457.088	0.228556
459.727	0.228232
462.381	0.227912
465.05	0.227594
467.735	0.227278
470.435	0.226966
473.151	0.226656
475.883	0.226349
478.63	0.226045
481.393	0.225743
484.172	0.225444
486.968	0.225147
489.779	0.224853
492.606	0.224551
495.45	0.224251
498.31	0.223954
501.187	0.223659
504.081	0.223367
506.991	0.223077
509.918	0.222789
512.861	0.222504
515.822	0.222222
518.8	0.221942
521.795	0.221664
524.807	0.221388
527.837	0.221115
530.884	0.220845
533.949	0.220577
537.032	0.220311
540.132	0.220047
543.25	0.219786
546.387	0.219527
549.541	0.21927
552.713	0.219016
555.904	0.218764
559.114	0.218514
562.341	0.218266
565.588	0.218021
568.853	0.217778
572.137	0.217537
575.44	0.217298
578.762	0.217062
582.103	0.216828
585.464	0.216596
588.844	0.216366
592.243	0.216138
595.662	0.215912
599.101	0.215689
602.56	0.215468
606.038	0.215248
609.537	0.215031
613.056	0.214816
616.595	0.214604
620.155	0.214393
623.735	0.214184
627.336	0.213977
630.957	0.213773
634.6	0.21357
638.263	0.213369
641.948	0.213171
645.654	0.212974
649.382	0.21278
653.131	0.212587
656.901	0.212397
660.693	0.212208
664.508	0.212021
668.344	0.211837
672.202	0.211654
676.083	0.211473
679.986	0.211294
683.912	0.211117
687.86	0.210942
691.831	0.210769
695.825	0.210598
699.842	0.210428
703.882	0.210261
707.946	0.210095
712.033	0.209931
716.143	0.209769
720.278	0.209609
724.436	0.209451
728.618	0.209294
732.825	0.209139
737.055	0.208986
741.31	0.208835
745.59	0.208686
749.894	0.208538
754.223	0.208392
758.578	0.208248
762.957	0.208105
767.361	0.207965
771.792	0.207826
776.247	0.207688
780.728	0.207553
785.236	0.207419
789.769	0.207287
794.328	0.207156
798.914	0.207027
803.526	0.2069
808.165	0.206774
812.831	0.20665
817.523	0.206528
822.243	0.206407
826.99	0.206288
831.764	0.206171
836.566	0.206055
841.395	0.205941
846.253	0.205828
851.138	0.205717
856.052	0.205607
860.994	0.205499
865.964	0.205393
870.964	0.205288
875.992	0.205185
881.049	0.205083
886.135	0.204982
891.251	0.204884
896.396	0.204786
901.571	0.20469
906.776	0.204596
912.011	0.204503
917.276	0.204412
922.571	0.204322
927.897	0.204233
933.254	0.204146
938.642	0.20406
944.061	0.203976
949.511	0.203893
954.993	0.203812
960.506	0.203732
966.051	0.203653
971.628	0.203576
977.237	0.2035
982.879	0.203425
988.553	0.203352
994.26	0.20328
1000	0.20321
1005.77	0.203141
1011.58	0.203073
1017.42	0.203007
1023.29	0.202941
1029.2	0.202878
1035.14	0.202815
1041.12	0.202754
1047.13	0.202694
1053.17	0.202635
1059.25	0.202578
1065.37	0.202522
1071.52	0.202467
1077.71	0.202413
1083.93	0.202361
1090.18	0.20231
1096.48	0.20226
1102.81	0.202211
1109.17	0.202163
1115.58	0.202117
1122.02	0.202072
1128.5	0.202028
1135.01	0.201985
1141.56	0.201944
1148.15	0.201904
1154.78	0.201864
1161.45	0.201826
1168.15	0.201789
1174.9	0.201754
1181.68	0.201719
1188.5	0.201686
1195.36	0.201653
1202.26	0.201622
1209.21	0.201592
1216.19	0.201563
1223.21	0.201535
1230.27	0.201508
1237.37	0.201482
1244.51	0.201457
1251.7	0.201434
1258.93	0.201411
1266.19	0.20139
1273.5	0.201369
1280.86	0.20135
1288.25	0.201331
1295.69	0.201314
1303.17	0.201298
1310.69	0.201282
1318.26	0.201268
1325.87	0.201255
1333.52	0.201242
1341.22	0.201231
1348.96	0.201221
1356.75	0.201211
1364.58	0.201203
1372.46	0.201195
1380.38	0.201189
1388.35	0.201183
1396.37	0.201179
1404.43	0.201175
1412.54	0.201172
1420.69	0.201171
1428.89	0.20117
1437.14	0.20117
1445.44	0.201171
1453.78	0.201173
1462.18	0.201176
1470.62	0.201179
1479.11	0.201184
1487.65	0.201189
1496.24	0.201195
1504.87	0.201203
1513.56	0.201211
1522.3	0.201219
1531.09	0.201229
1539.93	0.20124
1548.82	0.201251
1557.76	0.201263
1566.75	0.201277
1575.8	0.20129
1584.89	0.201305
1594.04	0.201321
1603.25	0.201337
1612.5	0.201354
1621.81	0.201372
1631.17	0.201391
1640.59	0.20141
1650.06	0.201431
1659.59	0.201452
1669.17	0.201473
1678.8	0.201496
1688.5	0.201519
1698.24	0.201543
1708.05	0.201568
1717.91	0.201594
1727.83	0.20162
1737.8	0.201647
1747.83	0.201675
1757.92	0.201703
1768.07	0.201732
1778.28	0.201762
1788.55	0.201793
1798.87	0.201824
1809.26	0.201856
1819.7	0.201889
1830.21	0.201922
1840.77	0.201956
1851.4	0.201991
1862.09	0.202026
1872.84	0.202062
1883.65	0.202099
1894.52	0.202136
1905.46	0.202174
1916.46	0.202213
1927.52	0.202252
1938.65	0.202292
1949.84	0.202332
1961.1	0.202373
1972.42	0.202415
1983.81	0.202457
1995.26	0.2025
2006.78	0.202544
2018.37	0.202588
2030.02	0.202633
2041.74	0.202678
2053.53	0.202724
2065.38	0.202771
2077.3	0.202818
2089.3	0.202866
2101.36	0.202914
2113.49	0.202963
2125.69	0.203012
2137.96	0.203062
2150.3	0.203112
2162.72	0.203163
2175.2	0.203215
2187.76	0.203267
2200.39	0.20332
2213.09	0.203373
2225.87	0.203426
2238.72	0.203481
2251.65	0.203535
2264.64	0.20359
2277.72	0.203646
2290.87	0.203702
2304.09	0.203759
2317.39	0.203816
2330.77	0.203874
2344.23	0.203932
2357.76	0.203991
2371.37	0.20405
2385.06	0.20411
2398.83	0.20417
2412.68	0.20423
2426.61	0.204291
2440.62	0.204353
2454.71	0.204414
2468.88	0.204477
2483.13	0.20454
2497.47	0.204603
2511.89	0.204667
2526.39	0.204731
2540.97	0.204795
2555.64	0.20486
2570.4	0.204926
2585.23	0.204991
2600.16	0.205058
2615.17	0.205124
2630.27	0.205191
2645.45	0.205259
2660.73	0.205327
2676.09	0.205395
2691.53	0.205464
2707.07	0.205533
2722.7	0.205602
2738.42	0.205672
2754.23	0.205742
2770.13	0.205812
2786.12	0.205883
2802.21	0.205955
2818.38	0.206026
2834.65	0.206098
2851.02	0.206171
2867.48	0.206243
2884.03	0.206317
2900.68	0.20639
2917.43	0.206464
2934.27	0.206538
2951.21	0.206612
2968.25	0.206687
2985.38	0.206762
3002.62	0.206838
3019.95	0.206913
3037.39	0.20699
3054.92	0.207066
3072.56	0.207143
3090.3	0.20722
3108.14	0.207297
3126.08	0.207375
3144.13	0.207453
3162.28	0.207531
3180.53	0.20761
3198.9	0.207688
3217.36	0.207768
3235.94	0.207847
3254.62	0.207927
3273.41	0.208007
3292.3	0.208087
3311.31	0.208168
3330.43	0.208248
3349.65	0.20833
3368.99	0.208411
3388.44	0.208493
3408	0.208574
3427.68	0.208657
3447.47	0.208739
3467.37	0.208822
3487.39	0.208905
3507.52	0.208988
3527.77	0.209071
3548.13	0.209155
3568.62	0.209239
3589.22	0.209323
3609.94	0.209407
3630.78	0.209492
3651.74	0.209577
3672.82	0.209662
3694.03	0.209747
3715.35	0.209833
3736.8	0.209918
3758.37	0.210004
3780.07	0.210091
3801.89	0.210177
3823.84	0.210264
3845.92	0.21035
3868.12	0.210437
3890.45	0.210525
3912.91	0.210612
3935.5	0.2107
3958.22	0.210788
3981.07	0.210876
4004.05	0.210964
4027.17	0.211052
4050.42	0.211141
4073.8	0.211229
4097.32	0.211318
4120.98	0.211408
4144.77	0.211497
4168.69	0.211586
4192.76	0.211676
4216.97	0.211766
4241.31	0.211856
4265.8	0.211946
4290.42	0.212036
4315.19	0.212127
4340.1	0.212217
4365.16	0.212308
4390.36	0.212399
4415.7	0.21249
4441.2	0.212582
4466.84	0.212673
4492.62	0.212765
4518.56	0.212856
4544.65	0.212948
4570.88	0.21304
4597.27	0.213132
4623.81	0.213225
4650.5	0.213317
4677.35	0.21341
4704.35	0.213502
4731.51	0.213595
4758.83	0.213688
4786.3	0.213781
4813.93	0.213875
4841.72	0.213968
4869.68	0.214061
4897.79	0.214155
4926.06	0.214249
4954.5	0.214342
4983.1	0.214436
5011.87	0.21453
5040.81	0.214625
5069.91	0.214719
5099.18	0.214813
5128.61	0.214908
5158.22	0.215002
5188	0.215097
5217.95	0.215192
5248.07	0.215287
5278.37	0.215382
5308.84	0.215477
5339.49	0.215572
5370.32	0.215667
5401.32	0.215763
5432.5	0.215858
5463.87	0.215954
5495.41	0.21605
5527.13	0.216145
5559.04	0.216241
5591.14	0.216337
5623.41	0.216433
5655.88	0.216529
5688.53	0.216625
5721.37	0.216721
5754.4	0.216818
5787.62	0.216914
5821.03	0.217011
5854.64	0.217107
5888.44	0.217204
5922.43	0.2173
5956.62	0.217397
5991.01	0.217494
6025.6	0.217591
6060.38	0.217688
6095.37	0.217785
6130.56	0.217882
6165.95	0.217979
6201.55	0.218076
6237.35	0.218174
6273.36	0.218271
6309.57	0.218368
6346	0.218466
6382.63	0.218563
6419.48	0.218661
6456.54	0.218758
6493.82	0.218856
6531.31	0.218954
6569.01	0.219051
6606.93	0.219149
6645.08	0.219247
6683.44	0.219345
6722.02	0.219443
6760.83	0.219541
6799.86	0.219639
6839.12	0.219737
6878.6	0.219835
6918.31	0.219933
6958.25	0.220031
6998.42	0.220129
7038.82	0.220227
7079.46	0.220326
7120.33	0.220424
7161.43	0.220522
7202.78	0.220621
7244.36	0.220719
7286.18	0.220817
7328.25	0.220916
7370.55	0.221014
7413.1	0.221113
7455.9	0.221211
7498.94	0.22131
7542.23	0.221408
7585.78	0.221507
7629.57	0.221606
7673.61	0.221704
7717.92	0.221803
7762.47	0.221901
7807.28	0.222
7852.36	0.222099
7897.69	0.222198
7943.28	0.222296
7989.14	0.222395
8035.26	0.222494
8081.65	0.222593
8128.31	0.222691
8175.23	0.22279
8222.43	0.222889
8269.9	0.222988
8317.64	0.223087
8365.66	0.223185
8413.95	0.223284
8462.53	0.223383
8511.38	0.223482
8560.52	0.223581
8609.94	0.22368
8659.64	0.223779
8709.64	0.223878
8759.92	0.223976
8810.49	0.224075
8861.35	0.224174
8912.51	0.224273
8963.96	0.224372
9015.71	0.224471
9067.76	0.22457
9120.11	0.224669
9172.76	0.224767
9225.71	0.224866
9278.97	0.224965
9332.54	0.225064
9386.42	0.225163
9440.61	0.225262
9495.11	0.225361
9549.93	0.225459
9605.06	0.225558
9660.51	0.225657
9716.28	0.225756
9772.37	0.225855
9828.79	0.225954
9885.53	0.226052
9942.6	0.226151
10000	0.22625
10057.7	0.226349
10115.8	0.226447
10174.2	0.226546
10232.9	0.226645
10292	0.226744
10351.4	0.226842
10411.2	0.226941
10471.3	0.22704
10531.7	0.227138
10592.5	0.227237
10653.7	0.227335
10715.2	0.227434
10777.1	0.227533
10839.3	0.227631
10901.8	0.22773
10964.8	0.227828
11028.1	0.227927
11091.7	0.228025
11155.8	0.228124
11220.2	0.228222
11285	0.228321
11350.1	0.228419
11415.6	0.228517
11481.5	0.228616
11547.8	0.228714
11614.5	0.228812
11681.5	0.228911
11749	0.229009
11816.8	0.229107
11885	0.229205
11953.6	0.229303
12022.6	0.229402
12092.1	0.2295
12161.9	0.229598
12232.1	0.229696
12302.7	0.229794
12373.7	0.229892
12445.1	0.22999
12517	0.230088
12589.3	0.230186
12661.9	0.230284
12735	0.230382
12808.6	0.23048
12882.5	0.230577
12956.9	0.230675
13031.7	0.230773
13106.9	0.230871
13182.6	0.230968
13258.7	0.231066
13335.2	0.231164
13412.2	0.231261
13489.6	0.231359
13567.5	0.231456
13645.8	0.231554
13724.6	0.231651
13803.8	0.231749
13883.5	0.231846
13963.7	0.231944
14044.3	0.232041
14125.4	0.232138
14206.9	0.232236
14288.9	0.232333
14371.4	0.23243
14454.4	0.232527
14537.8	0.232624
14621.8	0.232721
14706.2	0.232818
14791.1	0.232916
14876.5	0.233013
14962.4	0.233109
15048.7	0.233206
15135.6	0.233303
15223	0.2334
15310.9	0.233497
15399.3	0.233594
15488.2	0.233691
15577.6	0.233787
15667.5	0.233884
15758	0.233981
15848.9	0.234077
15940.4	0.234174
16032.5	0.23427
16125	0.234367
16218.1	0.234463
16311.7	0.234559
16405.9	0.234656
16500.6	0.234752
16595.9	0.234848
16691.7	0.234945
16788	0.235041
16885	0.235137
16982.4	0.235233
17080.5	0.235329
17179.1	0.235425
17278.3	0.235521
17378	0.235617
17478.3	0.235713
17579.2	0.235809
17680.7	0.235905
17782.8	0.236001
17885.5	0.236097
17988.7	0.236192
18092.6	0.236288
18197	0.236384
18302.1	0.236479
18407.7	0.236575
18514	0.23667
18620.9	0.236766
18728.4	0.236861
18836.5	0.236957
18945.2	0.237052
19054.6	0.237147
19164.6	0.237242
19275.2	0.237338
19386.5	0.237433
19498.4	0.237528
19611	0.237623
19724.2	0.237718
19838.1	0.237813
19952.6	0.237908
20067.8	0.238003
20183.7	0.238098
20300.2	0.238193
20417.4	0.238288
20535.3	0.238382
20653.8	0.238477
20773	0.238572
20893	0.238666
21013.6	0.238761
21134.9	0.238856
21256.9	0.23895
21379.6	0.239044
21503	0.239139
21627.2	0.239233
21752	0.239328
21877.6	0.239422
22003.9	0.239516
22130.9	0.23961
22258.7	0.239705
22387.2	0.239799
22516.5	0.239893
22646.4	0.239987
22777.2	0.240081
22908.7	0.240175
23040.9	0.240269
23173.9	0.240362
23307.7	0.240456
23442.3	0.24055
23577.6	0.240644
23713.7	0.240737
23850.6	0.240831
23988.3	0.240925
24126.8	0.241018
24266.1	0.241112
24406.2	0.241205
24547.1	0.241299
24688.8	0.241392
24831.3	0.241485
24974.7	0.241579
25118.9	0.241672
25263.9	0.241765
25409.7	0.241858
25556.4	0.241951
25704	0.242044
25852.3	0.242137
26001.6	0.24223
26151.7	0.242323
26302.7	0.242416
26454.5	0.242509
26607.3	0.242602
26760.9	0.242695
26915.3	0.242787
27070.7	0.24288
27227	0.242973
27384.2	0.243065
27542.3	0.243158
27701.3	0.24325
27861.2	0.243343
28022.1	0.243435
28183.8	0.243528
28346.5	0.24362
28510.2	0.243712
28674.8	0.243805
28840.3	0.243897
29006.8	0.243989
29174.3	0.244081
29342.7	0.244173
29512.1	0.244265
29682.5	0.244357
29853.8	0.244449
30026.2	0.244541
30199.5	0.244633
30373.9	0.244725
30549.2	0.244817
30725.6	0.244908
30903	0.245
31081.4	0.245092
31260.8	0.245183
31441.3	0.245275
31622.8	0.245366
31805.3	0.245458
31989	0.245549
32173.6	0.245641
32359.4	0.245732
32546.2	0.245824
32734.1	0.245915
32923	0.246006
33113.1	0.246097
33304.3	0.246188
33496.5	0.24628
33689.9	0.246371
33884.4	0.246462
34080	0.246553
34276.8	0.246644
34474.7	0.246735
34673.7	0.246825
34873.9	0.246916
35075.2	0.247007
35277.7	0.247098
35481.3	0.247188
35686.2	0.247279
35892.2	0.24737
36099.4	0.24746
36307.8	0.247551
36517.4	0.247641
36728.2	0.247732
36940.3	0.247822
37153.5	0.247913
37368	0.248003
37583.7	0.248093
37800.7	0.248184
38018.9	0.248274
38238.4	0.248364
38459.2	0.248454
38681.2	0.248544
38904.5	0.248634
39129.1	0.248724
39355	0.248814
39582.2	0.248904
39810.7	0.248994
40040.5	0.249084
40271.7	0.249174
40504.2	0.249264
40738	0.249353
40973.2	0.249443
41209.8	0.249533
41447.7	0.249622
41686.9	0.249712
41927.6	0.249802
42169.7	0.249891
42413.1	0.249981
42658	0.25007
42904.2	0.25016
43151.9	0.250249
43401	0.250338
43651.6	0.250428
43903.6	0.250517
44157	0.250606
44412	0.250695
44668.4	0.250784
44926.2	0.250873
45185.6	0.250962
45446.5	0.251052
45708.8	0.251141
45972.7	0.251229
46238.1	0.251318
46505	0.251407
46773.5	0.251496
47043.5	0.251585
47315.1	0.251674
47588.3	0.251762
47863	0.251851
48139.3	0.25194
48417.2	0.252028
48696.8	0.252117
48977.9	0.252206
49260.6	0.252294
49545	0.252383
49831	0.252471
50118.7	0.25256
50408.1	0.252648
50699.1	0.252736
50991.8	0.252825
51286.1	0.252913
51582.2	0.253001
51880	0.253089
52179.5	0.253177
52480.7	0.253266
52783.7	0.253354
53088.4	0.253442
53394.9	0.25353
53703.2	0.253618
54013.2	0.253706
54325	0.253794
54638.7	0.253882
54954.1	0.253969
55271.3	0.254057
55590.4	0.254145
55911.4	0.254233
56234.1	0.254321
56558.8	0.254408
56885.3	0.254496
57213.7	0.254583
57544	0.254671
57876.2	0.254759
58210.3	0.254846
58546.4	0.254934
58884.4	0.255021
59224.3	0.255108
59566.2	0.255196
59910.1	0.255283
60256	0.25537
60603.8	0.255457
60953.7	0.255545
61305.6	0.255632
61659.5	0.255719
62015.5	0.255806
62373.5	0.255893
62733.6	0.25598
63095.7	0.256067
63460	0.256154
63826.3	0.256241
64194.8	0.256328
64565.4	0.256414
64938.2	0.256501
65313.1	0.256588
65690.1	0.256675
66069.3	0.256761
66450.8	0.256848
66834.4	0.256934
67220.2	0.257021
67608.3	0.257107
67998.6	0.257194
68391.2	0.25728
68786	0.257366
69183.1	0.257453
69582.5	0.257539
69984.2	0.257625
70388.2	0.257711
70794.6	0.257797
71203.3	0.257883
71614.3	0.257969
72027.8	0.258055
72443.6	0.258141
72861.8	0.258227
73282.5	0.258313
73705.5	0.258399
74131	0.258485
74559	0.25857
74989.4	0.258656
75422.3	0.258742
75857.8	0.258827
76295.7	0.258913
76736.1	0.258998
77179.2	0.259084
77624.7	0.259169
78072.8	0.259254
78523.6	0.25934
78976.9	0.259425
79432.8	0.25951
79891.4	0.259595
80352.6	0.25968
80816.5	0.259765
81283.1	0.25985
81752.3	0.259935
82224.3	0.26002
82699	0.260105
83176.4	0.26019
83656.6	0.260274
84139.5	0.260359
84625.3	0.260444
85113.8	0.260528
85605.2	0.260613
86099.4	0.260697
86596.4	0.260782
87096.4	0.260866
87599.2	0.260951
88104.9	0.261035
88613.5	0.261119
89125.1	0.261203
89639.6	0.261287
90157.1	0.261371
90677.6	0.261456
91201.1	0.261539
91727.6	0.261623
92257.1	0.261707
92789.7	0.261791
93325.4	0.261875
93864.2	0.261959
94406.1	0.262042
94951.1	0.262126
95499.3	0.262209
96050.6	0.262293
96605.1	0.262376
97162.8	0.26246
97723.7	0.262543
98287.9	0.262626
98855.3	0.26271
99426	0.262793
100000	0.262876
100577	0.262959
101158	0.263042
101742	0.263125
102329	0.263208
102920	0.263291
103514	0.263373
104112	0.263456
104713	0.263539
105317	0.263621
105925	0.263704
106537	0.263787
107152	0.263869
107771	0.263951
108393	0.264034
109018	0.264116
109648	0.264198
110281	0.26428
110917	0.264362
111558	0.264445
112202	0.264526
112850	0.264608
113501	0.26469
114156	0.264772
114815	0.264854
115478	0.264936
116145	0.265017
116815	0.265099
117490	0.26518
118168	0.265262
118850	0.265343
119536	0.265424
120226	0.265506
120921	0.265587
121619	0.265668
122321	0.265749
123027	0.26583
123737	0.265911
124451	0.265992
125170	0.266073
125893	0.266154
126619	0.266235
127350	0.266315
128086	0.266396
128825	0.266476
129569	0.266557
130317	0.266637
131069	0.266718
131826	0.266798
132587	0.266878
133352	0.266958
134122	0.267038
134896	0.267118
135675	0.267198
136458	0.267278
137246	0.267358
138038	0.267438
138835	0.267518
139637	0.267597
140443	0.267677
141254	0.267757
142069	0.267836
142889	0.267916
143714	0.267995
144544	0.268074
145378	0.268153
146218	0.268233
147062	0.268312
147911	0.268391
148765	0.26847
149624	0.268549
150487	0.268627
151356	0.268706
152230	0.268785
153109	0.268864
153993	0.268942
154882	0.269021
155776	0.269099
156675	0.269177
157580	0.269256
158489	0.269334
159404	0.269412
160325	0.26949
161250	0.269568
162181	0.269646
163117	0.269724
164059	0.269802
165006	0.26988
165959	0.269958
166917	0.270035
167880	0.270113
168850	0.270191
169824	0.270268
170805	0.270345
171791	0.270423
172783	0.2705
173780	0.270577
174783	0.270654
175792	0.270731
176807	0.270808
177828	0.270885
178855	0.270962
179887	0.271039
180926	0.271116
181970	0.271192
183021	0.271269
184077	0.271345
185140	0.271422
186209	0.271498
187284	0.271575
188365	0.271651
189452	0.271727
190546	0.271803
191646	0.271879
192752	0.271955
193865	0.272031
194984	0.272107
196110	0.272183
197242	0.272258
198381	0.272334
199526	0.27241
200678	0.272485
201837	0.272561
203002	0.272636
204174	0.272711
205353	0.272786
206538	0.272862
207730	0.272937
208930	0.273012
210136	0.273087
211349	0.273162
212569	0.273236
213796	0.273311
215030	0.273386
216272	0.27346
217520	0.273535
218776	0.273609
220039	0.273684
221309	0.273758
222587	0.273832
223872	0.273907
225165	0.273981
226464	0.274055
227772	0.274129
229087	0.274203
230409	0.274276
231739	0.27435
233077	0.274424
234423	0.274498
235776	0.274571
237137	0.274645
238506	0.274718
239883	0.274791
241268	0.274865
242661	0.274938
244062	0.275011
245471	0.275084
246888	0.275157
248313	0.27523
249747	0.275303
251189	0.275376
252639	0.275449
254097	0.275521
255564	0.275594
257040	0.275666
258523	0.275739
260016	0.275811
261517	0.275884
263027	0.275956
264545	0.276028
266073	0.2761
267609	0.276172
269153	0.276244
270707	0.276316
272270	0.276388
273842	0.27646
275423	0.276531
277013	0.276603
278612	0.276675
280221	0.276746
281838	0.276818
283465	0.276889
285102	0.27696
286748	0.277031
288403	0.277103
290068	0.277174
291743	0.277245
293427	0.277316
295121	0.277386
296825	0.277457
298538	0.277528
300262	0.277599
301995	0.277669
303739	0.27774
305492	0.27781
307256	0.277881
309030	0.277951
310814	0.278021
312608	0.278091
314413	0.278161
316228	0.278232
318053	0.278302
319890	0.278371
321736	0.278441
323594	0.278511
325462	0.278581
327341	0.27865
329230	0.27872
331131	0.278789
333043	0.278859
334965	0.278928
336899	0.278998
338844	0.279067
340800	0.279136
342768	0.279205
344747	0.279274
346737	0.279343
348739	0.279412
350752	0.279481
352777	0.27955
354813	0.279618
356862	0.279687
358922	0.279755
360994	0.279824
363078	0.279892
365174	0.279961
367282	0.280029
369403	0.280097
371535	0.280165
373680	0.280234
375837	0.280302
378007	0.28037
380189	0.280437
382384	0.280505
384592	0.280573
386812	0.280641
389045	0.280708
391291	0.280776
393550	0.280843
395822	0.280911
398107	0.280978
400405	0.281045
402717	0.281113
405042	0.28118
407380	0.281247
409732	0.281314
412098	0.281381
414477	0.281448
416869	0.281515
419276	0.281582
421697	0.281648
424131	0.281715
426580	0.281782
429042	0.281848
431519	0.281915
434010	0.281981
436516	0.282047
439036	0.282114
441570	0.28218
444120	0.282246
446684	0.282312
449262	0.282378
451856	0.282444
454465	0.28251
457088	0.282576
459727	0.282641
462381	0.282707
465050	0.282773
467735	0.282838
470435	0.282904
473151	0.282969
475883	0.283035
478630	0.2831
481393	0.283165
484172	0.28323
486968	0.283296
489779	0.283361
492606	0.283426
495450	0.283491
498310	0.283556
501187	0.28362
504081	0.283685
506991	0.28375
509918	0.283814
512861	0.283879
515822	0.283944
518800	0.284008
521795	0.284072
524807	0.284137
527837	0.284201
530884	0.284265
533949	0.284329
537032	0.284394
540132	0.284458
543250	0.284522
546387	0.284586
549541	0.284649
552713	0.284713
555904	0.284777
559114	0.284841
562341	0.284904
565588	0.284968
568853	0.285031
572137	0.285095
575440	0.285158
578762	0.285222
582103	0.285285
585464	0.285348
588844	0.285411
592243	0.285474
595662	0.285537
599101	0.2856
602560	0.285663
606038	0.285726
609537	0.285789
613056	0.285852
616595	0.285915
620155	0.285977
623735	0.28604
627336	0.286102
630957	0.286165
634600	0.286227
638263	0.28629
641948	0.286352
645654	0.286414
649382	0.286476
653131	0.286539
656901	0.286601
660693	0.286663
664508	0.286725
668344	0.286787
672202	0.286848
676083	0.28691
679986	0.286972
683912	0.287034
687860	0.287095
691831	0.287157
695825	0.287219
699842	0.28728
703882	0.287342
707946	0.287403
712033	0.287464
716143	0.287526
720278	0.287587
724436	0.287648
728618	0.287709
732825	0.28777
737055	0.287831
741310	0.287892
745590	0.287953
749894	0.288014
754223	0.288075
758578	0.288136
762957	0.288196
767361	0.288257
771792	0.288318
776247	0.288378
780728	0.288439
785236	0.288499
789769	0.28856
794328	0.28862
798914	0.28868
803526	0.288741
808165	0.288801
812831	0.288861
817523	0.288921
822243	0.288981
826990	0.289041
831764	0.289101
836566	0.289161
841395	0.289221
846253	0.289281
851138	0.289341
856052	0.2894
860994	0.28946
865964	0.28952
870964	0.289579
875992	0.289639
881049	0.289698
886135	0.289758
891251	0.289817
896396	0.289876
901571	0.289936
906776	0.289995
912011	0.290054
917276	0.290113
922571	0.290173
927897	0.290232
933254	0.290291
938642	0.29035
944061	0.290409
949511	0.290468
954993	0.290526
960506	0.290585
966051	0.290644
971628	0.290703
977237	0.290761
982879	0.29082
988553	0.290879
994260	0.290937
1e+06	0.290996
1.00577e+06	0.291054
1.01158e+06	0.291112
1.01742e+06	0.291171
1.02329e+06	0.291229
1.0292e+06	0.291287
1.03514e+06	0.291346
1.04112e+06	0.291404
1.04713e+06	0.291462
1.05317e+06	0.29152
1.05925e+06	0.291578
1.06537e+06	0.291636
1.07152e+06	0.291694
1.07771e+06	0.291752
1.08393e+06	0.29181
1.09018e+06	0.291868
1.09648e+06	0.291926
1.10281e+06	0.291983
1.10917e+06	0.292041
1.11558e+06	0.292099
1.12202e+06	0.292156
1.1285e+06	0.292214
1.13501e+06	0.292272
1.14156e+06	0.292329
1.14815e+06	0.292387
1.15478e+06	0.292444
1.16145e+06	0.292502
1.16815e+06	0.292559
1.1749e+06	0.292616
1.18168e+06	0.292674
1.1885e+06	0.292731
1.19536e+06	0.292788
1.20226e+06	0.292845
1.20921e+06	0.292902
1.21619e+06	0.292959
1.22321e+06	0.293016
1.23027e+06	0.293073
1.23737e+06	0.29313
1.24451e+06	0.293187
1.2517e+06	0.293244
1.25893e+06	0.293301
1.26619e+06	0.29331
1.2735e+06	0.29331
1.28086e+06	0.29331
1.28825e+06	0.29331
1.29569e+06	0.29331
1.30317e+06	0.29331
1.31069e+06	0.29331
1.31826e+06	0.29331
1.32587e+06	0.29331
1.33352e+06	0.29331
1.34122e+06	0.29331
1.34896e+06	0.29331
1.35675e+06	0.29331
1.36458e+06	0.29331
1.37246e+06	0.29331
1.38038e+06	0.29331
1.38835e+06	0.29331
1.39637e+06	0.29331
1.40443e+06	0.29331
1.41254e+06	0.29331
1.42069e+06	0.29331
1.42889e+06	0.29331
1.43714e+06	0.29331
1.44544e+06	0.29331
1.45378e+06	0.29331
1.46218e+06	0.29331
1.47062e+06	0.29331
1.47911e+06	0.29331
1.48765e+06	0.29331
1.49624e+06	0.29331
1.50487e+06	0.29331
1.51356e+06	0.29331
1.5223e+06	0.29331
1.53109e+06	0.29331
1.53993e+06	0.29331
1.54882e+06	0.29331
1.55776e+06	0.29331
1.56675e+06	0.29331
1.5758e+06	0.29331
1.58489e+06	0.29331
1.59404e+06	0.29331
1.60325e+06	0.29331
1.6125e+06	0.29331
1.62181e+06	0.29331
1.63117e+06	0.29331
1.64059e+06	0.29331
1.65006e+06	0.29331
1.65959e+06	0.29331
1.66917e+06	0.29331
1.6788e+06	0.29331
1.6885e+06	0.29331
1.69824e+06	0.29331
1.70805e+06	0.29331
1.71791e+06	0.29331
1.72783e+06	0.29331
1.7378e+06	0.29331
1.74783e+06	0.29331
1.75792e+06	0.29331
1.76807e+06	0.29331
1.77828e+06	0.29331
1.78855e+06	0.29331
1.79887e+06	0.29331
1.80926e+06	0.29331
1.8197e+06	0.29331
1.83021e+06	0.29331
1.84077e+06	0.29331
1.8514e+06	0.29331
1.86209e+06	0.29331
1.87284e+06	0.29331
1.88365e+06	0.29331
1.89452e+06	0.29331
1.90546e+06	0.29331
1.91646e+06	0.29331
1.92752e+06	0.29331
1.93865e+06	0.29331
1.94984e+06	0.29331
1.9611e+06	0.29331
1.97242e+06	0.29331
1.98381e+06	0.29331
1.99526e+06	0.29331
2.00678e+06	0.29331
2.01837e+06	0.29331
2.03002e+06	0.29331
2.04174e+06	0.29331
2.05353e+06	0.29331
2.06538e+06	0.29331
2.0773e+06	0.29331
2.0893e+06	0.29331
2.10136e+06	0.29331
2.11349e+06	0.29331
2.12569e+06	0.29331
2.13796e+06	0.29331
2.1503e+06	0.29331
2.16272e+06	0.29331
2.1752e+06	0.29331
2.18776e+06	0.29331
2.20039e+06	0.29331
2.21309e+06	0.29331
2.22587e+06	0.29331
2.23872e+06	0.29331
2.25165e+06	0.29331
2.26464e+06	0.29331
2.27772e+06	0.29331
2.29087e+06	0.29331
2.30409e+06	0.29331
2.31739e+06	0.29331
2.33077e+06	0.29331
2.34423e+06	0.29331
2.35776e+06	0.29331
2.37137e+06	0.29331
2.38506e+06	0.29331
2.39883e+06	0.29331
2.41268e+06	0.29331
2.42661e+06	0.29331
2.44062e+06	0.29331
2.45471e+06	0.29331
2.46888e+06	0.29331
2.48313e+06	0.29331
2.49747e+06	0.29331
2.51189e+06	0.29331
2.52639e+06	0.29331
2.54097e+06	0.29331
2.55564e+06	0.29331
2.5704e+06	0.29331
2.58523e+06	0.29331
2.60016e+06	0.29331
2.61517e+06	0.29331
2.63027e+06	0.29331
2.64545e+06	0.29331
2.66073e+06	0.29331
2.67609e+06	0.29331
2.69153e+06	0.29331
2.70707e+06	0.29331
2.7227e+06	0.29331
2.73842e+06	0.29331
2.75423e+06	0.29331
2.77013e+06	0.29331
2.78612e+06	0.29331
2.80221e+06	0.29331
2.81838e+06	0.29331
2.83465e+06	0.29331
2.85102e+06	0.29331
2.86748e+06	0.29331
2.88403e+06	0.29331
2.90068e+06	0.29331
2.91743e+06	0.29331
2.93427e+06	0.29331
2.95121e+06	0.29331
2.96825e+06	0.29331
2.98538e+06	0.29331
3.00262e+06	0.29331
3.01995e+06	0.29331
3.03739e+06	0.29331
3.05492e+06	0.29331
3.07256e+06	0.29331
3.0903e+06	0.29331
3.10814e+06	0.29331
3.12608e+06	0.29331
3.14413e+06	0.29331
3.16228e+06	0.29331
3.18053e+06	0.29331
3.1989e+06	0.29331
3.21736e+06	0.29331
3.23594e+06	0.29331
3.25462e+06	0.29331
3.27341e+06	0.29331
3.2923e+06	0.29331
3.31131e+06	0.29331
3.33043e+06	0.29331
3.34965e+06	0.29331
3.36899e+06	0.29331
3.38844e+06	0.29331
3.408e+06	0.29331
3.42768e+06	0.29331
3.44747e+06	0.29331
3.46737e+06	0.29331
3.48739e+06	0.29331
3.50752e+06	0.29331
3.52777e+06	0.29331
3.54813e+06	0.29331
3.56862e+06	0.29331
3.58922e+06	0.29331
3.60994e+06	0.29331
3.63078e+06	0.29331
3.65174e+06	0.29331
3.67282e+06	0.29331
3.69403e+06	0.29331
3.71535e+06	0.29331
3.7368e+06	0.29331
3.75837e+06	0.29331
3.78007e+06	0.29331
3.80189e+06	0.29331
3.82384e+06	0.29331
3.84592e+06	0.29331
3.86812e+06	0.29331
3.89045e+06	0.29331
3.91291e+06	0.29331
3.9355e+06	0.29331
3.95822e+06	0.29331
3.98107e+06	0.29331
4.00405e+06	0.29331
4.02717e+06	0.29331
4.05042e+06	0.29331
4.0738e+06	0.29331
4.09732e+06	0.29331
4.12098e+06	0.29331
4.14477e+06	0.29331
4.16869e+06	0.29331
4.19276e+06	0.29331
4.21697e+06	0.29331
4.24131e+06	0.29331
4.2658e+06	0.29331
4.29042e+06	0.29331
4.31519e+06	0.29331
4.3401e+06	0.29331
4.36516e+06	0.29331
4.39036e+06	0.29331
4.4157e+06	0.29331
4.4412e+06	0.29331
4.46684e+06	0.29331
4.49262e+06	0.29331
4.51856e+06	0.29331
4.54465e+06	0.29331
4.57088e+06	0.29331
4.59727e+06	0.29331
4.62381e+06	0.29331
4.6505e+06	0.29331
4.67735e+06	0.29331
4.70435e+06	0.29331
4.73151e+06	0.29331
4.75883e+06	0.29331
4.7863e+06	0.29331
4.81393e+06	0.29331
4.84172e+06	0.29331
4.86968e+06	0.29331
4.89779e+06	0.29331
4.92606e+06	0.29331
4.9545e+06	0.29331
4.9831e+06	0.29331
5.01187e+06	0.29331
5.04081e+06	0.29331
5.06991e+06	0.29331
5.09918e+06	0.29331
5.12861e+06	0.29331
5.15822e+06	0.29331
5.188e+06	0.29331
5.21795e+06	0.29331
5.24807e+06	0.29331
5.27837e+06	0.29331
5.30884e+06	0.29331
5.33949e+06	0.29331
5.37032e+06	0.29331
5.40132e+06	0.29331
5.4325e+06	0.29331
5.46387e+06	0.29331
5.49541e+06	0.29331
5.52713e+06	0.29331
5.55904e+06	0.29331
5.59114e+06	0.29331
5.62341e+06	0.29331
5.65588e+06	0.29331
5.68853e+06	0.29331
5.72137e+06	0.29331
5.7544e+06	0.29331
5.78762e+06	0.29331
5.82103e+06	0.29331
5.85464e+06	0.29331
5.88844e+06	0.29331
5.92243e+06	0.29331
5.95662e+06	0.29331
5.99101e+06	0.29331
6.0256e+06	0.29331
6.06038e+06	0.29331
6.09537e+06	0.29331
6.13056e+06	0.29331
6.16595e+06	0.29331
6.20155e+06	0.29331
6.23735e+06	0.29331
6.27336e+06	0.29331
6.30957e+06	0.29331
6.346e+06	0.29331
6.38263e+06	0.29331
6.41948e+06	0.29331
6.45654e+06	0.29331
6.49382e+06	0.29331
6.53131e+06	0.29331
6.56901e+06	0.29331
6.60693e+06	0.29331
6.64508e+06	0.29331
6.68344e+06	0.29331
6.72202e+06	0.29331
6.76083e+06	0.29331
6.79986e+06	0.29331
6.83912e+06	0.29331
6.8786e+06	0.29331
6.91831e+06	0.29331
6.95825e+06	0.29331
6.99842e+06	0.29331
7.03882e+06	0.29331
7.07946e+06	0.29331
7.12033e+06	0.29331
7.16143e+06	0.29331
7.20278e+06	0.29331
7.24436e+06	0.29331
7.28618e+06	0.29331
7.32825e+06	0.29331
7.37055e+06	0.29331
7.4131e+06	0.29331
7.4559e+06	0.29331
7.49894e+06	0.29331
7.54223e+06	0.29331
7.58578e+06	0.29331
7.62957e+06	0.29331
7.67361e+06	0.29331
7.71792e+06	0.29331
7.76247e+06	0.29331
7.80728e+06	0.29331
7.85236e+06	0.29331
7.89769e+06	0.29331
7.94328e+06	0.29331
7.98914e+06	0.29331
8.03526e+06	0.29331
8.08165e+06	0.29331
8.12831e+06	0.29331
8.17523e+06	0.29331
8.22243e+06	0.29331
8.2699e+06	0.29331
8.31764e+06	0.29331
8.36566e+06	0.29331
8.41395e+06	0.29331
8.46253e+06	0.29331
8.51138e+06	0.29331
8.56052e+06	0.29331
8.60994e+06	0.29331
8.65964e+06	0.29331
8.70964e+06	0.29331
8.75992e+06	0.29331
8.81049e+06	0.29331
8.86135e+06	0.29331
8.91251e+06	0.29331
8.96396e+06	0.29331
9.01571e+06	0.29331
9.06776e+06	0.29331
9.12011e+06	0.29331
9.17276e+06	0.29331
9.22571e+06	0.29331
9.27897e+06	0.29331
9.33254e+06	0.29331
9.38642e+06	0.29331
9.44061e+06	0.29331
9.49511e+06	0.29331
9.54993e+06	0.29331
9.60506e+06	0.29331
9.66051e+06	0.29331
9.71628e+06	0.29331
9.77237e+06	0.29331
9.82879e+06	0.29331
9.88553e+06	0.29331
9.9426e+06	0.29331
1e+07	0.29331
