Stopping power dEdx from Ionisation for Mg24[0.0] Z = 12 in Water, process name: ionIoni
E [MeV]	dEdx [MeV/mm]
0.001	22.9985
0.00100577	23.0652
0.00101158	23.132
0.00101742	23.1991
0.00102329	23.2663
0.0010292	23.3338
0.00103514	23.4014
0.00104112	23.4693
0.00104713	23.5373
0.00105317	23.6055
0.00105925	23.674
0.00106537	23.7426
0.00107152	23.8114
0.00107771	23.8804
0.00108393	23.9496
0.00109018	24.0191
0.00109648	24.0887
0.00110281	24.1585
0.00110917	24.2285
0.00111558	24.2987
0.00112202	24.3692
0.0011285	24.4398
0.00113501	24.5106
0.00114156	24.5817
0.00114815	24.6529
0.00115478	24.7243
0.00116145	24.796
0.00116815	24.8678
0.0011749	24.9399
0.00118168	25.0122
0.0011885	25.0847
0.00119536	25.1573
0.00120226	25.2302
0.00120921	25.3034
0.00121619	25.3767
0.00122321	25.4502
0.00123027	25.5239
0.00123737	25.5979
0.00124451	25.6721
0.0012517	25.7465
0.00125893	25.821
0.00126619	25.8959
0.0012735	25.9709
0.00128086	26.0461
0.00128825	26.1216
0.00129569	26.1973
0.00130317	26.2732
0.00131069	26.3493
0.00131826	26.4256
0.00132587	26.5022
0.00133352	26.5789
0.00134122	26.6559
0.00134896	26.7332
0.00135675	26.8106
0.00136458	26.8883
0.00137246	26.9661
0.00138038	27.0443
0.00138835	27.1226
0.00139637	27.2012
0.00140443	27.28
0.00141254	27.359
0.00142069	27.4382
0.00142889	27.5177
0.00143714	27.5974
0.00144544	27.6773
0.00145378	27.7575
0.00146218	27.8379
0.00147062	27.9185
0.00147911	27.9994
0.00148765	28.0804
0.00149624	28.1618
0.00150487	28.2433
0.00151356	28.3251
0.0015223	28.4072
0.00153109	28.4894
0.00153993	28.5719
0.00154882	28.6547
0.00155776	28.7376
0.00156675	28.8209
0.0015758	28.9043
0.00158489	28.988
0.00159404	29.072
0.00160325	29.1561
0.0016125	29.2406
0.00162181	29.3252
0.00163117	29.4101
0.00164059	29.4953
0.00165006	29.5807
0.00165959	29.6663
0.00166917	29.7522
0.0016788	29.8384
0.0016885	29.9248
0.00169824	30.0114
0.00170805	30.0983
0.00171791	30.1854
0.00172783	30.2728
0.0017378	30.3605
0.00174783	30.4484
0.00175792	30.5365
0.00176807	30.6249
0.00177828	30.7136
0.00178855	30.8025
0.00179887	30.8917
0.00180926	30.9811
0.0018197	31.0708
0.00183021	31.1607
0.00184077	31.2509
0.0018514	31.3414
0.00186209	31.4321
0.00187284	31.5231
0.00188365	31.6144
0.00189452	31.7059
0.00190546	31.7976
0.00191646	31.8897
0.00192752	31.982
0.00193865	32.0745
0.00194984	32.1674
0.0019611	32.2605
0.00197242	32.3539
0.00198381	32.4475
0.00199526	32.5414
0.00200678	32.6356
0.00201837	32.73
0.00203002	32.8248
0.00204174	32.9198
0.00205353	33.015
0.00206538	33.1106
0.0020773	33.2064
0.0020893	33.3025
0.00210136	33.3989
0.00211349	33.4955
0.00212569	33.5925
0.00213796	33.6897
0.0021503	33.7872
0.00216272	33.885
0.0021752	33.983
0.00218776	34.0813
0.00220039	34.18
0.00221309	34.2789
0.00222587	34.3781
0.00223872	34.4775
0.00225165	34.5773
0.00226464	34.6774
0.00227772	34.7777
0.00229087	34.8783
0.00230409	34.9792
0.00231739	35.0804
0.00233077	35.1819
0.00234423	35.2837
0.00235776	35.3858
0.00237137	35.4882
0.00238506	35.5909
0.00239883	35.6939
0.00241268	35.7971
0.00242661	35.9007
0.00244062	36.0046
0.00245471	36.1087
0.00246888	36.2132
0.00248313	36.3179
0.00249747	36.423
0.00251189	36.5284
0.00252639	36.6341
0.00254097	36.74
0.00255564	36.8463
0.0025704	36.9529
0.00258523	37.0598
0.00260016	37.167
0.00261517	37.2745
0.00263027	37.3824
0.00264545	37.4905
0.00266073	37.5989
0.00267609	37.7077
0.00269153	37.8168
0.00270707	37.9262
0.0027227	38.0359
0.00273842	38.1459
0.00275423	38.2562
0.00277013	38.3669
0.00278612	38.4779
0.00280221	38.5891
0.00281838	38.7008
0.00283465	38.8127
0.00285102	38.925
0.00286748	39.0375
0.00288403	39.1504
0.00290068	39.2637
0.00291743	39.3772
0.00293427	39.4911
0.00295121	39.6053
0.00296825	39.7199
0.00298538	39.8347
0.00300262	39.95
0.00301995	40.0655
0.00303739	40.1814
0.00305492	40.2976
0.00307256	40.4141
0.0030903	40.531
0.00310814	40.6482
0.00312608	40.7657
0.00314413	40.8836
0.00316228	41.0018
0.00318053	41.1204
0.0031989	41.2393
0.00321736	41.3586
0.00323594	41.4782
0.00325462	41.5981
0.00327341	41.7184
0.0032923	41.839
0.00331131	41.96
0.00333043	42.0814
0.00334965	42.203
0.00336899	42.3251
0.00338844	42.4474
0.003408	42.5702
0.00342768	42.6933
0.00344747	42.8167
0.00346737	42.9405
0.00348739	43.0647
0.00350752	43.1892
0.00352777	43.3141
0.00354813	43.4393
0.00356862	43.5649
0.00358922	43.6908
0.00360994	43.8172
0.00363078	43.9438
0.00365174	44.0709
0.00367282	44.1983
0.00369403	44.3261
0.00371535	44.4542
0.0037368	44.5828
0.00375837	44.7116
0.00378007	44.8409
0.00380189	44.9705
0.00382384	45.1005
0.00384592	45.2309
0.00386812	45.3617
0.00389045	45.4928
0.00391291	45.6243
0.0039355	45.7562
0.00395822	45.8885
0.00398107	46.0212
0.00400405	46.1542
0.00402717	46.2876
0.00405042	46.4214
0.0040738	46.5556
0.00409732	46.6902
0.00412098	46.8251
0.00414477	46.9605
0.00416869	47.0962
0.00419276	47.2324
0.00421697	47.3689
0.00424131	47.5058
0.0042658	47.6431
0.00429042	47.7808
0.00431519	47.919
0.0043401	48.0575
0.00436516	48.1964
0.00439036	48.3357
0.0044157	48.4754
0.0044412	48.6155
0.00446684	48.756
0.00449262	48.8969
0.00451856	49.0382
0.00454465	49.18
0.00457088	49.3221
0.00459727	49.4647
0.00462381	49.6076
0.0046505	49.751
0.00467735	49.8948
0.00470435	50.039
0.00473151	50.1836
0.00475883	50.3286
0.0047863	50.4741
0.00481393	50.62
0.00484172	50.7663
0.00486968	50.913
0.00489779	51.0601
0.00492606	51.2077
0.0049545	51.3557
0.0049831	51.5041
0.00501187	51.6529
0.00504081	51.8022
0.00506991	51.9519
0.00509918	52.102
0.00512861	52.2526
0.00515822	52.4036
0.005188	52.555
0.00521795	52.7069
0.00524807	52.8592
0.00527837	53.0119
0.00530884	53.1651
0.00533949	53.3187
0.00537032	53.6066
0.00540132	53.7611
0.0054325	53.9161
0.00546387	54.0715
0.00549541	54.2273
0.00552713	54.3836
0.00555904	54.5404
0.00559114	54.6976
0.00562341	54.8552
0.00565588	55.0133
0.00568853	55.1719
0.00572137	55.3309
0.0057544	55.4904
0.00578762	55.6504
0.00582103	55.8108
0.00585464	55.9716
0.00588844	56.133
0.00592243	56.2948
0.00595662	56.457
0.00599101	56.6198
0.0060256	56.783
0.00606038	56.9466
0.00609537	57.1108
0.00613056	57.2754
0.00616595	57.4405
0.00620155	57.606
0.00623735	57.7721
0.00627336	57.9386
0.00630957	58.1056
0.006346	58.2731
0.00638263	58.4411
0.00641948	58.6095
0.00645654	58.7784
0.00649382	58.9479
0.00653131	59.1178
0.00656901	59.2882
0.00660693	59.4591
0.00664508	59.6305
0.00668344	59.8023
0.00672202	59.9747
0.00676083	60.1476
0.00679986	60.3209
0.00683912	60.4948
0.0068786	60.6692
0.00691831	60.844
0.00695825	61.0194
0.00699842	61.1953
0.00703882	61.3717
0.00707946	61.5486
0.00712033	61.726
0.00716143	61.9039
0.00720278	62.0823
0.00724436	62.2613
0.00728618	62.4407
0.00732825	62.6207
0.00737055	62.8012
0.0074131	62.9822
0.0074559	63.1638
0.00749894	63.3458
0.00754223	63.5284
0.00758578	63.7115
0.00762957	63.8952
0.00767361	64.0793
0.00771792	64.264
0.00776247	64.4493
0.00780728	64.6351
0.00785236	64.8214
0.00789769	65.0082
0.00794328	65.1956
0.00798914	65.3835
0.00803526	65.5719
0.00808165	65.761
0.00812831	65.9505
0.00817523	66.1406
0.00822243	66.3312
0.0082699	66.5224
0.00831764	66.7142
0.00836566	66.9065
0.00841395	67.0993
0.00846253	67.2927
0.00851138	67.4867
0.00856052	67.6812
0.00860994	67.8763
0.00865964	68.0719
0.00870964	68.2681
0.00875992	68.4649
0.00881049	68.6623
0.00886135	68.8602
0.00891251	69.0587
0.00896396	69.2577
0.00901571	69.4573
0.00906776	69.6575
0.00912011	69.8583
0.00917276	70.0597
0.00922571	70.2616
0.00927897	70.4641
0.00933254	70.6672
0.00938642	70.8709
0.00944061	71.0752
0.00949511	71.2801
0.00954993	71.4855
0.00960506	71.6916
0.00966051	71.8982
0.00971628	72.1054
0.00977237	72.3133
0.00982879	72.5217
0.00988553	72.7308
0.0099426	72.9404
0.01	73.1506
0.0100577	73.3615
0.0101158	73.5729
0.0101742	73.785
0.0102329	73.9977
0.010292	74.211
0.0103514	74.4249
0.0104112	74.6394
0.0104713	74.8545
0.0105317	75.0703
0.0105925	75.2867
0.0106537	75.5037
0.0107152	75.7213
0.0107771	75.9396
0.0108393	76.1584
0.0109018	76.378
0.0109648	76.5981
0.0110281	76.8189
0.0110917	77.0403
0.0111558	77.2624
0.0112202	77.4851
0.011285	77.7084
0.0113501	77.9324
0.0114156	78.157
0.0114815	78.3823
0.0115478	78.6082
0.0116145	78.8348
0.0116815	79.0621
0.011749	79.2899
0.0118168	79.5185
0.011885	79.7477
0.0119536	79.9775
0.0120226	80.2081
0.0120921	80.4393
0.0121619	80.6711
0.0122321	80.9036
0.0123027	81.1368
0.0123737	81.3707
0.0124451	81.6052
0.012517	81.8405
0.0125893	82.0764
0.0126619	82.3129
0.012735	82.5502
0.0128086	82.7881
0.0128825	83.0268
0.0129569	83.2661
0.0130317	83.5061
0.0131069	83.7468
0.0131826	83.9882
0.0132587	84.2302
0.0133352	84.473
0.0134122	84.7165
0.0134896	84.9607
0.0135675	85.2056
0.0136458	85.4512
0.0137246	85.6975
0.0138038	85.9445
0.0138835	86.1922
0.0139637	86.4407
0.0140443	86.6898
0.0141254	86.9397
0.0142069	87.1903
0.0142889	87.4416
0.0143714	87.6936
0.0144544	87.9464
0.0145378	88.1999
0.0146218	88.4541
0.0147062	88.7091
0.0147911	88.9648
0.0148765	89.2212
0.0149624	89.4784
0.0150487	89.7363
0.0151356	89.9949
0.015223	90.2543
0.0153109	90.5145
0.0153993	90.7754
0.0154882	91.037
0.0155776	91.2994
0.0156675	91.5626
0.015758	91.8265
0.0158489	92.0912
0.0159404	92.3566
0.0160325	92.6228
0.016125	92.8898
0.0162181	93.1576
0.0163117	93.4261
0.0164059	93.6954
0.0165006	93.9654
0.0165959	94.2363
0.0166917	94.5079
0.016788	94.7803
0.016885	95.0535
0.0169824	95.3275
0.0170805	95.6022
0.0171791	95.8778
0.0172783	96.1542
0.017378	96.4313
0.0174783	96.7093
0.0175792	96.988
0.0176807	97.2676
0.0177828	97.5479
0.0178855	97.8291
0.0179887	98.1111
0.0180926	98.3939
0.018197	98.6775
0.0183021	98.9619
0.0184077	99.2472
0.018514	99.5332
0.0186209	99.8201
0.0187284	100.108
0.0188365	100.396
0.0189452	100.686
0.0190546	100.976
0.0191646	101.267
0.0192752	101.559
0.0193865	101.852
0.0194984	102.145
0.019611	102.44
0.0197242	102.735
0.0198381	103.031
0.0199526	103.328
0.0200678	103.626
0.0201837	103.925
0.0203002	104.224
0.0204174	104.524
0.0205353	104.826
0.0206538	105.128
0.020773	105.431
0.020893	105.735
0.0210136	106.04
0.0211349	106.345
0.0212569	106.652
0.0213796	106.959
0.021503	107.267
0.0216272	107.577
0.021752	107.887
0.0218776	108.198
0.0220039	108.51
0.0221309	108.822
0.0222587	109.136
0.0223872	109.451
0.0225165	109.766
0.0226464	110.082
0.0227772	110.4
0.0229087	110.718
0.0230409	111.037
0.0231739	111.357
0.0233077	111.678
0.0234423	112
0.0235776	112.323
0.0237137	112.647
0.0238506	112.971
0.0239883	113.297
0.0241268	113.623
0.0242661	113.951
0.0244062	114.279
0.0245471	114.609
0.0246888	114.939
0.0248313	115.27
0.0249747	115.603
0.0251189	115.936
0.0252639	116.27
0.0254097	116.605
0.0255564	116.941
0.025704	117.278
0.0258523	117.616
0.0260016	117.955
0.0261517	118.295
0.0263027	118.636
0.0264545	118.978
0.0266073	119.321
0.0267609	119.665
0.0269153	120.01
0.0270707	120.356
0.027227	120.703
0.0273842	121.051
0.0275423	121.4
0.0277013	121.75
0.0278612	122.101
0.0280221	122.453
0.0281838	122.806
0.0283465	123.16
0.0285102	123.515
0.0286748	123.871
0.0288403	124.228
0.0290068	124.586
0.0291743	124.945
0.0293427	125.305
0.0295121	125.666
0.0296825	126.028
0.0298538	126.392
0.0300262	126.756
0.0301995	127.121
0.0303739	127.488
0.0305492	127.855
0.0307256	128.224
0.030903	128.593
0.0310814	128.964
0.0312608	129.336
0.0314413	129.708
0.0316228	130.082
0.0318053	130.457
0.031989	130.833
0.0321736	131.21
0.0323594	131.589
0.0325462	131.968
0.0327341	132.348
0.032923	132.73
0.0331131	133.112
0.0333043	133.496
0.0334965	133.881
0.0336899	134.267
0.0338844	134.654
0.03408	135.042
0.0342768	135.431
0.0344747	135.821
0.0346737	136.213
0.0348739	136.605
0.0350752	136.999
0.0352777	137.394
0.0354813	137.79
0.0356862	138.187
0.0358922	138.586
0.0360994	138.985
0.0363078	139.386
0.0365174	139.787
0.0367282	140.19
0.0369403	140.594
0.0371535	141
0.037368	141.406
0.0375837	141.814
0.0378007	142.222
0.0380189	142.632
0.0382384	143.043
0.0384592	143.456
0.0386812	143.869
0.0389045	144.284
0.0391291	144.7
0.039355	145.117
0.0395822	145.535
0.0398107	145.955
0.0400405	146.375
0.0402717	146.797
0.0405042	147.22
0.040738	147.645
0.0409732	148.07
0.0412098	148.497
0.0414477	148.925
0.0416869	149.354
0.0419276	149.785
0.0421697	150.217
0.0424131	150.65
0.042658	151.084
0.0429042	151.519
0.0431519	151.956
0.043401	152.394
0.0436516	152.833
0.0439036	153.274
0.044157	153.716
0.044412	154.159
0.0446684	154.603
0.0449262	155.049
0.0451856	155.496
0.0454465	155.944
0.0457088	156.393
0.0459727	156.844
0.0462381	157.296
0.046505	157.75
0.0467735	158.204
0.0470435	158.66
0.0473151	159.118
0.0475883	159.576
0.047863	160.036
0.0481393	160.497
0.0484172	160.96
0.0486968	161.424
0.0489779	161.889
0.0492606	162.356
0.049545	162.824
0.049831	163.293
0.0501187	163.764
0.0504081	164.236
0.0506991	164.709
0.0509918	165.184
0.0512861	165.66
0.0515822	166.138
0.05188	166.617
0.0521795	167.097
0.0524807	167.578
0.0527837	168.061
0.0530884	168.546
0.0533949	169.032
0.0537032	169.519
0.0540132	170.008
0.054325	170.498
0.0546387	170.989
0.0549541	171.482
0.0552713	171.976
0.0555904	172.472
0.0559114	172.969
0.0562341	173.467
0.0565588	173.967
0.0568853	174.469
0.0572137	174.972
0.057544	175.476
0.0578762	175.982
0.0582103	176.489
0.0585464	176.998
0.0588844	177.508
0.0592243	178.02
0.0595662	178.533
0.0599101	179.047
0.060256	179.564
0.0606038	180.081
0.0609537	180.6
0.0613056	181.121
0.0616595	181.643
0.0620155	182.166
0.0623735	182.691
0.0627336	183.218
0.0630957	183.746
0.06346	184.276
0.0638263	184.807
0.0641948	185.34
0.0645654	185.874
0.0649382	186.41
0.0653131	186.947
0.0656901	187.486
0.0660693	188.026
0.0664508	188.568
0.0668344	189.112
0.0672202	189.657
0.0676083	190.203
0.0679986	190.752
0.0683912	191.301
0.068786	191.853
0.0691831	192.406
0.0695825	192.96
0.0699842	193.517
0.0703882	194.074
0.0707946	194.634
0.0712033	195.195
0.0716143	195.757
0.0720278	196.322
0.0724436	196.887
0.0728618	197.455
0.0732825	198.024
0.0737055	198.595
0.074131	199.167
0.074559	199.741
0.0749894	200.317
0.0754223	200.895
0.0758578	201.474
0.0762957	202.054
0.0767361	202.637
0.0771792	203.221
0.0776247	203.807
0.0780728	204.394
0.0785236	204.983
0.0789769	205.574
0.0794328	206.166
0.0798914	206.761
0.0803526	207.357
0.0808165	207.954
0.0812831	208.554
0.0817523	209.155
0.0822243	209.758
0.082699	210.362
0.0831764	210.969
0.0836566	211.577
0.0841395	212.187
0.0846253	212.798
0.0851138	213.412
0.0856052	214.027
0.0860994	214.644
0.0865964	215.262
0.0870964	215.883
0.0875992	216.505
0.0881049	217.129
0.0886135	217.755
0.0891251	218.383
0.0896396	219.012
0.0901571	219.643
0.0906776	220.276
0.0912011	220.911
0.0917276	221.548
0.0922571	222.187
0.0927897	222.827
0.0933254	223.469
0.0938642	224.114
0.0944061	224.76
0.0949511	225.407
0.0954993	226.057
0.0960506	226.709
0.0966051	227.362
0.0971628	228.017
0.0977237	228.675
0.0982879	229.334
0.0988553	229.995
0.099426	230.658
0.1	231.323
0.100577	231.989
0.101158	232.658
0.101742	233.329
0.102329	234.001
0.10292	234.676
0.103514	235.352
0.104112	236.03
0.104713	236.711
0.105317	237.393
0.105925	238.077
0.106537	238.764
0.107152	239.452
0.107771	240.142
0.108393	240.834
0.109018	241.528
0.109648	242.225
0.110281	242.923
0.110917	243.623
0.111558	244.325
0.112202	245.029
0.11285	245.736
0.113501	246.444
0.114156	247.154
0.114815	247.867
0.115478	248.581
0.116145	249.298
0.116815	250.016
0.11749	250.737
0.118168	251.46
0.11885	252.184
0.119536	252.911
0.120226	253.64
0.120921	254.371
0.121619	255.104
0.122321	255.84
0.123027	256.577
0.123737	257.317
0.124451	258.058
0.12517	258.802
0.125893	259.548
0.126619	260.296
0.12735	261.047
0.128086	261.799
0.128825	262.554
0.129569	263.31
0.130317	264.069
0.131069	264.831
0.131826	265.594
0.132587	266.359
0.133352	267.127
0.134122	267.897
0.134896	268.669
0.135675	269.444
0.136458	270.22
0.137246	270.999
0.138038	271.78
0.138835	272.564
0.139637	273.349
0.140443	274.137
0.141254	274.927
0.142069	275.72
0.142889	276.515
0.143714	277.312
0.144544	278.111
0.145378	278.913
0.146218	279.717
0.147062	280.523
0.147911	281.331
0.148765	282.142
0.149624	282.955
0.150487	283.771
0.151356	284.589
0.15223	285.409
0.153109	286.232
0.153993	287.057
0.154882	287.884
0.155776	288.714
0.156675	289.546
0.15758	290.381
0.158489	291.218
0.159404	292.057
0.160325	292.899
0.16125	293.743
0.162181	294.59
0.163117	295.439
0.164059	296.291
0.165006	297.145
0.165959	298.001
0.166917	298.86
0.16788	299.722
0.16885	300.586
0.169824	301.452
0.170805	302.321
0.171791	303.192
0.172783	304.066
0.17378	304.943
0.174783	305.822
0.175792	306.703
0.176807	307.587
0.177828	308.474
0.178855	309.363
0.179887	310.255
0.180926	311.149
0.18197	312.046
0.183021	312.945
0.184077	313.847
0.18514	314.752
0.186209	315.659
0.187284	316.569
0.188365	317.481
0.189452	318.396
0.190546	319.314
0.191646	320.234
0.192752	321.158
0.193865	322.083
0.194984	323.012
0.19611	323.943
0.197242	324.876
0.198381	325.813
0.199526	326.752
0.200678	327.694
0.201837	328.638
0.203002	329.585
0.204174	330.535
0.205353	331.488
0.206538	332.444
0.20773	333.402
0.20893	334.363
0.210136	335.327
0.211349	336.293
0.212569	337.263
0.213796	338.235
0.21503	339.21
0.216272	340.187
0.21752	341.168
0.218776	342.151
0.220039	343.137
0.221309	344.126
0.222587	345.118
0.223872	346.113
0.225165	347.111
0.226464	348.111
0.227772	349.115
0.229087	350.121
0.230409	351.13
0.231739	352.142
0.233077	353.157
0.234423	354.175
0.235776	355.196
0.237137	356.22
0.238506	357.247
0.239883	358.276
0.241268	359.309
0.242661	360.345
0.244062	361.383
0.245471	362.425
0.246888	363.47
0.248313	364.517
0.249747	365.568
0.251189	366.622
0.252639	367.678
0.254097	368.738
0.255564	369.801
0.25704	370.867
0.258523	371.936
0.260016	373.008
0.261517	374.083
0.263027	375.161
0.264545	376.243
0.266073	377.327
0.267609	378.415
0.269153	379.506
0.270707	380.599
0.27227	381.696
0.273842	382.797
0.275423	383.9
0.277013	385.007
0.278612	386.116
0.280221	387.229
0.281838	388.345
0.283465	389.465
0.285102	390.587
0.286748	391.713
0.288403	392.842
0.290068	393.974
0.291743	395.11
0.293427	396.249
0.295121	397.391
0.296825	398.536
0.298538	399.685
0.300262	400.837
0.301995	401.993
0.303739	403.151
0.305492	404.313
0.307256	405.479
0.30903	406.647
0.310814	407.82
0.312608	408.995
0.314413	410.174
0.316228	411.356
0.318053	412.542
0.31989	413.731
0.321736	414.924
0.323594	416.12
0.325462	417.319
0.327341	418.522
0.32923	419.728
0.331131	420.938
0.333043	422.151
0.334965	423.368
0.336899	424.588
0.338844	425.812
0.3408	427.04
0.342768	428.27
0.344747	429.505
0.346737	430.743
0.348739	431.984
0.350752	433.23
0.352777	434.478
0.354813	435.731
0.356862	436.987
0.358922	438.246
0.360994	439.509
0.363078	440.776
0.365174	442.047
0.367282	443.321
0.369403	444.599
0.371535	445.88
0.37368	447.165
0.375837	448.454
0.378007	449.747
0.380189	451.043
0.382384	452.343
0.384592	453.647
0.386812	454.955
0.389045	456.266
0.391291	457.581
0.39355	458.9
0.395822	460.223
0.398107	461.549
0.400405	462.88
0.402717	464.214
0.405042	465.552
0.40738	466.894
0.409732	468.24
0.412098	469.589
0.414477	470.943
0.416869	472.3
0.419276	473.662
0.421697	475.027
0.424131	476.396
0.42658	477.769
0.429042	479.146
0.431519	480.527
0.43401	481.912
0.436516	483.301
0.439036	484.694
0.44157	486.092
0.44412	487.493
0.446684	488.898
0.449262	490.307
0.451856	491.72
0.454465	493.138
0.457088	494.559
0.459727	495.984
0.462381	497.414
0.46505	498.848
0.467735	500.286
0.470435	501.728
0.473151	503.174
0.475883	504.624
0.47863	506.079
0.481393	507.537
0.484172	509
0.486968	510.467
0.489779	511.939
0.492606	513.414
0.49545	514.894
0.49831	516.378
0.501187	517.867
0.504081	519.36
0.506991	520.857
0.509918	522.358
0.512861	523.863
0.515822	525.373
0.5188	526.888
0.521795	528.406
0.524807	529.929
0.527837	531.457
0.530884	532.989
0.533949	534.525
0.537032	536.066
0.540132	537.611
0.54325	539.161
0.546387	540.715
0.549541	542.273
0.552713	543.836
0.555904	545.404
0.559114	546.976
0.562341	548.552
0.565588	550.133
0.568853	551.719
0.572137	553.309
0.57544	554.904
0.578762	556.504
0.582103	558.108
0.585464	559.716
0.588844	561.33
0.592243	562.948
0.595662	564.57
0.599101	566.198
0.60256	567.989
0.606038	569.846
0.609537	571.714
0.613056	573.591
0.616595	575.479
0.620155	577.377
0.623735	579.286
0.627336	581.205
0.630957	583.134
0.6346	585.074
0.638263	587.024
0.641948	588.985
0.645654	590.957
0.649382	592.939
0.653131	594.932
0.656901	596.935
0.660693	598.949
0.664508	600.974
0.668344	603.01
0.672202	605.057
0.676083	607.114
0.679986	609.183
0.683912	611.262
0.68786	613.352
0.691831	615.453
0.695825	617.566
0.699842	619.689
0.703882	621.823
0.707946	623.969
0.712033	626.125
0.716143	628.293
0.720278	630.467
0.724436	632.587
0.728618	634.718
0.732825	636.86
0.737055	639.013
0.74131	641.176
0.74559	643.351
0.749894	645.536
0.754223	647.733
0.758578	649.94
0.762957	652.158
0.767361	654.387
0.771792	656.628
0.776247	658.879
0.780728	661.141
0.785236	663.414
0.789769	665.699
0.794328	667.994
0.798914	670.3
0.803526	672.618
0.808165	674.946
0.812831	677.286
0.817523	679.637
0.822243	681.998
0.82699	684.371
0.831764	686.755
0.836566	689.15
0.841395	691.556
0.846253	693.973
0.851138	696.401
0.856052	698.84
0.860994	701.29
0.865964	703.751
0.870964	706.223
0.875992	708.706
0.881049	711.2
0.886135	713.705
0.891251	716.221
0.896396	718.747
0.901571	721.285
0.906776	723.833
0.912011	726.393
0.917276	728.963
0.922571	731.543
0.927897	734.135
0.933254	736.737
0.938642	739.35
0.944061	741.973
0.949511	744.607
0.954993	747.251
0.960506	749.904
0.966051	752.55
0.971628	755.207
0.977237	757.874
0.982879	760.551
0.988553	763.239
0.99426	765.937
1	768.645
1.00577	771.364
1.01158	774.093
1.01742	776.833
1.02329	779.583
1.0292	782.343
1.03514	785.113
1.04112	787.895
1.04713	790.686
1.05317	793.488
1.05925	796.3
1.06537	799.123
1.07152	801.956
1.07771	804.8
1.08393	807.654
1.09018	810.519
1.09648	813.394
1.10281	816.279
1.10917	819.175
1.11558	822.082
1.12202	824.999
1.1285	827.926
1.13501	830.864
1.14156	833.813
1.14815	836.772
1.15478	839.741
1.16145	842.721
1.16815	845.712
1.1749	848.713
1.18168	851.724
1.1885	854.746
1.19536	857.778
1.20226	860.821
1.20921	863.873
1.21619	866.936
1.22321	870.01
1.23027	873.094
1.23737	876.188
1.24451	879.292
1.2517	882.407
1.25893	885.532
1.26619	888.668
1.2735	891.814
1.28086	894.97
1.28825	898.136
1.29569	901.313
1.30317	904.5
1.31069	907.696
1.31826	910.903
1.32587	914.12
1.33352	917.347
1.34122	920.584
1.34896	923.831
1.35675	927.088
1.36458	930.355
1.37246	933.632
1.38038	936.918
1.38835	940.214
1.39637	943.52
1.40443	946.836
1.41254	950.161
1.42069	953.496
1.42889	956.84
1.43714	960.194
1.44544	963.557
1.45378	966.929
1.46218	970.311
1.47062	973.702
1.47911	977.102
1.48765	980.512
1.49624	983.931
1.50487	987.358
1.51356	990.795
1.5223	994.242
1.53109	997.697
1.53993	1001.16
1.54882	1004.63
1.55776	1008.12
1.56675	1011.61
1.5758	1015.11
1.58489	1018.62
1.59404	1022.13
1.60325	1025.66
1.6125	1029.19
1.62181	1032.74
1.63117	1036.29
1.64059	1039.85
1.65006	1043.42
1.65959	1046.99
1.66917	1050.58
1.6788	1054.17
1.6885	1057.78
1.69824	1061.39
1.70805	1065
1.71791	1068.63
1.72783	1072.27
1.7378	1075.91
1.74783	1079.56
1.75792	1083.22
1.76807	1086.88
1.77828	1090.56
1.78855	1094.24
1.79887	1097.93
1.80926	1101.63
1.8197	1105.33
1.83021	1109.04
1.84077	1112.76
1.8514	1116.49
1.86209	1120.22
1.87284	1123.97
1.88365	1127.71
1.89452	1131.47
1.90546	1135.23
1.91646	1139
1.92752	1142.78
1.93865	1146.56
1.94984	1150.35
1.9611	1154.15
1.97242	1157.95
1.98381	1161.76
1.99526	1165.58
2.00678	1169.4
2.01837	1173.23
2.03002	1177.07
2.04174	1180.91
2.05353	1184.75
2.06538	1188.6
2.0773	1192.46
2.0893	1196.32
2.10136	1200.19
2.11349	1204.06
2.12569	1207.94
2.13796	1211.82
2.1503	1215.71
2.16272	1219.6
2.1752	1223.49
2.18776	1227.39
2.20039	1231.29
2.21309	1235.2
2.22587	1239.11
2.23872	1243.03
2.25165	1246.95
2.26464	1250.87
2.27772	1254.79
2.29087	1258.72
2.30409	1262.65
2.31739	1266.59
2.33077	1270.53
2.34423	1274.47
2.35776	1278.41
2.37137	1282.35
2.38506	1286.3
2.39883	1290.25
2.41268	1294.21
2.42661	1298.17
2.44062	1302.13
2.45471	1306.09
2.46888	1310.05
2.48313	1314.02
2.49747	1317.98
2.51189	1321.95
2.52639	1325.92
2.54097	1329.89
2.55564	1333.86
2.5704	1337.83
2.58523	1341.8
2.60016	1345.77
2.61517	1349.74
2.63027	1353.71
2.64545	1357.68
2.66073	1361.65
2.67609	1365.62
2.69153	1369.59
2.70707	1373.55
2.7227	1377.52
2.73842	1381.48
2.75423	1385.45
2.77013	1389.41
2.78612	1393.37
2.80221	1397.33
2.81838	1401.28
2.83465	1405.24
2.85102	1409.19
2.86748	1413.14
2.88403	1417.08
2.90068	1421.03
2.91743	1424.97
2.93427	1428.9
2.95121	1432.83
2.96825	1436.76
2.98538	1440.69
3.00262	1444.61
3.01995	1448.52
3.03739	1452.44
3.05492	1456.34
3.07256	1460.25
3.0903	1464.14
3.10814	1468.04
3.12608	1471.92
3.14413	1475.81
3.16228	1479.68
3.18053	1483.55
3.1989	1487.42
3.21736	1491.27
3.23594	1495.13
3.25462	1498.97
3.27341	1502.81
3.2923	1506.64
3.31131	1510.46
3.33043	1514.28
3.34965	1518.09
3.36899	1521.89
3.38844	1525.69
3.408	1529.47
3.42768	1533.25
3.44747	1537.02
3.46737	1540.78
3.48739	1544.54
3.50752	1548.28
3.52777	1552.02
3.54813	1555.74
3.56862	1559.46
3.58922	1563.17
3.60994	1566.84
3.63078	1570.48
3.65174	1574.1
3.67282	1577.71
3.69403	1581.32
3.71535	1584.91
3.7368	1588.49
3.75837	1592.06
3.78007	1595.62
3.80189	1599.16
3.82384	1602.69
3.84592	1606.22
3.86812	1609.72
3.89045	1613.22
3.91291	1616.7
3.9355	1620.17
3.95822	1623.62
3.98107	1627.06
4.00405	1630.49
4.02717	1633.9
4.05042	1637.29
4.0738	1640.68
4.09732	1644.04
4.12098	1647.39
4.14477	1650.73
4.16869	1654.04
4.19276	1657.34
4.21697	1660.63
4.24131	1663.9
4.2658	1667.15
4.29042	1670.38
4.31519	1673.6
4.3401	1676.79
4.36516	1679.97
4.39036	1683.13
4.4157	1686.28
4.4412	1689.4
4.46684	1692.5
4.49262	1695.59
4.51856	1698.65
4.54465	1701.7
4.57088	1704.72
4.59727	1707.73
4.62381	1710.71
4.6505	1713.67
4.67735	1716.62
4.70435	1719.54
4.73151	1722.44
4.75883	1725.31
4.7863	1728.17
4.81393	1731.01
4.84172	1733.84
4.86968	1736.65
4.89779	1739.44
4.92606	1742.2
4.9545	1744.94
4.9831	1747.66
5.01187	1750.35
5.04081	1753.02
5.06991	1755.67
5.09918	1758.29
5.12861	1760.9
5.15822	1763.47
5.188	1766.02
5.21795	1768.55
5.24807	1771.06
5.27837	1773.54
5.30884	1776
5.33949	1778.43
5.37032	1780.84
5.40132	1783.22
5.4325	1785.58
5.46387	1787.91
5.49541	1790.23
5.52713	1792.51
5.55904	1794.77
5.59114	1797.01
5.62341	1799.22
5.65588	1801.41
5.68853	1803.58
5.72137	1805.72
5.7544	1807.84
5.78762	1809.93
5.82103	1812
5.85464	1814.04
5.88844	1816.07
5.92243	1818.06
5.95662	1820.04
5.99101	1821.99
6.0256	1823.92
6.06038	1825.83
6.09537	1827.72
6.13056	1829.58
6.16595	1831.42
6.20155	1833.24
6.23735	1835.03
6.27336	1836.8
6.30957	1838.55
6.346	1840.27
6.38263	1841.97
6.41948	1843.65
6.45654	1845.3
6.49382	1846.93
6.53131	1848.54
6.56901	1850.12
6.60693	1851.68
6.64508	1853.21
6.68344	1854.73
6.72202	1856.21
6.76083	1857.68
6.79986	1859.12
6.83912	1860.54
6.8786	1861.93
6.91831	1863.31
6.95825	1864.66
6.99842	1865.98
7.03882	1867.29
7.07946	1868.57
7.12033	1869.82
7.16143	1871.06
7.20278	1872.28
7.24436	1873.48
7.28618	1874.65
7.32825	1875.81
7.37055	1876.94
7.4131	1878.05
7.4559	1879.14
7.49894	1880.21
7.54223	1881.25
7.58578	1882.27
7.62957	1883.27
7.67361	1884.25
7.71792	1885.2
7.76247	1886.13
7.80728	1887.04
7.85236	1887.93
7.89769	1888.79
7.94328	1889.63
7.98914	1890.45
8.03526	1891.24
8.08165	1892.01
8.12831	1892.76
8.17523	1893.49
8.22243	1894.19
8.2699	1894.87
8.31764	1895.53
8.36566	1896.16
8.41395	1896.77
8.46253	1897.36
8.51138	1897.93
8.56052	1898.47
8.60994	1899
8.65964	1899.5
8.70964	1899.98
8.75992	1900.44
8.81049	1900.88
8.86135	1901.29
8.91251	1901.69
8.96396	1902.06
9.01571	1902.41
9.06776	1902.75
9.12011	1903.06
9.17276	1903.36
9.22571	1903.63
9.27897	1903.89
9.33254	1904.13
9.38642	1904.35
9.44061	1904.55
9.49511	1904.73
9.54993	1904.9
9.60506	1905.05
9.66051	1905.17
9.71628	1905.27
9.77237	1905.36
9.82879	1905.42
9.88553	1905.48
9.9426	1905.51
10	1905.53
10.0577	1905.53
10.1158	1905.52
10.1742	1905.49
10.2329	1905.44
10.292	1905.38
10.3514	1905.29
10.4112	1905.2
10.4713	1905.08
10.5317	1904.95
10.5925	1904.8
10.6537	1904.63
10.7152	1904.45
10.7771	1904.25
10.8393	1904.03
10.9018	1903.8
10.9648	1903.54
11.0281	1903.27
11.0917	1902.99
11.1558	1902.68
11.2202	1902.36
11.285	1902.02
11.3501	1901.67
11.4156	1901.3
11.4815	1900.91
11.5478	1900.5
11.6145	1900.08
11.6815	1899.64
11.749	1899.18
11.8168	1898.71
11.885	1898.22
11.9536	1897.71
12.0226	1897.19
12.0921	1896.65
12.1619	1896.1
12.2321	1895.53
12.3027	1894.95
12.3737	1894.35
12.4451	1893.73
12.517	1893.09
12.5893	1892.44
12.6619	1891.78
12.735	1891.1
12.8086	1890.4
12.8825	1889.68
12.9569	1888.95
13.0317	1888.2
13.1069	1887.44
13.1826	1886.66
13.2587	1885.86
13.3352	1885.05
13.4122	1884.23
13.4896	1883.38
13.5675	1882.52
13.6458	1881.65
13.7246	1880.76
13.8038	1879.86
13.8835	1878.94
13.9637	1878
14.0443	1877.05
14.1254	1876.09
14.2069	1875.11
14.2889	1874.11
14.3714	1873.11
14.4544	1872.09
14.5378	1871.05
14.6218	1870
14.7062	1868.94
14.7911	1867.86
14.8765	1866.77
14.9624	1865.67
15.0487	1864.55
15.1356	1863.41
15.223	1862.27
15.3109	1861.11
15.3993	1859.93
15.4882	1858.75
15.5776	1857.54
15.6675	1856.33
15.758	1855.1
15.8489	1853.86
15.9404	1852.6
16.0325	1851.33
16.125	1850.05
16.2181	1848.75
16.3117	1847.45
16.4059	1846.12
16.5006	1844.79
16.5959	1843.44
16.6917	1842.08
16.788	1840.7
16.885	1839.32
16.9824	1837.92
17.0805	1836.51
17.1791	1835.09
17.2783	1833.65
17.378	1832.2
17.4783	1830.74
17.5792	1829.26
17.6807	1827.78
17.7828	1826.28
17.8855	1824.77
17.9887	1823.24
18.0926	1821.71
18.197	1820.16
18.3021	1818.6
18.4077	1817.03
18.514	1815.44
18.6209	1813.84
18.7284	1812.23
18.8365	1810.61
18.9452	1808.98
19.0546	1807.33
19.1646	1805.68
19.2752	1804.01
19.3865	1802.33
19.4984	1800.63
19.611	1798.93
19.7242	1797.21
19.8381	1795.49
19.9526	1793.75
20.0678	1792
20.1837	1790.23
20.3002	1788.46
20.4174	1786.67
20.5353	1784.88
20.6538	1783.07
20.773	1781.25
20.893	1779.42
21.0136	1777.57
21.1349	1775.72
21.2569	1773.86
21.3796	1771.98
21.503	1770.09
21.6272	1768.19
21.752	1766.28
21.8776	1764.36
22.0039	1762.43
22.1309	1760.49
22.2587	1758.54
22.3872	1756.58
22.5165	1754.6
22.6464	1752.62
22.7772	1750.63
22.9087	1748.62
23.0409	1746.61
23.1739	1744.58
23.3077	1742.55
23.4423	1740.5
23.5776	1738.45
23.7137	1736.39
23.8506	1734.32
23.9883	1732.23
24.1268	1730.14
24.2661	1728.04
24.4062	1725.93
24.5471	1723.81
24.6888	1721.69
24.8313	1719.55
24.9747	1717.4
25.1189	1715.25
25.2639	1713.08
25.4097	1710.91
25.5564	1708.73
25.704	1706.53
25.8523	1704.33
26.0016	1702.12
26.1517	1699.9
26.3027	1697.67
26.4545	1695.44
26.6073	1693.19
26.7609	1690.93
26.9153	1688.67
27.0707	1686.4
27.227	1684.11
27.3842	1681.82
27.5423	1679.52
27.7013	1677.21
27.8612	1674.89
28.0221	1672.56
28.1838	1670.22
28.3465	1667.88
28.5102	1665.52
28.6748	1663.16
28.8403	1660.79
29.0068	1658.4
29.1743	1656.01
29.3427	1653.61
29.5121	1651.21
29.6825	1648.79
29.8538	1646.36
30.0262	1643.93
30.1995	1641.49
30.3739	1639.03
30.5492	1636.57
30.7256	1634.11
30.903	1631.63
31.0814	1629.14
31.2608	1626.65
31.4413	1624.15
31.6228	1621.64
31.8053	1619.12
31.989	1616.59
32.1736	1614.06
32.3594	1611.51
32.5462	1608.96
32.7341	1606.4
32.923	1603.84
33.1131	1601.26
33.3043	1598.68
33.4965	1596.09
33.6899	1593.5
33.8844	1590.89
34.08	1588.28
34.2768	1585.66
34.4747	1583.03
34.6737	1580.4
34.8739	1577.76
35.0752	1575.11
35.2777	1572.46
35.4813	1569.79
35.6862	1567.13
35.8922	1564.45
36.0994	1561.78
36.3078	1559.1
36.5174	1556.41
36.7282	1553.72
36.9403	1551.03
37.1535	1548.33
37.368	1545.62
37.5837	1542.9
37.8007	1540.18
38.0189	1537.45
38.2384	1534.72
38.4592	1531.98
38.6812	1529.24
38.9045	1526.49
39.1291	1523.73
39.355	1520.97
39.5822	1518.2
39.8107	1515.43
40.0405	1512.65
40.2717	1509.87
40.5042	1507.08
40.738	1504.28
40.9732	1501.48
41.2098	1498.68
41.4477	1495.86
41.6869	1493.05
41.9276	1490.23
42.1697	1487.4
42.4131	1484.57
42.658	1481.73
42.9042	1478.89
43.1519	1476.04
43.401	1473.19
43.6516	1470.33
43.9036	1467.47
44.157	1464.6
44.412	1461.73
44.6684	1458.85
44.9262	1455.97
45.1856	1453.08
45.4465	1450.19
45.7088	1447.3
45.9727	1444.4
46.2381	1441.5
46.505	1438.59
46.7735	1435.68
47.0435	1432.76
47.3151	1429.84
47.5883	1426.91
47.863	1423.99
48.1393	1421.05
48.4172	1418.11
48.6968	1415.16
48.9779	1412.21
49.2606	1409.26
49.545	1406.3
49.831	1403.33
50.1187	1400.37
50.4081	1397.4
50.6991	1394.43
50.9918	1391.45
51.2861	1388.47
51.5822	1385.49
51.88	1382.5
52.1795	1379.51
52.4807	1376.51
52.7837	1373.52
53.0884	1370.52
53.3949	1367.51
53.7032	1364.5
54.0132	1361.49
54.325	1358.48
54.6387	1355.46
54.9541	1352.44
55.2713	1349.42
55.5904	1346.4
55.9114	1343.37
56.2341	1340.34
56.5588	1337.3
56.8853	1334.27
57.2137	1331.23
57.544	1328.18
57.8762	1325.14
58.2103	1322.09
58.5464	1319.04
58.8844	1315.99
59.2243	1312.93
59.5662	1309.87
59.9101	1306.81
60.256	1303.75
60.6038	1300.68
60.9537	1297.61
61.3056	1294.54
61.6595	1291.47
62.0155	1288.39
62.3735	1285.31
62.7336	1282.23
63.0957	1279.15
63.46	1276.06
63.8263	1272.98
64.1948	1269.89
64.5654	1266.8
64.9382	1263.71
65.3131	1260.61
65.6901	1257.52
66.0693	1254.42
66.4508	1251.32
66.8344	1248.22
67.2202	1245.12
67.6083	1242.02
67.9986	1238.92
68.3912	1235.81
68.786	1232.71
69.1831	1229.6
69.5825	1226.49
69.9842	1223.39
70.3882	1220.28
70.7946	1217.17
71.2033	1214.06
71.6143	1210.94
72.0278	1207.83
72.4436	1204.72
72.8618	1201.6
73.2825	1198.48
73.7055	1195.37
74.131	1192.25
74.559	1189.13
74.9894	1186.01
75.4223	1182.89
75.8578	1179.78
76.2957	1176.66
76.7361	1173.54
77.1792	1170.42
77.6247	1167.3
78.0728	1164.19
78.5236	1161.07
78.9769	1157.95
79.4328	1154.84
79.8914	1151.72
80.3526	1148.6
80.8165	1145.49
81.2831	1142.37
81.7523	1139.26
82.2243	1136.15
82.699	1133.04
83.1764	1129.92
83.6566	1126.81
84.1395	1123.7
84.6253	1120.59
85.1138	1117.48
85.6052	1114.38
86.0994	1111.27
86.5964	1108.16
87.0964	1105.06
87.5992	1101.95
88.1049	1098.85
88.6135	1095.75
89.1251	1092.65
89.6396	1089.55
90.1571	1086.45
90.6776	1083.35
91.2011	1080.25
91.7276	1077.15
92.2571	1074.06
92.7897	1070.96
93.3254	1067.87
93.8642	1064.77
94.4061	1061.68
94.9511	1058.58
95.4993	1055.49
96.0506	1052.4
96.6051	1049.32
97.1628	1046.24
97.7237	1043.16
98.2879	1040.08
98.8553	1037.01
99.426	1033.93
100	1030.86
100.577	1027.78
101.158	1024.71
101.742	1021.64
102.329	1018.57
102.92	1015.5
103.514	1012.43
104.112	1009.37
104.713	1006.3
105.317	1003.24
105.925	1000.18
106.537	997.122
107.152	994.066
107.771	991.013
108.393	987.961
109.018	984.912
109.648	981.866
110.281	978.821
110.917	975.78
111.558	972.741
112.202	969.705
112.85	966.672
113.501	963.641
114.156	960.614
114.815	957.59
115.478	954.569
116.145	951.551
116.815	948.536
117.49	945.524
118.168	942.516
118.85	939.511
119.536	936.51
120.226	933.511
120.921	930.512
121.619	927.518
122.321	924.527
123.027	921.539
123.737	918.556
124.451	915.576
125.17	912.6
125.893	909.628
126.619	906.66
127.35	903.696
128.086	900.736
128.825	897.781
129.569	894.829
130.317	891.881
131.069	888.938
131.826	885.999
132.587	883.064
133.352	880.134
134.122	877.207
134.896	874.285
135.675	871.367
136.458	868.454
137.246	865.545
138.038	862.639
138.835	859.739
139.637	856.842
140.443	853.949
141.254	851.061
142.069	848.176
142.889	845.296
143.714	842.419
144.544	839.546
145.378	836.677
146.218	833.812
147.062	830.951
147.911	828.095
148.765	825.242
149.624	822.393
150.487	819.549
151.356	816.71
152.23	813.874
153.109	811.043
153.993	808.217
154.882	805.395
155.776	802.578
156.675	799.766
157.58	796.958
158.489	794.155
159.404	791.357
160.325	788.564
161.25	785.775
162.181	782.991
163.117	780.212
164.059	777.438
165.006	774.669
165.959	771.904
166.917	769.145
167.88	766.39
168.85	763.64
169.824	760.895
170.805	758.155
171.791	755.42
172.783	752.69
173.78	749.966
174.783	747.246
175.792	744.532
176.807	741.823
177.828	739.119
178.855	736.421
179.887	733.729
180.926	731.042
181.97	728.36
183.021	725.685
184.077	723.014
185.14	720.35
186.209	717.691
187.284	715.038
188.365	712.391
189.452	709.749
190.546	707.113
191.646	704.483
192.752	701.859
193.865	699.241
194.984	696.628
196.11	694.021
197.242	691.42
198.381	688.825
199.526	686.236
200.678	683.653
201.837	681.077
203.002	678.506
204.174	675.941
205.353	673.382
206.538	670.83
207.73	668.283
208.93	665.743
210.136	663.208
211.349	660.68
212.569	658.158
213.796	655.642
215.03	653.132
216.272	650.627
217.52	648.129
218.776	645.637
220.039	643.15
221.309	640.67
222.587	638.195
223.872	635.726
225.165	633.264
226.464	630.807
227.772	628.356
229.087	625.911
230.409	623.472
231.739	621.039
233.077	618.611
234.423	616.189
235.776	613.773
237.137	611.363
238.506	608.958
239.883	606.558
241.268	604.16
242.661	601.768
244.062	599.381
245.471	596.999
246.888	594.623
248.313	592.253
249.747	589.89
251.189	587.532
252.639	585.18
254.097	582.834
255.564	580.495
257.04	578.162
258.523	575.836
260.016	573.516
261.517	571.203
263.027	568.897
264.545	566.597
266.073	564.304
267.609	562.019
269.153	559.74
270.707	557.469
272.27	555.204
273.842	552.947
275.423	550.697
277.013	548.455
278.612	546.22
280.221	543.992
281.838	541.772
283.465	539.559
285.102	537.354
286.748	535.157
288.403	532.967
290.068	530.785
291.743	528.61
293.427	526.443
295.121	524.284
296.825	522.133
298.538	519.989
300.262	517.853
301.995	515.725
303.739	513.604
305.492	511.491
307.256	509.386
309.03	507.288
310.814	505.198
312.608	503.115
314.413	501.04
316.228	498.972
318.053	496.912
319.89	494.858
321.736	492.812
323.594	490.773
325.462	488.741
327.341	486.715
329.23	484.697
331.131	482.685
333.043	480.679
334.965	478.68
336.899	476.687
338.844	474.7
340.8	472.719
342.768	470.743
344.747	468.773
346.737	466.808
348.739	464.848
350.752	462.893
352.777	460.942
354.813	458.996
356.862	457.054
358.922	455.115
360.994	453.201
363.078	451.314
365.174	449.431
367.282	447.552
369.403	445.676
371.535	443.805
373.68	441.937
375.837	440.074
378.007	438.214
380.189	436.359
382.384	434.509
384.592	432.663
386.812	430.821
389.045	428.985
391.291	427.152
393.55	425.325
395.822	423.503
398.107	421.686
400.405	419.874
402.717	418.067
405.042	416.265
407.38	414.469
409.732	412.678
412.098	410.892
414.477	409.112
416.869	407.338
419.276	405.57
421.697	403.807
424.131	402.05
426.58	400.3
429.042	398.555
431.519	396.816
434.01	395.084
436.516	393.357
439.036	391.637
441.57	389.924
444.12	388.216
446.684	386.515
449.262	384.821
451.856	383.133
454.465	381.452
457.088	379.777
459.727	378.109
462.381	376.448
465.05	374.793
467.735	373.145
470.435	371.504
473.151	369.87
475.883	368.243
478.63	366.622
481.393	365.004
484.172	363.389
486.968	361.78
489.779	360.178
492.606	358.584
495.45	356.996
498.31	355.415
501.187	353.841
504.081	352.275
506.991	350.715
509.918	349.162
512.861	347.617
515.822	346.078
518.8	344.547
521.795	343.022
524.807	341.505
527.837	339.995
530.884	338.491
533.949	336.995
537.032	335.505
540.132	334.023
543.25	332.547
546.387	331.078
549.541	329.616
552.713	328.16
555.904	326.712
559.114	325.269
562.341	323.833
565.588	322.404
568.853	320.981
572.137	319.564
575.44	318.153
578.762	316.747
582.103	315.348
585.464	313.955
588.844	312.567
592.243	311.184
595.662	309.807
599.101	308.434
602.56	307.067
606.038	305.704
609.537	304.346
613.056	302.992
616.595	301.644
620.155	300.301
623.735	298.963
627.336	297.63
630.957	296.302
634.6	294.979
638.263	293.662
641.948	292.349
645.654	291.042
649.382	289.74
653.131	288.444
656.901	287.153
660.693	285.866
664.508	284.586
668.344	283.31
672.202	282.04
676.083	280.775
679.986	279.516
683.912	278.261
687.86	277.012
691.831	275.768
695.825	274.53
699.842	273.296
703.882	272.068
707.946	270.845
712.033	269.627
716.143	268.413
720.278	267.205
724.436	266
728.618	264.799
732.825	263.603
737.055	262.413
741.31	261.227
745.59	260.047
749.894	258.872
754.223	257.702
758.578	256.537
762.957	255.377
767.361	254.223
771.792	253.074
776.247	251.931
780.728	250.793
785.236	249.66
789.769	248.532
794.328	247.41
798.914	246.293
803.526	245.182
808.165	244.076
812.831	242.976
817.523	241.881
822.243	240.791
826.99	239.707
831.764	238.628
836.566	237.555
841.395	236.486
846.253	235.424
851.138	234.366
856.052	233.314
860.994	232.266
865.964	231.224
870.964	230.188
875.992	229.156
881.049	228.129
886.135	227.107
891.251	226.09
896.396	225.078
901.571	224.071
906.776	223.068
912.011	222.069
917.276	221.076
922.571	220.086
927.897	219.101
933.254	218.12
938.642	217.143
944.061	216.169
949.511	215.2
954.993	214.234
960.506	213.272
966.051	212.321
971.628	211.374
977.237	210.429
982.879	209.489
988.553	208.551
994.26	207.618
1000	206.688
1005.77	205.761
1011.58	204.838
1017.42	203.919
1023.29	203.004
1029.2	202.092
1035.14	201.184
1041.12	200.28
1047.13	199.379
1053.17	198.483
1059.25	197.59
1065.37	196.701
1071.52	195.816
1077.71	194.935
1083.93	194.058
1090.18	193.185
1096.48	192.315
1102.81	191.45
1109.17	190.589
1115.58	189.731
1122.02	188.878
1128.5	188.029
1135.01	187.183
1141.56	186.342
1148.15	185.504
1154.78	184.67
1161.45	183.84
1168.15	183.015
1174.9	182.193
1181.68	181.374
1188.5	180.56
1195.36	179.75
1202.26	178.942
1209.21	178.137
1216.19	177.336
1223.21	176.539
1230.27	175.745
1237.37	174.956
1244.51	174.17
1251.7	173.388
1258.93	172.61
1266.19	171.836
1273.5	171.065
1280.86	170.299
1288.25	169.536
1295.69	168.778
1303.17	168.023
1310.69	167.273
1318.26	166.526
1325.87	165.783
1333.52	165.044
1341.22	164.309
1348.96	163.578
1356.75	162.851
1364.58	162.128
1372.46	161.409
1380.38	160.693
1388.35	159.981
1396.37	159.273
1404.43	158.569
1412.54	157.869
1420.69	157.172
1428.89	156.479
1437.14	155.789
1445.44	155.103
1453.78	154.421
1462.18	153.742
1470.62	153.066
1479.11	152.394
1487.65	151.726
1496.24	151.06
1504.87	150.399
1513.56	149.74
1522.3	149.085
1531.09	148.433
1539.93	147.784
1548.82	147.138
1557.76	146.496
1566.75	145.856
1575.8	145.22
1584.89	144.586
1594.04	143.956
1603.25	143.328
1612.5	142.702
1621.81	142.08
1631.17	141.46
1640.59	140.842
1650.06	140.227
1659.59	139.614
1669.17	139.003
1678.8	138.394
1688.5	137.787
1698.24	137.181
1708.05	136.578
1717.91	135.977
1727.83	135.378
1737.8	134.781
1747.83	134.187
1757.92	133.595
1768.07	133.005
1778.28	132.417
1788.55	131.832
1798.87	131.25
1809.26	130.67
1819.7	130.093
1830.21	129.518
1840.77	128.946
1851.4	128.378
1862.09	127.812
1872.84	127.249
1883.65	126.689
1894.52	126.132
1905.46	125.579
1916.46	125.029
1927.52	124.482
1938.65	123.938
1949.84	123.398
1961.1	122.861
1972.42	122.327
1983.81	121.797
1995.26	121.27
2006.78	120.745
2018.37	120.224
2030.02	119.706
2041.74	119.192
2053.53	118.679
2065.38	118.17
2077.3	117.664
2089.3	117.16
2101.36	116.66
2113.49	116.161
2125.69	115.665
2137.96	115.172
2150.3	114.681
2162.72	114.193
2175.2	113.706
2187.76	113.222
2200.39	112.74
2213.09	112.26
2225.87	111.782
2238.72	111.306
2251.65	110.833
2264.64	110.361
2277.72	109.892
2290.87	109.425
2304.09	108.96
2317.39	108.491
2330.77	107.996
2344.23	107.504
2357.76	107.014
2371.37	106.526
2385.06	106.041
2398.83	105.558
2412.68	105.076
2426.61	104.597
2440.62	104.119
2454.71	103.644
2468.88	103.171
2483.13	102.701
2497.47	102.233
2511.89	101.767
2526.39	101.303
2540.97	100.842
2555.64	100.384
2570.4	99.9273
2585.23	99.4733
2600.16	99.0219
2615.17	98.5728
2630.27	98.1263
2645.45	97.6822
2660.73	97.2406
2676.09	96.8015
2691.53	96.3649
2707.07	95.9308
2722.7	95.4992
2738.42	95.0702
2754.23	94.6437
2770.13	94.2198
2786.12	93.7984
2802.21	93.3795
2818.38	92.9633
2834.65	92.5495
2851.02	92.1384
2867.48	91.7298
2884.03	91.3237
2900.68	90.9203
2917.43	90.5193
2934.27	90.1209
2951.21	89.7251
2968.25	89.3318
2985.38	88.9409
3002.62	88.5526
3019.95	88.1668
3037.39	87.7835
3054.92	87.4026
3072.56	87.0242
3090.3	86.6482
3108.14	86.2746
3126.08	85.9034
3144.13	85.5345
3162.28	85.168
3180.53	84.8037
3198.9	84.4417
3217.36	84.082
3235.94	83.7244
3254.62	83.369
3273.41	83.0157
3292.3	82.6644
3311.31	82.3152
3330.43	81.968
3349.65	81.6226
3368.99	81.2792
3388.44	80.9376
3408	80.5977
3427.68	80.2595
3447.47	79.9229
3467.37	79.5879
3487.39	79.2543
3507.52	78.9222
3527.77	78.5914
3548.13	78.2618
3568.62	77.9334
3589.22	77.606
3609.94	77.2845
3630.78	76.9693
3651.74	76.655
3672.82	76.3418
3694.03	76.0296
3715.35	75.7185
3736.8	75.4084
3758.37	75.0994
3780.07	74.7916
3801.89	74.4848
3823.84	74.1792
3845.92	73.8747
3868.12	73.5714
3890.45	73.2692
3912.91	72.9683
3935.5	72.6685
3958.22	72.37
3981.07	72.0727
4004.05	71.7767
4027.17	71.4819
4050.42	71.1884
4073.8	70.8962
4097.32	70.6053
4120.98	70.3157
4144.77	70.0275
4168.69	69.7406
4192.76	69.4551
4216.97	69.1709
4241.31	68.8881
4265.8	68.6067
4290.42	68.3267
4315.19	68.0481
4340.1	67.771
4365.16	67.4953
4390.36	67.221
4415.7	66.9482
4441.2	66.6769
4466.84	66.4071
4492.62	66.1387
4518.56	65.8718
4544.65	65.6064
4570.88	65.3426
4597.27	65.0802
4623.81	64.8194
4650.5	64.5601
4677.35	64.3023
4704.35	64.0461
4731.51	63.7914
4758.83	63.5382
4786.3	63.2866
4813.93	63.0357
4841.72	62.7857
4869.68	62.5372
4897.79	62.2902
4926.06	62.0448
4954.5	61.8009
4983.1	61.5586
5011.87	61.3178
5040.81	61.0786
5069.91	60.8409
5099.18	60.6048
5128.61	60.3702
5158.22	60.1371
5188	59.9056
5217.95	59.6755
5248.07	59.447
5278.37	59.22
5308.84	58.9945
5339.49	58.7705
5370.32	58.548
5401.32	58.3269
5432.5	58.1073
5463.87	57.8891
5495.41	57.6724
5527.13	57.457
5559.04	57.243
5591.14	57.0304
5623.41	56.8191
5655.88	56.6092
5688.53	56.4005
5721.37	56.1931
5754.4	55.9869
5787.62	55.782
5821.03	55.5782
5854.64	55.3756
5888.44	55.1741
5922.43	54.9737
5956.62	54.7743
5991.01	54.5759
6025.6	54.3784
6060.38	54.1819
6095.37	53.9863
6130.56	53.7916
6165.95	53.598
6201.55	53.4053
6237.35	53.2136
6273.36	53.0228
6309.57	52.8331
6346	52.6443
6382.63	52.4566
6419.48	52.2698
6456.54	52.084
6493.82	51.8992
6531.31	51.7155
6569.01	51.5327
6606.93	51.3509
6645.08	51.1701
6683.44	50.9903
6722.02	50.8115
6760.83	50.6337
6799.86	50.4569
6839.12	50.2811
6878.6	50.1063
6918.31	49.9324
6958.25	49.7596
6998.42	49.5876
7038.82	49.4167
7079.46	49.2467
7120.33	49.0776
7161.43	48.9095
7202.78	48.7423
7244.36	48.5756
7286.18	48.4099
7328.25	48.245
7370.55	48.0811
7413.1	47.9182
7455.9	47.7562
7498.94	47.5951
7542.23	47.435
7585.78	47.2758
7629.57	47.1176
7673.61	46.9603
7717.92	46.804
7762.47	46.6487
7807.28	46.4943
7852.36	46.3409
7897.69	46.1885
7943.28	46.037
7989.14	45.8865
8035.26	45.737
8081.65	45.5884
8128.31	45.4408
8175.23	45.2942
8222.43	45.1485
8269.9	45.0038
8317.64	44.86
8365.66	44.7171
8413.95	44.5753
8462.53	44.4343
8511.38	44.2943
8560.52	44.1552
8609.94	44.017
8659.64	43.8797
8709.64	43.7433
8759.92	43.6078
8810.49	43.4732
8861.35	43.3394
8912.51	43.2065
8963.96	43.0744
9015.71	42.9431
9067.76	42.8127
9120.11	42.683
9172.76	42.5541
9225.71	42.4259
9278.97	42.2985
9332.54	42.1718
9386.42	42.0458
9440.61	41.9204
9495.11	41.7957
9549.93	41.6716
9605.06	41.5483
9660.51	41.4266
9716.28	41.3054
9772.37	41.1849
9828.79	41.065
9885.53	40.9456
9942.6	40.8269
10000	40.7087
10057.7	40.5912
10115.8	40.4743
10174.2	40.358
10232.9	40.2423
10292	40.1273
10351.4	40.0128
10411.2	39.899
10471.3	39.7859
10531.7	39.6734
10592.5	39.5615
10653.7	39.4503
10715.2	39.3397
10777.1	39.2298
10839.3	39.1206
10901.8	39.0119
10964.8	38.904
11028.1	38.7967
11091.7	38.6901
11155.8	38.5841
11220.2	38.4788
11285	38.3741
11350.1	38.2701
11415.6	38.1667
11481.5	38.0641
11547.8	37.962
11614.5	37.8606
11681.5	37.7599
11749	37.6598
11816.8	37.5604
11885	37.4616
11953.6	37.3634
12022.6	37.2658
12092.1	37.1686
12161.9	37.072
12232.1	36.9761
12302.7	36.8808
12373.7	36.7861
12445.1	36.6921
12517	36.5987
12589.3	36.5059
12661.9	36.4137
12735	36.3222
12808.6	36.2313
12882.5	36.141
12956.9	36.0513
13031.7	35.9623
13106.9	35.8739
13182.6	35.7861
13258.7	35.6989
13335.2	35.6123
13412.2	35.5263
13489.6	35.4409
13567.5	35.3561
13645.8	35.2718
13724.6	35.1882
13803.8	35.1051
13883.5	35.0225
13963.7	34.9405
14044.3	34.8591
14125.4	34.7782
14206.9	34.6978
14288.9	34.6179
14371.4	34.5386
14454.4	34.4597
14537.8	34.3812
14621.8	34.3033
14706.2	34.2259
14791.1	34.1489
14876.5	34.0724
14962.4	33.9964
15048.7	33.921
15135.6	33.846
15223	33.7715
15310.9	33.6974
15399.3	33.6239
15488.2	33.5509
15577.6	33.4784
15667.5	33.4063
15758	33.3347
15848.9	33.2637
15940.4	33.1931
16032.5	33.123
16125	33.0533
16218.1	32.9842
16311.7	32.9155
16405.9	32.8473
16500.6	32.7796
16595.9	32.7123
16691.7	32.6454
16788	32.5791
16885	32.5131
16982.4	32.4476
17080.5	32.3826
17179.1	32.318
17278.3	32.2539
17378	32.1902
17478.3	32.1269
17579.2	32.0641
17680.7	32.0017
17782.8	31.9398
17885.5	31.8783
17988.7	31.8173
18092.6	31.7567
18197	31.6966
18302.1	31.6369
18407.7	31.5776
18514	31.5188
18620.9	31.4603
18728.4	31.4024
18836.5	31.3448
18945.2	31.2877
19054.6	31.2309
19164.6	31.1746
19275.2	31.1187
19386.5	31.0632
19498.4	31.0081
19611	30.9534
19724.2	30.8991
19838.1	30.8452
19952.6	30.7917
20067.8	30.7386
20183.7	30.6859
20300.2	30.6335
20417.4	30.5816
20535.3	30.5301
20653.8	30.4789
20773	30.4282
20893	30.3778
21013.6	30.3278
21134.9	30.2781
21256.9	30.2289
21379.6	30.1799
21503	30.1314
21627.2	30.0832
21752	30.0353
21877.6	29.9878
22003.9	29.9407
22130.9	29.8938
22258.7	29.8473
22387.2	29.801
22516.5	29.7551
22646.4	29.7095
22777.2	29.6641
22908.7	29.6191
23040.9	29.5743
23173.9	29.5297
23307.7	29.4854
23442.3	29.4413
23577.6	29.3975
23713.7	29.3538
23850.6	29.3103
23988.3	29.267
24126.8	29.222
24266.1	29.1771
24406.2	29.1325
24547.1	29.0883
24688.8	29.0444
24831.3	29.0008
24974.7	28.9575
25118.9	28.9146
25263.9	28.872
25409.7	28.8297
25556.4	28.7877
25704	28.746
25852.3	28.7047
26001.6	28.6636
26151.7	28.6229
26302.7	28.5825
26454.5	28.5424
26607.3	28.5026
26760.9	28.4631
26915.3	28.4239
27070.7	28.385
27227	28.3464
27384.2	28.3081
27542.3	28.27
27701.3	28.2323
27861.2	28.1949
28022.1	28.1578
28183.8	28.1209
28346.5	28.0844
28510.2	28.0481
28674.8	28.0121
28840.3	27.9764
29006.8	27.941
29174.3	27.9058
29342.7	27.8709
29512.1	27.8363
29682.5	27.802
29853.8	27.768
30026.2	27.7342
30199.5	27.7007
30373.9	27.6674
30549.2	27.6344
30725.6	27.6017
30903	27.5693
31081.4	27.5371
31260.8	27.5052
31441.3	27.4735
31622.8	27.4421
31805.3	27.4109
31989	27.38
32173.6	27.3494
32359.4	27.319
32546.2	27.2888
32734.1	27.2589
32923	27.2292
33113.1	27.1998
33304.3	27.1707
33496.5	27.1417
33689.9	27.113
33884.4	27.0846
34080	27.0564
34276.8	27.0284
34474.7	27.0007
34673.7	26.9732
34873.9	26.9459
35075.2	26.9189
35277.7	26.892
35481.3	26.8655
35686.2	26.8391
35892.2	26.813
36099.4	26.7871
36307.8	26.7614
36517.4	26.7359
36728.2	26.7107
36940.3	26.6856
37153.5	26.6608
37368	26.6362
37583.7	26.6118
37800.7	26.5877
38018.9	26.5637
38238.4	26.54
38459.2	26.5164
38681.2	26.4931
38904.5	26.47
39129.1	26.4471
39355	26.4244
39582.2	26.4019
39810.7	26.3796
40040.5	26.3575
40271.7	26.3355
40504.2	26.3138
40738	26.2923
40973.2	26.271
41209.8	26.2499
41447.7	26.229
41686.9	26.2082
41927.6	26.1877
42169.7	26.1673
42413.1	26.1471
42658	26.1272
42904.2	26.1074
43151.9	26.0877
43401	26.0683
43651.6	26.0491
43903.6	26.03
44157	26.0111
44412	25.9924
44668.4	25.9739
44926.2	25.9555
45185.6	25.9373
45446.5	25.9193
45708.8	25.9015
45972.7	25.8838
46238.1	25.8663
46505	25.849
46773.5	25.8319
47043.5	25.8149
47315.1	25.798
47588.3	25.7814
47863	25.7649
48139.3	25.7486
48417.2	25.7324
48696.8	25.7164
48977.9	25.7005
49260.6	25.6849
49545	25.6693
49831	25.6539
50118.7	25.6387
50408.1	25.6237
50699.1	25.6087
50991.8	25.594
51286.1	25.5794
51582.2	25.5649
51880	25.5506
52179.5	25.5364
52480.7	25.5224
52783.7	25.5086
53088.4	25.4948
53394.9	25.4813
53703.2	25.4678
54013.2	25.4545
54325	25.4414
54638.7	25.4283
54954.1	25.4155
55271.3	25.4027
55590.4	25.3901
55911.4	25.3777
56234.1	25.3653
56558.8	25.3531
56885.3	25.3411
57213.7	25.3291
57544	25.3173
57876.2	25.3057
58210.3	25.2941
58546.4	25.2827
58884.4	25.2714
59224.3	25.2603
59566.2	25.2493
59910.1	25.2383
60256	25.2276
60603.8	25.2169
60953.7	25.2064
61305.6	25.1959
61659.5	25.1856
62015.5	25.1755
62373.5	25.1654
62733.6	25.1555
63095.7	25.1456
63460	25.1359
63826.3	25.1263
64194.8	25.1169
64565.4	25.1075
64938.2	25.0982
65313.1	25.0891
65690.1	25.0801
66069.3	25.0711
66450.8	25.0623
66834.4	25.0536
67220.2	25.045
67608.3	25.0365
67998.6	25.0281
68391.2	25.0199
68786	25.0117
69183.1	25.0036
69582.5	24.9956
69984.2	24.9878
70388.2	24.98
70794.6	24.9723
71203.3	24.9647
71614.3	24.9573
72027.8	24.9499
72443.6	24.9426
72861.8	24.9354
73282.5	24.9284
73705.5	24.9214
74131	24.9145
74559	24.9077
74989.4	24.9009
75422.3	24.8943
75857.8	24.8878
76295.7	24.8813
76736.1	24.875
77179.2	24.8687
77624.7	24.8626
78072.8	24.8565
78523.6	24.8505
78976.9	24.8445
79432.8	24.8387
79891.4	24.833
80352.6	24.8273
80816.5	24.8217
81283.1	24.8162
81752.3	24.8108
82224.3	24.8055
82699	24.8002
83176.4	24.795
83656.6	24.7899
84139.5	24.7849
84625.3	24.78
85113.8	24.7751
85605.2	24.7703
86099.4	24.7656
86596.4	24.7609
87096.4	24.7564
87599.2	24.7519
88104.9	24.7474
88613.5	24.7431
89125.1	24.7388
89639.6	24.7346
90157.1	24.7305
90677.6	24.7264
91201.1	24.7224
91727.6	24.7185
92257.1	24.7146
92789.7	24.7108
93325.4	24.7071
93864.2	24.7034
94406.1	24.6998
94951.1	24.6963
95499.3	24.6928
96050.6	24.6894
96605.1	24.686
97162.8	24.6828
97723.7	24.6795
98287.9	24.6764
98855.3	24.6733
99426	24.6702
100000	24.6672
100577	24.6643
101158	24.6615
101742	24.6586
102329	24.6559
102920	24.6532
103514	24.6506
104112	24.648
104713	24.6454
105317	24.643
105925	24.6406
106537	24.6382
107152	24.6359
107771	24.6336
108393	24.6314
109018	24.6292
109648	24.6271
110281	24.6251
110917	24.6231
111558	24.6211
112202	24.6192
112850	24.6173
113501	24.6155
114156	24.6137
114815	24.612
115478	24.6103
116145	24.6087
116815	24.6071
117490	24.6056
118168	24.6041
118850	24.6026
119536	24.6012
120226	24.5998
120921	24.5985
121619	24.5972
122321	24.596
123027	24.5948
123737	24.5936
124451	24.5925
125170	24.5914
125893	24.5904
126619	24.5894
127350	24.5884
128086	24.5875
128825	24.5866
129569	24.5857
130317	24.5849
131069	24.5842
131826	24.5834
132587	24.5827
133352	24.582
134122	24.5814
134896	24.5808
135675	24.5802
136458	24.5797
137246	24.5792
138038	24.5787
138835	24.5782
139637	24.5778
140443	24.5775
141254	24.5771
142069	24.5768
142889	24.5765
143714	24.5762
144544	24.576
145378	24.5758
146218	24.5757
147062	24.5755
147911	24.5754
148765	24.5753
149624	24.5753
150487	24.5752
151356	24.5752
152230	24.5752
153109	24.5753
153993	24.5754
154882	24.5755
155776	24.5756
156675	24.5757
157580	24.5759
158489	24.5761
159404	24.5763
160325	24.5765
161250	24.5768
162181	24.5771
163117	24.5774
164059	24.5777
165006	24.5781
165959	24.5785
166917	24.5789
167880	24.5793
168850	24.5797
169824	24.5802
170805	24.5806
171791	24.5811
172783	24.5817
173780	24.5822
174783	24.5827
175792	24.5833
176807	24.5839
177828	24.5845
178855	24.5851
179887	24.5858
180926	24.5864
181970	24.5871
183021	24.5878
184077	24.5885
185140	24.5892
186209	24.59
187284	24.5907
188365	24.5915
189452	24.5923
190546	24.5931
191646	24.5939
192752	24.5947
193865	24.5955
194984	24.5964
196110	24.5973
197242	24.5981
198381	24.599
199526	24.5999
200678	24.6009
201837	24.6018
203002	24.6027
204174	24.6037
205353	24.6047
206538	24.6056
207730	24.6066
208930	24.6076
210136	24.6086
211349	24.6096
212569	24.6107
213796	24.6117
215030	24.6128
216272	24.6138
217520	24.6149
218776	24.616
220039	24.6171
221309	24.6182
222587	24.6193
223872	24.6204
225165	24.6215
226464	24.6226
227772	24.6238
229087	24.6249
230409	24.626
231739	24.6272
233077	24.6284
234423	24.6295
235776	24.6307
237137	24.6319
238506	24.6331
239883	24.6343
241268	24.6355
242661	24.6367
244062	24.6379
245471	24.6391
246888	24.6404
248313	24.6416
249747	24.6428
251189	24.6441
252639	24.6453
254097	24.6466
255564	24.6478
257040	24.6491
258523	24.6503
260016	24.6516
261517	24.6529
263027	24.6541
264545	24.6554
266073	24.6567
267609	24.658
269153	24.6593
270707	24.6606
272270	24.6618
273842	24.6631
275423	24.6644
277013	24.6657
278612	24.667
280221	24.6683
281838	24.6696
283465	24.6709
285102	24.6722
286748	24.6736
288403	24.6749
290068	24.6762
291743	24.6775
293427	24.6788
295121	24.6801
296825	24.6814
298538	24.6827
300262	24.6841
301995	24.6854
303739	24.6867
305492	24.688
307256	24.6893
309030	24.6906
310814	24.692
312608	24.6933
314413	24.6946
316228	24.6959
318053	24.6972
319890	24.6985
321736	24.6998
323594	24.7012
325462	24.7025
327341	24.7038
329230	24.7051
331131	24.7064
333043	24.7077
334965	24.709
336899	24.7103
338844	24.7116
340800	24.7129
342768	24.7142
344747	24.7155
346737	24.7168
348739	24.7181
350752	24.7194
352777	24.7207
354813	24.722
356862	24.7232
358922	24.7245
360994	24.7258
363078	24.7271
365174	24.7283
367282	24.7296
369403	24.7309
371535	24.7322
373680	24.7334
375837	24.7347
378007	24.7359
380189	24.7372
382384	24.7384
384592	24.7397
386812	24.7409
389045	24.7422
391291	24.7434
393550	24.7446
395822	24.7459
398107	24.7471
400405	24.7483
402717	24.7495
405042	24.7507
407380	24.7519
409732	24.7531
412098	24.7543
414477	24.7555
416869	24.7567
419276	24.7579
421697	24.7591
424131	24.7603
426580	24.7615
429042	24.7626
431519	24.7638
434010	24.765
436516	24.7661
439036	24.7673
441570	24.7684
444120	24.7696
446684	24.7707
449262	24.7718
451856	24.773
454465	24.7741
457088	24.7752
459727	24.7763
462381	24.7775
465050	24.7786
467735	24.7797
470435	24.7808
473151	24.7818
475883	24.7829
478630	24.784
481393	24.7851
484172	24.7862
486968	24.7872
489779	24.7883
492606	24.7893
495450	24.7904
498310	24.7914
501187	24.7925
504081	24.7935
506991	24.7945
509918	24.7956
512861	24.7966
515822	24.7976
518800	24.7986
521795	24.7996
524807	24.8006
527837	24.8016
530884	24.8026
533949	24.8035
537032	24.8045
540132	24.8055
543250	24.8064
546387	24.8074
549541	24.8083
552713	24.8093
555904	24.8102
559114	24.8111
562341	24.8121
565588	24.813
568853	24.8139
572137	24.8148
575440	24.8157
578762	24.8166
582103	24.8175
585464	24.8184
588844	24.8193
592243	24.8201
595662	24.821
599101	24.8219
602560	24.8227
606038	24.8236
609537	24.8244
613056	24.8253
616595	24.8261
620155	24.8269
623735	24.8277
627336	24.8285
630957	24.8294
634600	24.8302
638263	24.831
641948	24.8317
645654	24.8325
649382	24.8333
653131	24.8341
656901	24.8348
660693	24.8356
664508	24.8364
668344	24.8371
672202	24.8378
676083	24.8386
679986	24.8393
683912	24.84
687860	24.8408
691831	24.8415
695825	24.8422
699842	24.8429
703882	24.8436
707946	24.8443
712033	24.8449
716143	24.8456
720278	24.8463
724436	24.8469
728618	24.8476
732825	24.8483
737055	24.8489
741310	24.8495
745590	24.8502
749894	24.8508
754223	24.8514
758578	24.852
762957	24.8527
767361	24.8533
771792	24.8539
776247	24.8545
780728	24.855
785236	24.8556
789769	24.8562
794328	24.8568
798914	24.8573
803526	24.8579
808165	24.8584
812831	24.859
817523	24.8595
822243	24.8601
826990	24.8606
831764	24.8611
836566	24.8616
841395	24.8622
846253	24.8627
851138	24.8632
856052	24.8637
860994	24.8642
865964	24.8646
870964	24.8651
875992	24.8656
881049	24.8661
886135	24.8665
891251	24.867
896396	24.8674
901571	24.8679
906776	24.8683
912011	24.8688
917276	24.8692
922571	24.8696
927897	24.87
933254	24.8704
938642	24.8709
944061	24.8713
949511	24.8717
954993	24.872
960506	24.8724
966051	24.8728
971628	24.8732
977237	24.8736
982879	24.8739
988553	24.8743
994260	24.8747
1e+06	24.875
1.00577e+06	24.8754
1.01158e+06	24.8757
1.01742e+06	24.876
1.02329e+06	24.8764
1.0292e+06	24.8767
1.03514e+06	24.877
1.04112e+06	24.8773
1.04713e+06	24.8776
1.05317e+06	24.8779
1.05925e+06	24.8783
1.06537e+06	24.8785
1.07152e+06	24.8788
1.07771e+06	24.8791
1.08393e+06	24.8794
1.09018e+06	24.8797
1.09648e+06	24.88
1.10281e+06	24.8802
1.10917e+06	24.8805
1.11558e+06	24.8808
1.12202e+06	24.881
1.1285e+06	24.8813
1.13501e+06	24.8815
1.14156e+06	24.8818
1.14815e+06	24.882
1.15478e+06	24.8822
1.16145e+06	24.8825
1.16815e+06	24.8827
1.1749e+06	24.8829
1.18168e+06	24.8831
1.1885e+06	24.8833
1.19536e+06	24.8835
1.20226e+06	24.8837
1.20921e+06	24.8839
1.21619e+06	24.8841
1.22321e+06	24.8843
1.23027e+06	24.8845
1.23737e+06	24.8847
1.24451e+06	24.8849
1.2517e+06	24.8851
1.25893e+06	24.8852
1.26619e+06	24.8854
1.2735e+06	24.8856
1.28086e+06	24.8857
1.28825e+06	24.8859
1.29569e+06	24.886
1.30317e+06	24.8862
1.31069e+06	24.8863
1.31826e+06	24.8865
1.32587e+06	24.8866
1.33352e+06	24.8867
1.34122e+06	24.8869
1.34896e+06	24.887
1.35675e+06	24.8871
1.36458e+06	24.8872
1.37246e+06	24.8873
1.38038e+06	24.8875
1.38835e+06	24.8876
1.39637e+06	24.8877
1.40443e+06	24.8878
1.41254e+06	24.8879
1.42069e+06	24.888
1.42889e+06	24.8881
1.43714e+06	24.8881
1.44544e+06	24.8882
1.45378e+06	24.8883
1.46218e+06	24.8884
1.47062e+06	24.8885
1.47911e+06	24.8885
1.48765e+06	24.8886
1.49624e+06	24.8887
1.50487e+06	24.8888
1.51356e+06	24.8888
1.5223e+06	24.8889
1.53109e+06	24.8889
1.53993e+06	24.889
1.54882e+06	24.889
1.55776e+06	24.8891
1.56675e+06	24.8891
1.5758e+06	24.8892
1.58489e+06	24.8892
1.59404e+06	24.8893
1.60325e+06	24.8893
1.6125e+06	24.8893
1.62181e+06	24.8894
1.63117e+06	24.8894
1.64059e+06	24.8894
1.65006e+06	24.8894
1.65959e+06	24.8895
1.66917e+06	24.8895
1.6788e+06	24.8895
1.6885e+06	24.8895
1.69824e+06	24.8895
1.70805e+06	24.8895
1.71791e+06	24.8895
1.72783e+06	24.8895
1.7378e+06	24.8895
1.74783e+06	24.8896
1.75792e+06	24.8896
1.76807e+06	24.8896
1.77828e+06	24.8895
1.78855e+06	24.8895
1.79887e+06	24.8895
1.80926e+06	24.8895
1.8197e+06	24.8895
1.83021e+06	24.8895
1.84077e+06	24.8895
1.8514e+06	24.8895
1.86209e+06	24.8895
1.87284e+06	24.8894
1.88365e+06	24.8894
1.89452e+06	24.8894
1.90546e+06	24.8894
1.91646e+06	24.8894
1.92752e+06	24.8893
1.93865e+06	24.8893
1.94984e+06	24.8893
1.9611e+06	24.8893
1.97242e+06	24.8892
1.98381e+06	24.8892
1.99526e+06	24.8892
2.00678e+06	24.8891
2.01837e+06	24.8891
2.03002e+06	24.8891
2.04174e+06	24.889
2.05353e+06	24.889
2.06538e+06	24.889
2.0773e+06	24.8889
2.0893e+06	24.8889
2.10136e+06	24.8889
2.11349e+06	24.8888
2.12569e+06	24.8888
2.13796e+06	24.8887
2.1503e+06	24.8887
2.16272e+06	24.8887
2.1752e+06	24.8886
2.18776e+06	24.8886
2.20039e+06	24.8885
2.21309e+06	24.8885
2.22587e+06	24.8885
2.23872e+06	24.8884
2.25165e+06	24.8884
2.26464e+06	24.8883
2.27772e+06	24.8883
2.29087e+06	24.8882
2.30409e+06	24.8882
2.31739e+06	24.8882
2.33077e+06	24.8881
2.34423e+06	24.8881
2.35776e+06	24.888
2.37137e+06	24.888
2.38506e+06	24.8879
2.39883e+06	24.8879
2.41268e+06	24.8879
2.42661e+06	24.8878
2.44062e+06	24.8878
2.45471e+06	24.8877
2.46888e+06	24.8877
2.48313e+06	24.8877
2.49747e+06	24.8876
2.51189e+06	24.8876
2.52639e+06	24.8875
2.54097e+06	24.8875
2.55564e+06	24.8875
2.5704e+06	24.8874
2.58523e+06	24.8874
2.60016e+06	24.8874
2.61517e+06	24.8873
2.63027e+06	24.8873
2.64545e+06	24.8872
2.66073e+06	24.8872
2.67609e+06	24.8872
2.69153e+06	24.8871
2.70707e+06	24.8871
2.7227e+06	24.8871
2.73842e+06	24.887
2.75423e+06	24.887
2.77013e+06	24.887
2.78612e+06	24.8869
2.80221e+06	24.8869
2.81838e+06	24.8869
2.83465e+06	24.8868
2.85102e+06	24.8868
2.86748e+06	24.8868
2.88403e+06	24.8867
2.90068e+06	24.8867
2.91743e+06	24.8867
2.93427e+06	24.8867
2.95121e+06	24.8866
2.96825e+06	24.8866
2.98538e+06	24.8866
3.00262e+06	24.8865
3.01995e+06	24.8865
3.03739e+06	24.8865
3.05492e+06	24.8865
3.07256e+06	24.8864
3.0903e+06	24.8864
3.10814e+06	24.8864
3.12608e+06	24.8863
3.14413e+06	24.8863
3.16228e+06	24.8863
3.18053e+06	24.8863
3.1989e+06	24.8862
3.21736e+06	24.8862
3.23594e+06	24.8862
3.25462e+06	24.8862
3.27341e+06	24.8861
3.2923e+06	24.8861
3.31131e+06	24.8861
3.33043e+06	24.8861
3.34965e+06	24.886
3.36899e+06	24.886
3.38844e+06	24.886
3.408e+06	24.886
3.42768e+06	24.8859
3.44747e+06	24.8859
3.46737e+06	24.8859
3.48739e+06	24.8859
3.50752e+06	24.8858
3.52777e+06	24.8858
3.54813e+06	24.8858
3.56862e+06	24.8858
3.58922e+06	24.8857
3.60994e+06	24.8857
3.63078e+06	24.8857
3.65174e+06	24.8857
3.67282e+06	24.8857
3.69403e+06	24.8856
3.71535e+06	24.8856
3.7368e+06	24.8856
3.75837e+06	24.8856
3.78007e+06	24.8856
3.80189e+06	24.8855
3.82384e+06	24.8855
3.84592e+06	24.8855
3.86812e+06	24.8855
3.89045e+06	24.8855
3.91291e+06	24.8854
3.9355e+06	24.8854
3.95822e+06	24.8854
3.98107e+06	24.8854
4.00405e+06	24.8854
4.02717e+06	24.8853
4.05042e+06	24.8853
4.0738e+06	24.8853
4.09732e+06	24.8853
4.12098e+06	24.8853
4.14477e+06	24.8852
4.16869e+06	24.8852
4.19276e+06	24.8852
4.21697e+06	24.8852
4.24131e+06	24.8852
4.2658e+06	24.8852
4.29042e+06	24.8851
4.31519e+06	24.8851
4.3401e+06	24.8851
4.36516e+06	24.8851
4.39036e+06	24.8851
4.4157e+06	24.8851
4.4412e+06	24.885
4.46684e+06	24.885
4.49262e+06	24.885
4.51856e+06	24.885
4.54465e+06	24.885
4.57088e+06	24.885
4.59727e+06	24.8849
4.62381e+06	24.8849
4.6505e+06	24.8849
4.67735e+06	24.8849
4.70435e+06	24.8849
4.73151e+06	24.8849
4.75883e+06	24.8849
4.7863e+06	24.8848
4.81393e+06	24.8848
4.84172e+06	24.8848
4.86968e+06	24.8848
4.89779e+06	24.8848
4.92606e+06	24.8848
4.9545e+06	24.8848
4.9831e+06	24.8847
5.01187e+06	24.8847
5.04081e+06	24.8847
5.06991e+06	24.8847
5.09918e+06	24.8847
5.12861e+06	24.8847
5.15822e+06	24.8847
5.188e+06	24.8846
5.21795e+06	24.8846
5.24807e+06	24.8846
5.27837e+06	24.8846
5.30884e+06	24.8846
5.33949e+06	24.8846
5.37032e+06	24.8846
5.40132e+06	24.8846
5.4325e+06	24.8845
5.46387e+06	24.8845
5.49541e+06	24.8845
5.52713e+06	24.8845
5.55904e+06	24.8845
5.59114e+06	24.8845
5.62341e+06	24.8845
5.65588e+06	24.8845
5.68853e+06	24.8845
5.72137e+06	24.8844
5.7544e+06	24.8844
5.78762e+06	24.8844
5.82103e+06	24.8844
5.85464e+06	24.8844
5.88844e+06	24.8844
5.92243e+06	24.8844
5.95662e+06	24.8844
5.99101e+06	24.8844
6.0256e+06	24.8843
6.06038e+06	24.8843
6.09537e+06	24.8843
6.13056e+06	24.8843
6.16595e+06	24.8843
6.20155e+06	24.8843
6.23735e+06	24.8843
6.27336e+06	24.8843
6.30957e+06	24.8843
6.346e+06	24.8843
6.38263e+06	24.8842
6.41948e+06	24.8842
6.45654e+06	24.8842
6.49382e+06	24.8842
6.53131e+06	24.8842
6.56901e+06	24.8842
6.60693e+06	24.8842
6.64508e+06	24.8842
6.68344e+06	24.8842
6.72202e+06	24.8842
6.76083e+06	24.8841
6.79986e+06	24.8841
6.83912e+06	24.8841
6.8786e+06	24.8841
6.91831e+06	24.8841
6.95825e+06	24.8841
6.99842e+06	24.8841
7.03882e+06	24.8841
7.07946e+06	24.8841
7.12033e+06	24.8841
7.16143e+06	24.8841
7.20278e+06	24.8841
7.24436e+06	24.884
7.28618e+06	24.884
7.32825e+06	24.884
7.37055e+06	24.884
7.4131e+06	24.884
7.4559e+06	24.884
7.49894e+06	24.884
7.54223e+06	24.884
7.58578e+06	24.884
7.62957e+06	24.884
7.67361e+06	24.884
7.71792e+06	24.884
7.76247e+06	24.884
7.80728e+06	24.8839
7.85236e+06	24.8839
7.89769e+06	24.8839
7.94328e+06	24.8839
7.98914e+06	24.8839
8.03526e+06	24.8839
8.08165e+06	24.8839
8.12831e+06	24.8839
8.17523e+06	24.8839
8.22243e+06	24.8839
8.2699e+06	24.8839
8.31764e+06	24.8839
8.36566e+06	24.8839
8.41395e+06	24.8839
8.46253e+06	24.8838
8.51138e+06	24.8838
8.56052e+06	24.8838
8.60994e+06	24.8838
8.65964e+06	24.8838
8.70964e+06	24.8838
8.75992e+06	24.8838
8.81049e+06	24.8838
8.86135e+06	24.8838
8.91251e+06	24.8838
8.96396e+06	24.8838
9.01571e+06	24.8838
9.06776e+06	24.8838
9.12011e+06	24.8838
9.17276e+06	24.8838
9.22571e+06	24.8837
9.27897e+06	24.8837
9.33254e+06	24.8837
9.38642e+06	24.8837
9.44061e+06	24.8837
9.49511e+06	24.8837
9.54993e+06	24.8837
9.60506e+06	24.8837
9.66051e+06	24.8837
9.71628e+06	24.8837
9.77237e+06	24.8837
9.82879e+06	24.8837
9.88553e+06	24.8837
9.9426e+06	24.8837
1e+07	24.8837
