Stopping power dEdx from Ionisation for Mg24[0.0] Z = 12 in G4_Si, process name: ionIoni
E [MeV]	dEdx [MeV/mm]
0.001	32.9144
0.00100577	33.0101
0.00101158	33.106
0.00101742	33.2022
0.00102329	33.2987
0.0010292	33.3955
0.00103514	33.4925
0.00104112	33.5899
0.00104713	33.6875
0.00105317	33.7854
0.00105925	33.8836
0.00106537	33.982
0.00107152	34.0808
0.00107771	34.1798
0.00108393	34.2791
0.00109018	34.3787
0.00109648	34.4786
0.00110281	34.5788
0.00110917	34.6792
0.00111558	34.78
0.00112202	34.881
0.0011285	34.9823
0.00113501	35.084
0.00114156	35.1859
0.00114815	35.2881
0.00115478	35.3906
0.00116145	35.4934
0.00116815	35.5965
0.0011749	35.6999
0.00118168	35.8036
0.0011885	35.9076
0.00119536	36.0119
0.00120226	36.1165
0.00120921	36.2214
0.00121619	36.3266
0.00122321	36.4321
0.00123027	36.5379
0.00123737	36.644
0.00124451	36.7504
0.0012517	36.8571
0.00125893	36.9642
0.00126619	37.0715
0.0012735	37.1791
0.00128086	37.2871
0.00128825	37.3954
0.00129569	37.504
0.00130317	37.6128
0.00131069	37.7221
0.00131826	37.8316
0.00132587	37.9414
0.00133352	38.0516
0.00134122	38.162
0.00134896	38.2728
0.00135675	38.3839
0.00136458	38.4954
0.00137246	38.6071
0.00138038	38.7192
0.00138835	38.8316
0.00139637	38.9443
0.00140443	39.0574
0.00141254	39.1707
0.00142069	39.2844
0.00142889	39.3985
0.00143714	39.5128
0.00144544	39.6275
0.00145378	39.7425
0.00146218	39.8579
0.00147062	39.9735
0.00147911	40.0896
0.00148765	40.2059
0.00149624	40.3226
0.00150487	40.4396
0.00151356	40.557
0.0015223	40.6747
0.00153109	40.7927
0.00153993	40.9111
0.00154882	41.0298
0.00155776	41.1488
0.00156675	41.2682
0.0015758	41.388
0.00158489	41.5081
0.00159404	41.6285
0.00160325	41.7493
0.0016125	41.8704
0.00162181	41.9919
0.00163117	42.1137
0.00164059	42.2359
0.00165006	42.3584
0.00165959	42.4813
0.00166917	42.6046
0.0016788	42.7282
0.0016885	42.8521
0.00169824	42.9764
0.00170805	43.1011
0.00171791	43.2261
0.00172783	43.3515
0.0017378	43.4773
0.00174783	43.6034
0.00175792	43.7299
0.00176807	43.8567
0.00177828	43.9839
0.00178855	44.1115
0.00179887	44.2394
0.00180926	44.3677
0.0018197	44.4964
0.00183021	44.6254
0.00184077	44.7549
0.0018514	44.8847
0.00186209	45.0148
0.00187284	45.1454
0.00188365	45.2763
0.00189452	45.4076
0.00190546	45.5393
0.00191646	45.6713
0.00192752	45.8038
0.00193865	45.9366
0.00194984	46.0698
0.0019611	46.2034
0.00197242	46.3373
0.00198381	46.4717
0.00199526	46.6064
0.00200678	46.7416
0.00201837	46.8771
0.00203002	47.013
0.00204174	47.1493
0.00205353	47.286
0.00206538	47.4231
0.0020773	47.5606
0.0020893	47.6984
0.00210136	47.8367
0.00211349	47.9754
0.00212569	48.1145
0.00213796	48.254
0.0021503	48.3938
0.00216272	48.5341
0.0021752	48.6748
0.00218776	48.8159
0.00220039	48.9574
0.00221309	49.0993
0.00222587	49.2416
0.00223872	49.3843
0.00225165	49.5275
0.00226464	49.671
0.00227772	49.815
0.00229087	49.9594
0.00230409	50.1042
0.00231739	50.2494
0.00233077	50.395
0.00234423	50.5411
0.00235776	50.6875
0.00237137	50.8344
0.00238506	50.9818
0.00239883	51.1295
0.00241268	51.2777
0.00242661	51.4263
0.00244062	51.5753
0.00245471	51.7247
0.00246888	51.8746
0.00248313	52.0249
0.00249747	52.1757
0.00251189	52.3269
0.00252639	52.4785
0.00254097	52.6305
0.00255564	52.783
0.0025704	52.936
0.00258523	53.0894
0.00260016	53.2432
0.00261517	53.3974
0.00263027	53.5521
0.00264545	53.7073
0.00266073	53.8629
0.00267609	54.0189
0.00269153	54.1754
0.00270707	54.3324
0.0027227	54.4898
0.00273842	54.6476
0.00275423	54.8059
0.00277013	54.9647
0.00278612	55.1239
0.00280221	55.2836
0.00281838	55.4438
0.00283465	55.6044
0.00285102	55.7654
0.00286748	55.927
0.00288403	56.0889
0.00290068	56.2514
0.00291743	56.4143
0.00293427	56.5777
0.00295121	56.7416
0.00296825	56.906
0.00298538	57.0708
0.00300262	57.2361
0.00301995	57.4018
0.00303739	57.5681
0.00305492	57.7348
0.00307256	57.902
0.0030903	58.0697
0.00310814	58.2379
0.00312608	58.4065
0.00314413	58.5757
0.00316228	58.7453
0.00318053	58.9154
0.0031989	59.086
0.00321736	59.2572
0.00323594	59.4287
0.00325462	59.6008
0.00327341	59.7734
0.0032923	59.9465
0.00331131	60.1201
0.00333043	60.2942
0.00334965	60.4688
0.00336899	60.6438
0.00338844	60.8194
0.003408	60.9955
0.00342768	61.1721
0.00344747	61.3493
0.00346737	61.5269
0.00348739	61.705
0.00350752	61.8837
0.00352777	62.0628
0.00354813	62.2425
0.00356862	62.4227
0.00358922	62.6034
0.00360994	62.7847
0.00363078	62.9664
0.00365174	63.1487
0.00367282	63.3315
0.00369403	63.5149
0.00371535	63.6987
0.0037368	63.8831
0.00375837	64.0681
0.00378007	64.2535
0.00380189	64.4395
0.00382384	64.6261
0.00384592	64.8131
0.00386812	65.0007
0.00389045	65.1889
0.00391291	65.3776
0.0039355	65.5668
0.00395822	65.7566
0.00398107	65.9469
0.00400405	66.1378
0.00402717	66.3292
0.00405042	66.5212
0.0040738	66.7138
0.00409732	66.9068
0.00412098	67.1005
0.00414477	67.2947
0.00416869	67.4894
0.00419276	67.6848
0.00421697	67.8807
0.00424131	68.0771
0.0042658	68.2741
0.00429042	68.4717
0.00431519	68.6699
0.0043401	68.8686
0.00436516	69.0679
0.00439036	69.2678
0.0044157	69.4682
0.0044412	69.6692
0.00446684	69.8709
0.00449262	70.073
0.00451856	70.2758
0.00454465	70.4792
0.00457088	70.6831
0.00459727	70.8876
0.00462381	71.0928
0.0046505	71.2985
0.00467735	71.5048
0.00470435	71.7117
0.00473151	71.9192
0.00475883	72.1273
0.0047863	72.3359
0.00481393	72.5452
0.00484172	72.7551
0.00486968	72.9656
0.00489779	73.1767
0.00492606	73.3885
0.0049545	73.6008
0.0049831	73.8137
0.00501187	74.0273
0.00504081	74.2414
0.00506991	74.4562
0.00509918	74.6716
0.00512861	74.8877
0.00515822	75.1043
0.005188	75.3216
0.00521795	75.5395
0.00524807	75.758
0.00527837	75.9772
0.00530884	76.197
0.00533949	76.4174
0.00537032	76.6384
0.00540132	76.8601
0.0054325	77.0825
0.00546387	77.3054
0.00549541	77.5291
0.00552713	77.7533
0.00555904	77.9782
0.00559114	78.2038
0.00562341	78.43
0.00565588	78.6568
0.00568853	78.8844
0.00572137	79.1125
0.0057544	79.3414
0.00578762	79.5708
0.00582103	79.801
0.00585464	80.0318
0.00588844	80.2633
0.00592243	80.4954
0.00595662	80.7282
0.00599101	80.9617
0.0060256	81.1959
0.00606038	81.4307
0.00609537	81.6662
0.00613056	81.9024
0.00616595	82.1393
0.00620155	82.3768
0.00623735	82.615
0.00627336	82.854
0.00630957	83.0936
0.006346	83.3339
0.00638263	83.5749
0.00641948	83.8166
0.00645654	84.0589
0.00649382	84.302
0.00653131	84.5458
0.00656901	84.7903
0.00660693	85.0355
0.00664508	85.2814
0.00668344	85.528
0.00672202	85.7753
0.00676083	86.0233
0.00679986	86.2721
0.00683912	86.5216
0.0068786	86.7717
0.00691831	87.0226
0.00695825	87.2743
0.00699842	87.5266
0.00703882	87.7797
0.00707946	88.0335
0.00712033	88.288
0.00716143	88.5433
0.00720278	88.7993
0.00724436	89.0561
0.00728618	89.3136
0.00732825	89.5718
0.00737055	89.8308
0.0074131	90.0905
0.0074559	90.3509
0.00749894	90.6122
0.00754223	90.8741
0.00758578	91.1369
0.00762957	91.4003
0.00767361	91.6646
0.00771792	91.9296
0.00776247	92.1954
0.00780728	92.4619
0.00785236	92.7292
0.00789769	92.9973
0.00794328	93.2661
0.00798914	93.5358
0.00803526	93.8061
0.00808165	94.0773
0.00812831	94.3493
0.00817523	94.622
0.00822243	94.8956
0.0082699	95.1699
0.00831764	95.445
0.00836566	95.7209
0.00841395	95.9976
0.00846253	96.2751
0.00851138	96.5534
0.00856052	96.8325
0.00860994	97.1124
0.00865964	97.3931
0.00870964	97.6746
0.00875992	97.9569
0.00881049	98.2401
0.00886135	98.524
0.00891251	98.8088
0.00896396	99.0944
0.00901571	99.3808
0.00906776	99.6681
0.00912011	99.9562
0.00917276	100.245
0.00922571	100.535
0.00927897	100.825
0.00933254	101.117
0.00938642	101.409
0.00944061	101.702
0.00949511	101.996
0.00954993	102.291
0.00960506	102.586
0.00966051	102.883
0.00971628	103.18
0.00977237	103.479
0.00982879	103.778
0.00988553	104.077
0.0099426	104.378
0.01	104.68
0.0100577	104.982
0.0101158	105.286
0.0101742	105.59
0.0102329	105.895
0.010292	106.201
0.0103514	106.508
0.0104112	106.816
0.0104713	107.125
0.0105317	107.434
0.0105925	107.745
0.0106537	108.056
0.0107152	108.368
0.0107771	108.681
0.0108393	108.995
0.0109018	109.31
0.0109648	109.626
0.0110281	110.218
0.0110917	110.536
0.0111558	110.855
0.0112202	111.174
0.011285	111.495
0.0113501	111.816
0.0114156	112.138
0.0114815	112.462
0.0115478	112.786
0.0116145	113.111
0.0116815	113.437
0.011749	113.764
0.0118168	114.092
0.011885	114.421
0.0119536	114.75
0.0120226	115.081
0.0120921	115.413
0.0121619	115.746
0.0122321	116.079
0.0123027	116.414
0.0123737	116.749
0.0124451	117.086
0.012517	117.423
0.0125893	117.762
0.0126619	118.101
0.012735	118.442
0.0128086	118.783
0.0128825	119.125
0.0129569	119.469
0.0130317	119.813
0.0131069	120.158
0.0131826	120.505
0.0132587	120.852
0.0133352	121.201
0.0134122	121.55
0.0134896	121.9
0.0135675	122.252
0.0136458	122.604
0.0137246	122.957
0.0138038	123.312
0.0138835	123.667
0.0139637	124.024
0.0140443	124.381
0.0141254	124.74
0.0142069	125.099
0.0142889	125.46
0.0143714	125.821
0.0144544	126.184
0.0145378	126.548
0.0146218	126.913
0.0147062	127.278
0.0147911	127.645
0.0148765	128.013
0.0149624	128.382
0.0150487	128.752
0.0151356	129.123
0.015223	129.495
0.0153109	129.869
0.0153993	130.243
0.0154882	130.618
0.0155776	130.995
0.0156675	131.372
0.015758	131.751
0.0158489	132.131
0.0159404	132.512
0.0160325	132.894
0.016125	133.277
0.0162181	133.661
0.0163117	134.046
0.0164059	134.433
0.0165006	134.82
0.0165959	135.209
0.0166917	135.598
0.016788	135.989
0.016885	136.381
0.0169824	136.774
0.0170805	137.169
0.0171791	137.564
0.0172783	137.96
0.017378	138.358
0.0174783	138.757
0.0175792	139.157
0.0176807	139.558
0.0177828	139.96
0.0178855	140.364
0.0179887	140.768
0.0180926	141.174
0.018197	141.581
0.0183021	141.989
0.0184077	142.398
0.018514	142.809
0.0186209	143.22
0.0187284	143.633
0.0188365	144.047
0.0189452	144.462
0.0190546	144.879
0.0191646	145.296
0.0192752	145.715
0.0193865	146.135
0.0194984	146.556
0.019611	146.979
0.0197242	147.402
0.0198381	147.827
0.0199526	148.253
0.0200678	148.681
0.0201837	149.109
0.0203002	149.539
0.0204174	149.97
0.0205353	150.402
0.0206538	150.836
0.020773	151.271
0.020893	151.707
0.0210136	152.144
0.0211349	152.582
0.0212569	153.022
0.0213796	153.463
0.021503	153.906
0.0216272	154.349
0.021752	154.794
0.0218776	155.24
0.0220039	155.688
0.0221309	156.136
0.0222587	156.587
0.0223872	157.038
0.0225165	157.491
0.0226464	157.944
0.0227772	158.4
0.0229087	158.856
0.0230409	159.314
0.0231739	159.773
0.0233077	160.234
0.0234423	160.696
0.0235776	161.159
0.0237137	161.623
0.0238506	162.089
0.0239883	162.557
0.0241268	163.025
0.0242661	163.495
0.0244062	163.966
0.0245471	164.439
0.0246888	164.913
0.0248313	165.388
0.0249747	165.865
0.0251189	166.343
0.0252639	166.822
0.0254097	167.303
0.0255564	167.785
0.025704	168.269
0.0258523	168.754
0.0260016	169.241
0.0261517	169.728
0.0263027	170.218
0.0264545	170.708
0.0266073	171.2
0.0267609	171.694
0.0269153	172.189
0.0270707	172.685
0.027227	173.183
0.0273842	173.682
0.0275423	174.182
0.0277013	174.685
0.0278612	175.188
0.0280221	175.693
0.0281838	176.199
0.0283465	176.707
0.0285102	177.217
0.0286748	177.727
0.0288403	178.24
0.0290068	178.753
0.0291743	179.269
0.0293427	179.785
0.0295121	180.304
0.0296825	180.823
0.0298538	181.345
0.0300262	181.867
0.0301995	182.391
0.0303739	182.917
0.0305492	183.444
0.0307256	183.973
0.030903	184.503
0.0310814	185.035
0.0312608	185.569
0.0314413	186.103
0.0316228	186.64
0.0318053	187.178
0.031989	187.717
0.0321736	188.258
0.0323594	188.801
0.0325462	189.345
0.0327341	189.891
0.032923	190.438
0.0331131	190.987
0.0333043	191.538
0.0334965	192.09
0.0336899	192.644
0.0338844	193.199
0.03408	193.756
0.0342768	194.314
0.0344747	194.874
0.0346737	195.436
0.0348739	195.999
0.0350752	196.564
0.0352777	197.131
0.0354813	197.699
0.0356862	198.269
0.0358922	198.84
0.0360994	199.413
0.0363078	199.988
0.0365174	200.565
0.0367282	201.143
0.0369403	201.723
0.0371535	202.304
0.037368	202.887
0.0375837	203.472
0.0378007	204.058
0.0380189	204.647
0.0382384	205.236
0.0384592	205.828
0.0386812	206.421
0.0389045	207.016
0.0391291	207.613
0.039355	208.211
0.0395822	208.812
0.0398107	209.413
0.0400405	210.017
0.0402717	210.622
0.0405042	211.229
0.040738	211.838
0.0409732	212.449
0.0412098	213.061
0.0414477	213.675
0.0416869	214.291
0.0419276	214.909
0.0421697	215.528
0.0424131	216.15
0.042658	216.773
0.0429042	217.397
0.0431519	218.024
0.043401	218.652
0.0436516	219.283
0.0439036	219.915
0.044157	220.549
0.044412	221.184
0.0446684	221.822
0.0449262	222.461
0.0451856	223.102
0.0454465	223.746
0.0457088	224.39
0.0459727	225.037
0.0462381	225.686
0.046505	226.336
0.0467735	226.989
0.0470435	227.643
0.0473151	228.299
0.0475883	228.957
0.047863	229.617
0.0481393	230.279
0.0484172	230.943
0.0486968	231.608
0.0489779	232.276
0.0492606	232.946
0.049545	233.617
0.049831	234.29
0.0501187	234.966
0.0504081	235.643
0.0506991	236.322
0.0509918	237.003
0.0512861	237.686
0.0515822	238.372
0.05188	239.059
0.0521795	239.748
0.0524807	240.439
0.0527837	241.132
0.0530884	241.827
0.0533949	242.524
0.0537032	243.223
0.0540132	243.924
0.054325	244.627
0.0546387	245.332
0.0549541	246.039
0.0552713	246.748
0.0555904	247.46
0.0559114	248.173
0.0562341	248.888
0.0565588	249.606
0.0568853	250.325
0.0572137	251.047
0.057544	251.77
0.0578762	252.496
0.0582103	253.224
0.0585464	253.954
0.0588844	254.686
0.0592243	255.42
0.0595662	256.156
0.0599101	256.894
0.060256	257.635
0.0606038	258.377
0.0609537	259.122
0.0613056	259.869
0.0616595	260.618
0.0620155	261.369
0.0623735	262.123
0.0627336	262.878
0.0630957	263.636
0.06346	264.396
0.0638263	265.158
0.0641948	265.922
0.0645654	266.689
0.0649382	267.457
0.0653131	268.228
0.0656901	269.001
0.0660693	269.777
0.0664508	270.554
0.0668344	271.334
0.0672202	272.116
0.0676083	272.901
0.0679986	273.687
0.0683912	274.476
0.068786	275.267
0.0691831	276.061
0.0695825	276.856
0.0699842	277.654
0.0703882	278.455
0.0707946	279.257
0.0712033	280.062
0.0716143	280.869
0.0720278	281.679
0.0724436	282.491
0.0728618	283.305
0.0732825	284.122
0.0737055	284.941
0.074131	285.762
0.074559	286.586
0.0749894	287.412
0.0754223	288.24
0.0758578	289.071
0.0762957	289.904
0.0767361	290.74
0.0771792	291.578
0.0776247	292.418
0.0780728	293.261
0.0785236	294.106
0.0789769	294.954
0.0794328	295.804
0.0798914	296.657
0.0803526	297.512
0.0808165	298.369
0.0812831	299.23
0.0817523	300.092
0.0822243	300.957
0.082699	301.824
0.0831764	302.694
0.0836566	303.567
0.0841395	304.442
0.0846253	305.319
0.0851138	306.199
0.0856052	307.082
0.0860994	307.967
0.0865964	308.855
0.0870964	309.745
0.0875992	310.638
0.0881049	311.533
0.0886135	312.431
0.0891251	313.332
0.0896396	314.235
0.0901571	315.141
0.0906776	316.049
0.0912011	316.96
0.0917276	317.874
0.0922571	318.79
0.0927897	319.709
0.0933254	320.63
0.0938642	321.554
0.0944061	322.481
0.0949511	323.411
0.0954993	324.343
0.0960506	325.278
0.0966051	326.215
0.0971628	327.156
0.0977237	328.099
0.0982879	329.044
0.0988553	329.993
0.099426	330.944
0.1	331.898
0.100577	332.854
0.101158	333.814
0.101742	334.776
0.102329	335.741
0.10292	336.709
0.103514	337.679
0.104112	338.653
0.104713	339.629
0.105317	340.608
0.105925	341.589
0.106537	342.574
0.107152	343.561
0.107771	344.552
0.108393	345.545
0.109018	346.541
0.109648	347.54
0.110281	348.541
0.110917	349.546
0.111558	350.554
0.112202	351.564
0.11285	352.577
0.113501	353.594
0.114156	354.613
0.114815	355.635
0.115478	356.66
0.116145	357.688
0.116815	358.719
0.11749	359.753
0.118168	360.79
0.11885	361.83
0.119536	362.873
0.120226	363.919
0.120921	364.968
0.121619	366.02
0.122321	367.075
0.123027	368.133
0.123737	369.194
0.124451	370.258
0.12517	371.325
0.125893	372.395
0.126619	373.469
0.12735	374.545
0.128086	375.625
0.128825	376.708
0.129569	377.793
0.130317	378.882
0.131069	379.974
0.131826	381.07
0.132587	382.168
0.133352	383.27
0.134122	384.374
0.134896	385.482
0.135675	386.593
0.136458	387.708
0.137246	388.825
0.138038	389.946
0.138835	391.07
0.139637	392.197
0.140443	393.328
0.141254	394.461
0.142069	395.598
0.142889	396.739
0.143714	397.882
0.144544	399.029
0.145378	400.179
0.146218	401.333
0.147062	402.489
0.147911	403.649
0.148765	404.813
0.149624	405.98
0.150487	407.15
0.151356	408.324
0.15223	409.5
0.153109	410.681
0.153993	411.865
0.154882	413.052
0.155776	414.242
0.156675	415.436
0.15758	416.634
0.158489	417.835
0.159404	419.039
0.160325	420.247
0.16125	421.458
0.162181	422.673
0.163117	423.891
0.164059	425.113
0.165006	426.338
0.165959	427.567
0.166917	428.8
0.16788	430.036
0.16885	431.275
0.169824	432.518
0.170805	433.765
0.171791	435.015
0.172783	436.269
0.17378	437.527
0.174783	438.788
0.175792	440.052
0.176807	441.321
0.177828	442.593
0.178855	443.869
0.179887	445.148
0.180926	446.431
0.18197	447.718
0.183021	449.008
0.184077	450.303
0.18514	451.601
0.186209	452.902
0.187284	454.208
0.188365	455.517
0.189452	456.83
0.190546	458.147
0.191646	459.467
0.192752	460.791
0.193865	462.12
0.194984	463.452
0.19611	464.787
0.197242	466.127
0.198381	467.471
0.199526	468.818
0.200678	470.169
0.201837	471.525
0.203002	472.884
0.204174	474.247
0.205353	475.614
0.206538	476.985
0.20773	478.36
0.20893	479.738
0.210136	481.121
0.211349	482.508
0.212569	483.899
0.213796	485.293
0.21503	486.692
0.216272	488.095
0.21752	489.502
0.218776	490.913
0.220039	492.328
0.221309	493.747
0.222587	495.17
0.223872	496.597
0.225165	498.029
0.226464	499.464
0.227772	500.904
0.229087	502.348
0.230409	503.796
0.231739	505.248
0.233077	506.704
0.234423	508.165
0.235776	509.629
0.237137	511.098
0.238506	512.571
0.239883	514.049
0.241268	515.531
0.242661	517.017
0.244062	518.507
0.245471	520.001
0.246888	521.5
0.248313	523.003
0.249747	524.511
0.251189	526.023
0.252639	527.539
0.254097	529.059
0.255564	530.584
0.25704	532.114
0.258523	533.647
0.260016	535.186
0.261517	536.728
0.263027	538.275
0.264545	539.827
0.266073	541.383
0.267609	542.943
0.269153	544.508
0.270707	546.078
0.27227	547.652
0.273842	549.23
0.275423	550.813
0.277013	552.401
0.278612	553.993
0.280221	555.59
0.281838	557.191
0.283465	558.797
0.285102	560.408
0.286748	562.023
0.288403	563.643
0.290068	565.268
0.291743	566.897
0.293427	568.531
0.295121	570.17
0.296825	571.814
0.298538	573.462
0.300262	575.115
0.301995	576.772
0.303739	578.435
0.305492	580.102
0.307256	581.774
0.30903	583.451
0.310814	585.133
0.312608	586.819
0.314413	588.511
0.316228	590.207
0.318053	591.908
0.31989	593.614
0.321736	595.325
0.323594	597.041
0.325462	598.762
0.327341	600.488
0.32923	602.219
0.331131	603.955
0.333043	605.696
0.334965	607.441
0.336899	609.192
0.338844	610.948
0.3408	612.709
0.342768	614.475
0.344747	616.246
0.346737	618.023
0.348739	619.804
0.350752	621.591
0.352777	623.382
0.354813	625.179
0.356862	626.981
0.358922	628.788
0.360994	630.601
0.363078	632.418
0.365174	634.241
0.367282	636.069
0.369403	637.903
0.371535	639.741
0.37368	641.585
0.375837	643.435
0.378007	645.289
0.380189	647.149
0.382384	649.015
0.384592	650.885
0.386812	652.761
0.389045	654.643
0.391291	656.53
0.39355	658.422
0.395822	660.32
0.398107	662.223
0.400405	664.132
0.402717	666.046
0.405042	667.966
0.40738	669.891
0.409732	671.822
0.412098	673.759
0.414477	675.701
0.416869	677.648
0.419276	679.602
0.421697	681.561
0.424131	683.525
0.42658	685.495
0.429042	687.471
0.431519	689.453
0.43401	691.44
0.436516	693.433
0.439036	695.432
0.44157	697.436
0.44412	699.446
0.446684	701.462
0.449262	703.484
0.451856	705.512
0.454465	707.546
0.457088	709.585
0.459727	711.63
0.462381	713.681
0.46505	715.739
0.467735	717.802
0.470435	719.871
0.473151	721.946
0.475883	724.026
0.47863	726.113
0.481393	728.206
0.484172	730.305
0.486968	732.41
0.489779	734.521
0.492606	736.639
0.49545	738.762
0.49831	740.891
0.501187	743.027
0.504081	745.168
0.506991	747.316
0.509918	749.47
0.512861	751.631
0.515822	753.797
0.5188	755.97
0.521795	758.149
0.524807	760.334
0.527837	762.526
0.530884	764.723
0.533949	766.928
0.537032	769.138
0.540132	771.355
0.54325	773.579
0.546387	775.808
0.549541	778.044
0.552713	780.287
0.555904	782.536
0.559114	784.792
0.562341	787.054
0.565588	789.322
0.568853	791.598
0.572137	793.879
0.57544	796.167
0.578762	798.462
0.582103	800.764
0.585464	803.072
0.588844	805.387
0.592243	807.708
0.595662	810.036
0.599101	812.371
0.60256	814.937
0.606038	817.593
0.609537	820.263
0.613056	822.946
0.616595	825.643
0.620155	828.352
0.623735	831.075
0.627336	833.812
0.630957	836.562
0.6346	839.326
0.638263	842.103
0.641948	844.894
0.645654	847.698
0.649382	850.517
0.653131	853.349
0.656901	856.195
0.660693	859.055
0.664508	861.929
0.668344	864.817
0.672202	867.719
0.676083	870.635
0.679986	873.566
0.683912	876.51
0.68786	879.47
0.691831	882.443
0.695825	885.431
0.699842	888.433
0.703882	891.45
0.707946	894.481
0.712033	897.527
0.716143	900.588
0.720278	903.655
0.724436	906.62
0.728618	909.598
0.732825	912.591
0.737055	915.598
0.74131	918.619
0.74559	921.654
0.749894	924.704
0.754223	927.769
0.758578	930.848
0.762957	933.941
0.767361	937.049
0.771792	940.172
0.776247	943.309
0.780728	946.461
0.785236	949.628
0.789769	952.81
0.794328	956.007
0.798914	959.219
0.803526	962.445
0.808165	965.687
0.812831	968.944
0.817523	972.216
0.822243	975.503
0.82699	978.806
0.831764	982.124
0.836566	985.457
0.841395	988.806
0.846253	992.17
0.851138	995.55
0.856052	998.945
0.860994	1002.36
0.865964	1005.78
0.870964	1009.22
0.875992	1012.68
0.881049	1016.16
0.886135	1019.65
0.891251	1023.15
0.896396	1026.67
0.901571	1030.21
0.906776	1033.77
0.912011	1037.34
0.917276	1040.92
0.922571	1044.52
0.927897	1048.14
0.933254	1051.78
0.938642	1055.43
0.944061	1059.1
0.949511	1062.78
0.954993	1066.48
0.960506	1070.2
0.966051	1073.9
0.971628	1077.62
0.977237	1081.35
0.982879	1085.1
0.988553	1088.87
0.99426	1092.65
1	1096.45
1.00577	1100.27
1.01158	1104.11
1.01742	1107.96
1.02329	1111.83
1.0292	1115.72
1.03514	1119.62
1.04112	1123.55
1.04713	1127.49
1.05317	1131.45
1.05925	1135.42
1.06537	1139.42
1.07152	1143.43
1.07771	1147.46
1.08393	1151.52
1.09018	1155.58
1.09648	1159.67
1.10281	1163.78
1.10917	1167.91
1.11558	1172.05
1.12202	1176.22
1.1285	1180.4
1.13501	1184.61
1.14156	1188.83
1.14815	1193.07
1.15478	1197.34
1.16145	1201.62
1.16815	1205.93
1.1749	1210.25
1.18168	1214.6
1.1885	1218.97
1.19536	1223.35
1.20226	1227.76
1.20921	1232.19
1.21619	1236.64
1.22321	1241.12
1.23027	1245.61
1.23737	1250.12
1.24451	1254.66
1.2517	1259.21
1.25893	1263.79
1.26619	1268.39
1.2735	1273
1.28086	1277.64
1.28825	1282.3
1.29569	1286.98
1.30317	1291.67
1.31069	1296.39
1.31826	1301.12
1.32587	1305.88
1.33352	1310.65
1.34122	1315.45
1.34896	1320.26
1.35675	1325.09
1.36458	1329.94
1.37246	1334.8
1.38038	1339.69
1.38835	1344.59
1.39637	1349.51
1.40443	1354.44
1.41254	1359.39
1.42069	1364.36
1.42889	1369.35
1.43714	1374.35
1.44544	1379.36
1.45378	1384.39
1.46218	1389.43
1.47062	1394.49
1.47911	1399.57
1.48765	1404.66
1.49624	1409.76
1.50487	1414.87
1.51356	1420
1.5223	1425.14
1.53109	1430.29
1.53993	1435.46
1.54882	1440.64
1.55776	1445.82
1.56675	1451.02
1.5758	1456.23
1.58489	1461.46
1.59404	1466.69
1.60325	1471.93
1.6125	1477.18
1.62181	1482.43
1.63117	1487.7
1.64059	1492.98
1.65006	1498.26
1.65959	1503.55
1.66917	1508.84
1.6788	1514.14
1.6885	1519.45
1.69824	1524.76
1.70805	1530.07
1.71791	1535.39
1.72783	1540.72
1.7378	1546.05
1.74783	1551.38
1.75792	1556.72
1.76807	1562.05
1.77828	1567.39
1.78855	1572.74
1.79887	1578.08
1.80926	1583.43
1.8197	1588.78
1.83021	1594.13
1.84077	1599.48
1.8514	1604.83
1.86209	1610.18
1.87284	1615.53
1.88365	1620.88
1.89452	1626.23
1.90546	1631.58
1.91646	1636.92
1.92752	1642.27
1.93865	1647.61
1.94984	1652.94
1.9611	1658.28
1.97242	1663.61
1.98381	1668.94
1.99526	1674.26
2.00678	1679.58
2.01837	1684.9
2.03002	1690.21
2.04174	1695.52
2.05353	1700.82
2.06538	1706.11
2.0773	1711.41
2.0893	1716.69
2.10136	1721.97
2.11349	1727.25
2.12569	1732.51
2.13796	1737.78
2.1503	1743.03
2.16272	1748.28
2.1752	1753.52
2.18776	1758.75
2.20039	1763.98
2.21309	1769.2
2.22587	1774.41
2.23872	1779.61
2.25165	1784.81
2.26464	1789.99
2.27772	1795.17
2.29087	1800.34
2.30409	1805.51
2.31739	1810.66
2.33077	1815.81
2.34423	1820.95
2.35776	1826.08
2.37137	1831.21
2.38506	1836.32
2.39883	1841.43
2.41268	1846.54
2.42661	1851.63
2.44062	1856.72
2.45471	1861.8
2.46888	1866.88
2.48313	1871.94
2.49747	1876.99
2.51189	1882.04
2.52639	1887.07
2.54097	1892.1
2.55564	1897.11
2.5704	1902.11
2.58523	1907.11
2.60016	1912.09
2.61517	1917.06
2.63027	1922.02
2.64545	1926.97
2.66073	1931.91
2.67609	1936.84
2.69153	1941.76
2.70707	1946.66
2.7227	1951.55
2.73842	1956.43
2.75423	1961.3
2.77013	1966.15
2.78612	1970.99
2.80221	1975.82
2.81838	1980.64
2.83465	1985.44
2.85102	1990.24
2.86748	1995.01
2.88403	1999.78
2.90068	2004.53
2.91743	2009.27
2.93427	2013.99
2.95121	2018.7
2.96825	2023.4
2.98538	2028.08
3.00262	2032.75
3.01995	2037.41
3.03739	2042.05
3.05492	2046.68
3.07256	2051.3
3.0903	2055.9
3.10814	2060.49
3.12608	2065.06
3.14413	2069.62
3.16228	2074.17
3.18053	2078.71
3.1989	2083.23
3.21736	2087.73
3.23594	2092.23
3.25462	2096.71
3.27341	2101.18
3.2923	2105.63
3.31131	2110.08
3.33043	2114.51
3.34965	2118.93
3.36899	2123.33
3.38844	2127.73
3.408	2132.11
3.42768	2136.48
3.44747	2140.84
3.46737	2145.2
3.48739	2149.54
3.50752	2153.87
3.52777	2158.19
3.54813	2162.5
3.56862	2166.8
3.58922	2171.1
3.60994	2175.34
3.63078	2179.53
3.65174	2183.71
3.67282	2187.88
3.69403	2192.05
3.71535	2196.2
3.7368	2200.35
3.75837	2204.48
3.78007	2208.61
3.80189	2212.72
3.82384	2216.83
3.84592	2220.92
3.86812	2225.01
3.89045	2229.08
3.91291	2233.15
3.9355	2237.2
3.95822	2241.24
3.98107	2245.27
4.00405	2249.29
4.02717	2253.3
4.05042	2257.29
4.0738	2261.27
4.09732	2265.24
4.12098	2269.2
4.14477	2273.15
4.16869	2277.08
4.19276	2281
4.21697	2284.9
4.24131	2288.79
4.2658	2292.67
4.29042	2296.54
4.31519	2300.39
4.3401	2304.23
4.36516	2308.05
4.39036	2311.86
4.4157	2315.66
4.4412	2319.44
4.46684	2323.2
4.49262	2326.96
4.51856	2330.69
4.54465	2334.42
4.57088	2338.12
4.59727	2341.82
4.62381	2345.49
4.6505	2349.16
4.67735	2352.8
4.70435	2356.43
4.73151	2360.05
4.75883	2363.65
4.7863	2367.24
4.81393	2370.82
4.84172	2374.39
4.86968	2377.95
4.89779	2381.5
4.92606	2385.03
4.9545	2388.54
4.9831	2392.04
5.01187	2395.52
5.04081	2398.98
5.06991	2402.43
5.09918	2405.87
5.12861	2409.28
5.15822	2412.68
5.188	2416.07
5.21795	2419.44
5.24807	2422.79
5.27837	2426.13
5.30884	2429.45
5.33949	2432.76
5.37032	2436.05
5.40132	2439.32
5.4325	2442.58
5.46387	2445.83
5.49541	2449.05
5.52713	2452.26
5.55904	2455.46
5.59114	2458.64
5.62341	2461.81
5.65588	2464.96
5.68853	2468.1
5.72137	2471.22
5.7544	2474.33
5.78762	2477.42
5.82103	2480.5
5.85464	2483.57
5.88844	2486.62
5.92243	2489.66
5.95662	2492.69
5.99101	2495.7
6.0256	2498.71
6.06038	2501.7
6.09537	2504.68
6.13056	2507.64
6.16595	2510.6
6.20155	2513.54
6.23735	2516.47
6.27336	2519.39
6.30957	2522.29
6.346	2525.18
6.38263	2528.06
6.41948	2530.93
6.45654	2533.78
6.49382	2536.62
6.53131	2539.44
6.56901	2542.25
6.60693	2545.05
6.64508	2547.83
6.68344	2550.6
6.72202	2553.36
6.76083	2556.1
6.79986	2558.83
6.83912	2561.54
6.8786	2564.25
6.91831	2566.93
6.95825	2569.6
6.99842	2572.26
7.03882	2574.91
7.07946	2577.54
7.12033	2580.16
7.16143	2582.76
7.20278	2585.35
7.24436	2587.93
7.28618	2590.5
7.32825	2593.05
7.37055	2595.59
7.4131	2598.11
7.4559	2600.62
7.49894	2603.11
7.54223	2605.59
7.58578	2608.06
7.62957	2610.51
7.67361	2612.94
7.71792	2615.36
7.76247	2617.76
7.80728	2620.15
7.85236	2622.52
7.89769	2624.87
7.94328	2627.21
7.98914	2629.53
8.03526	2631.84
8.08165	2634.13
8.12831	2636.4
8.17523	2638.65
8.22243	2640.89
8.2699	2643.11
8.31764	2645.32
8.36566	2647.5
8.41395	2649.67
8.46253	2651.83
8.51138	2653.96
8.56052	2656.08
8.60994	2658.18
8.65964	2660.26
8.70964	2662.33
8.75992	2664.38
8.81049	2666.41
8.86135	2668.42
8.91251	2670.42
8.96396	2672.4
9.01571	2674.36
9.06776	2676.3
9.12011	2678.23
9.17276	2680.13
9.22571	2682.02
9.27897	2683.9
9.33254	2685.75
9.38642	2687.59
9.44061	2689.42
9.49511	2691.22
9.54993	2693.01
9.60506	2694.78
9.66051	2696.52
9.71628	2698.24
9.77237	2699.94
9.82879	2701.62
9.88553	2703.29
9.9426	2704.94
10	2706.57
10.0577	2708.18
10.1158	2709.78
10.1742	2711.36
10.2329	2712.91
10.292	2714.45
10.3514	2715.97
10.4112	2717.48
10.4713	2718.96
10.5317	2720.42
10.5925	2721.87
10.6537	2723.29
10.7152	2724.69
10.7771	2726.08
10.8393	2727.44
10.9018	2728.78
10.9648	2730.11
11.0281	2731.41
11.0917	2732.69
11.1558	2733.95
11.2202	2735.18
11.285	2736.4
11.3501	2737.6
11.4156	2738.77
11.4815	2739.92
11.5478	2741.05
11.6145	2742.16
11.6815	2743.25
11.749	2744.31
11.8168	2745.35
11.885	2746.37
11.9536	2747.37
12.0226	2748.35
12.0921	2749.3
12.1619	2750.24
12.2321	2751.15
12.3027	2752.04
12.3737	2752.91
12.4451	2753.75
12.517	2754.57
12.5893	2755.36
12.6619	2756.13
12.735	2756.88
12.8086	2757.6
12.8825	2758.3
12.9569	2758.97
13.0317	2759.62
13.1069	2760.24
13.1826	2760.84
13.2587	2761.41
13.3352	2761.96
13.4122	2762.48
13.4896	2762.97
13.5675	2763.44
13.6458	2763.89
13.7246	2764.3
13.8038	2764.7
13.8835	2765.06
13.9637	2765.4
14.0443	2765.71
14.1254	2766
14.2069	2766.26
14.2889	2766.5
14.3714	2766.7
14.4544	2766.88
14.5378	2767.04
14.6218	2767.16
14.7062	2767.27
14.7911	2767.34
14.8765	2767.39
14.9624	2767.4
15.0487	2767.4
15.1356	2767.36
15.223	2767.3
15.3109	2767.21
15.3993	2767.09
15.4882	2766.95
15.5776	2766.77
15.6675	2766.57
15.758	2766.35
15.8489	2766.09
15.9404	2765.81
16.0325	2765.5
16.125	2765.16
16.2181	2764.8
16.3117	2764.4
16.4059	2763.98
16.5006	2763.54
16.5959	2763.06
16.6917	2762.56
16.788	2762.04
16.885	2761.48
16.9824	2760.9
17.0805	2760.29
17.1791	2759.66
17.2783	2758.99
17.378	2758.31
17.4783	2757.59
17.5792	2756.85
17.6807	2756.08
17.7828	2755.28
17.8855	2754.46
17.9887	2753.6
18.0926	2752.73
18.197	2751.82
18.3021	2750.89
18.4077	2749.93
18.514	2748.94
18.6209	2747.93
18.7284	2746.89
18.8365	2745.82
18.9452	2744.73
19.0546	2743.61
19.1646	2742.47
19.2752	2741.29
19.3865	2740.1
19.4984	2738.87
19.611	2737.62
19.7242	2736.34
19.8381	2735.04
19.9526	2733.71
20.0678	2732.36
20.1837	2730.98
20.3002	2729.57
20.4174	2728.13
20.5353	2726.68
20.6538	2725.19
20.773	2723.68
20.893	2722.14
21.0136	2720.58
21.1349	2718.99
21.2569	2717.37
21.3796	2715.73
21.503	2714.07
21.6272	2712.38
21.752	2710.66
21.8776	2708.92
22.0039	2707.15
22.1309	2705.36
22.2587	2703.55
22.3872	2701.71
22.5165	2699.84
22.6464	2697.96
22.7772	2696.05
22.9087	2694.11
23.0409	2692.15
23.1739	2690.17
23.3077	2688.17
23.4423	2686.14
23.5776	2684.1
23.7137	2682.03
23.8506	2679.93
23.9883	2677.82
24.1268	2675.69
24.2661	2673.54
24.4062	2671.37
24.5471	2669.18
24.6888	2666.96
24.8313	2664.73
24.9747	2662.47
25.1189	2660.2
25.2639	2657.9
25.4097	2655.58
25.5564	2653.24
25.704	2650.88
25.8523	2648.5
26.0016	2646.09
26.1517	2643.67
26.3027	2641.22
26.4545	2638.75
26.6073	2636.26
26.7609	2633.75
26.9153	2631.21
27.0707	2628.66
27.227	2626.08
27.3842	2623.48
27.5423	2620.87
27.7013	2618.22
27.8612	2615.56
28.0221	2612.88
28.1838	2610.17
28.3465	2607.44
28.5102	2604.7
28.6748	2601.93
28.8403	2599.14
29.0068	2596.32
29.1743	2593.49
29.3427	2590.63
29.5121	2587.76
29.6825	2584.86
29.8538	2581.94
30.0262	2579.01
30.1995	2576.05
30.3739	2573.07
30.5492	2570.07
30.7256	2567.05
30.903	2564.01
31.0814	2560.95
31.2608	2557.87
31.4413	2554.77
31.6228	2551.65
31.8053	2548.51
31.989	2545.35
32.1736	2542.18
32.3594	2538.98
32.5462	2535.77
32.7341	2532.53
32.923	2529.28
33.1131	2526.02
33.3043	2522.73
33.4965	2519.43
33.6899	2516.11
33.8844	2512.78
34.08	2509.42
34.2768	2506.06
34.4747	2502.67
34.6737	2499.28
34.8739	2495.86
35.0752	2492.44
35.2777	2489
35.4813	2485.54
35.6862	2482.07
35.8922	2478.59
36.0994	2475.1
36.3078	2471.58
36.5174	2468.05
36.7282	2464.51
36.9403	2460.95
37.1535	2457.39
37.368	2453.81
37.5837	2450.22
37.8007	2446.62
38.0189	2443.01
38.2384	2439.38
38.4592	2435.75
38.6812	2432.1
38.9045	2428.44
39.1291	2424.77
39.355	2421.08
39.5822	2417.39
39.8107	2413.68
40.0405	2409.97
40.2717	2406.24
40.5042	2402.5
40.738	2398.75
40.9732	2394.98
41.2098	2391.21
41.4477	2387.42
41.6869	2383.63
41.9276	2379.82
42.1697	2376
42.4131	2372.17
42.658	2368.33
42.9042	2364.48
43.1519	2360.61
43.401	2356.74
43.6516	2352.85
43.9036	2348.96
44.157	2345.05
44.412	2341.13
44.6684	2337.2
44.9262	2333.26
45.1856	2329.31
45.4465	2325.35
45.7088	2321.38
45.9727	2317.4
46.2381	2313.41
46.505	2309.41
46.7735	2305.4
47.0435	2301.37
47.3151	2297.34
47.5883	2293.3
47.863	2289.25
48.1393	2285.18
48.4172	2281.1
48.6968	2277.02
48.9779	2272.92
49.2606	2268.81
49.545	2264.7
49.831	2260.57
50.1187	2256.44
50.4081	2252.29
50.6991	2248.14
50.9918	2243.98
51.2861	2239.81
51.5822	2235.62
51.88	2231.43
52.1795	2227.24
52.4807	2223.03
52.7837	2218.81
53.0884	2214.59
53.3949	2210.36
53.7032	2206.12
54.0132	2201.87
54.325	2197.61
54.6387	2193.34
54.9541	2189.07
55.2713	2184.79
55.5904	2180.5
55.9114	2176.2
56.2341	2171.9
56.5588	2167.59
56.8853	2163.27
57.2137	2158.94
57.544	2154.61
57.8762	2150.27
58.2103	2145.93
58.5464	2141.57
58.8844	2137.21
59.2243	2132.85
59.5662	2128.47
59.9101	2124.1
60.256	2119.71
60.6038	2115.32
60.9537	2110.92
61.3056	2106.52
61.6595	2102.11
62.0155	2097.7
62.3735	2093.28
62.7336	2088.85
63.0957	2084.42
63.46	2079.99
63.8263	2075.55
64.1948	2071.1
64.5654	2066.65
64.9382	2062.19
65.3131	2057.73
65.6901	2053.27
66.0693	2048.79
66.4508	2044.32
66.8344	2039.84
67.2202	2035.35
67.6083	2030.86
67.9986	2026.37
68.3912	2021.87
68.786	2017.37
69.1831	2012.86
69.5825	2008.35
69.9842	2003.84
70.3882	1999.32
70.7946	1994.8
71.2033	1990.27
71.6143	1985.74
72.0278	1981.2
72.4436	1976.66
72.8618	1972.11
73.2825	1967.57
73.7055	1963.01
74.131	1958.46
74.559	1953.9
74.9894	1949.33
75.4223	1944.77
75.8578	1940.2
76.2957	1935.62
76.7361	1931.05
77.1792	1926.47
77.6247	1921.89
78.0728	1917.31
78.5236	1912.72
78.9769	1908.13
79.4328	1903.54
79.8914	1898.95
80.3526	1894.35
80.8165	1889.76
81.2831	1885.16
81.7523	1880.56
82.2243	1875.95
82.699	1871.35
83.1764	1866.74
83.6566	1862.13
84.1395	1857.52
84.6253	1852.91
85.1138	1848.29
85.6052	1843.68
86.0994	1839.06
86.5964	1834.45
87.0964	1829.83
87.5992	1825.21
88.1049	1820.58
88.6135	1815.96
89.1251	1811.34
89.6396	1806.71
90.1571	1802.08
90.6776	1797.46
91.2011	1792.83
91.7276	1788.2
92.2571	1783.56
92.7897	1778.93
93.3254	1774.3
93.8642	1769.66
94.4061	1765.03
94.9511	1760.39
95.4993	1755.75
96.0506	1751.11
96.6051	1746.49
97.1628	1741.86
97.7237	1737.24
98.2879	1732.61
98.8553	1727.98
99.426	1723.35
100	1718.72
100.577	1714.09
101.158	1709.46
101.742	1704.83
102.329	1700.2
102.92	1695.57
103.514	1690.95
104.112	1686.32
104.713	1681.69
105.317	1677.06
105.925	1672.43
106.537	1667.81
107.152	1663.18
107.771	1658.56
108.393	1653.94
109.018	1649.32
109.648	1644.7
110.281	1640.08
110.917	1635.46
111.558	1630.85
112.202	1626.23
112.85	1621.62
113.501	1617.01
114.156	1612.4
114.815	1607.8
115.478	1603.2
116.145	1598.6
116.815	1594
117.49	1589.4
118.168	1584.81
118.85	1580.22
119.536	1575.63
120.226	1571.04
120.921	1566.45
121.619	1561.87
122.321	1557.28
123.027	1552.7
123.737	1548.13
124.451	1543.55
125.17	1538.98
125.893	1534.42
126.619	1529.85
127.35	1525.29
128.086	1520.74
128.825	1516.19
129.569	1511.64
130.317	1507.09
131.069	1502.55
131.826	1498.01
132.587	1493.48
133.352	1488.95
134.122	1484.42
134.896	1479.9
135.675	1475.38
136.458	1470.87
137.246	1466.36
138.038	1461.86
138.835	1457.35
139.637	1452.86
140.443	1448.36
141.254	1443.87
142.069	1439.39
142.889	1434.91
143.714	1430.43
144.544	1425.96
145.378	1421.49
146.218	1417.02
147.062	1412.56
147.911	1408.1
148.765	1403.65
149.624	1399.2
150.487	1394.75
151.356	1390.31
152.23	1385.88
153.109	1381.45
153.993	1377.02
154.882	1372.6
155.776	1368.19
156.675	1363.78
157.58	1359.37
158.489	1354.97
159.404	1350.58
160.325	1346.19
161.25	1341.81
162.181	1337.43
163.117	1333.06
164.059	1328.69
165.006	1324.33
165.959	1319.98
166.917	1315.63
167.88	1311.29
168.85	1306.95
169.824	1302.62
170.805	1298.29
171.791	1293.97
172.783	1289.66
173.78	1285.35
174.783	1281.05
175.792	1276.75
176.807	1272.46
177.828	1268.18
178.855	1263.9
179.887	1259.63
180.926	1255.37
181.97	1251.12
183.021	1246.87
184.077	1242.62
185.14	1238.39
186.209	1234.16
187.284	1229.94
188.365	1225.72
189.452	1221.51
190.546	1217.31
191.646	1213.11
192.752	1208.92
193.865	1204.74
194.984	1200.57
196.11	1196.4
197.242	1192.24
198.381	1188.08
199.526	1183.94
200.678	1179.8
201.837	1175.67
203.002	1171.54
204.174	1167.43
205.353	1163.32
206.538	1159.21
207.73	1155.12
208.93	1151.03
210.136	1146.96
211.349	1142.89
212.569	1138.82
213.796	1134.77
215.03	1130.72
216.272	1126.68
217.52	1122.65
218.776	1118.63
220.039	1114.62
221.309	1110.61
222.587	1106.61
223.872	1102.62
225.165	1098.64
226.464	1094.66
227.772	1090.7
229.087	1086.74
230.409	1082.79
231.739	1078.85
233.077	1074.91
234.423	1070.98
235.776	1067.06
237.137	1063.15
238.506	1059.25
239.883	1055.35
241.268	1051.45
242.661	1047.56
244.062	1043.68
245.471	1039.81
246.888	1035.94
248.313	1032.08
249.747	1028.23
251.189	1024.39
252.639	1020.55
254.097	1016.73
255.564	1012.91
257.04	1009.1
258.523	1005.3
260.016	1001.51
261.517	997.727
263.027	993.955
264.545	990.192
266.073	986.438
267.609	982.694
269.153	978.96
270.707	975.236
272.27	971.521
273.842	967.817
275.423	964.123
277.013	960.439
278.612	956.765
280.221	953.102
281.838	949.449
283.465	945.806
285.102	942.175
286.748	938.554
288.403	934.943
290.068	931.344
291.743	927.755
293.427	924.177
295.121	920.61
296.825	917.054
298.538	913.509
300.262	909.975
301.995	906.451
303.739	902.939
305.492	899.437
307.256	895.946
309.03	892.466
310.814	888.996
312.608	885.538
314.413	882.09
316.228	878.652
318.053	875.225
319.89	871.808
321.736	868.402
323.594	865.005
325.462	861.619
327.341	858.242
329.23	854.875
331.131	851.517
333.043	848.169
334.965	844.83
336.899	841.5
338.844	838.178
340.8	834.865
342.768	831.56
344.747	828.262
346.737	824.973
348.739	821.69
350.752	818.414
352.777	815.145
354.813	811.883
356.862	808.625
358.922	805.374
360.994	802.161
363.078	798.989
365.174	795.822
367.282	792.661
369.403	789.506
371.535	786.357
373.68	783.213
375.837	780.076
378.007	776.945
380.189	773.82
382.384	770.702
384.592	767.591
386.812	764.487
389.045	761.389
391.291	758.299
393.55	755.216
395.822	752.14
398.107	749.072
400.405	746.012
402.717	742.96
405.042	739.915
407.38	736.879
409.732	733.851
412.098	730.831
414.477	727.82
416.869	724.817
419.276	721.823
421.697	718.838
424.131	715.862
426.58	712.895
429.042	709.938
431.519	706.989
434.01	704.05
436.516	701.121
439.036	698.201
441.57	695.291
444.12	692.39
446.684	689.5
449.262	686.62
451.856	683.749
454.465	680.889
457.088	678.039
459.727	675.199
462.381	672.369
465.05	669.55
467.735	666.741
470.435	663.943
473.151	661.155
475.883	658.378
478.63	655.612
481.393	652.849
484.172	650.089
486.968	647.341
489.779	644.603
492.606	641.875
495.45	639.159
498.31	636.453
501.187	633.758
504.081	631.075
506.991	628.402
509.918	625.74
512.861	623.089
515.822	620.449
518.8	617.82
521.795	615.202
524.807	612.596
527.837	610
530.884	607.415
533.949	604.841
537.032	602.278
540.132	599.726
543.25	597.184
546.387	594.654
549.541	592.134
552.713	589.624
555.904	587.125
559.114	584.636
562.341	582.158
565.588	579.689
568.853	577.231
572.137	574.782
575.44	572.343
578.762	569.914
582.103	567.494
585.464	565.083
588.844	562.68
592.243	560.287
595.662	557.902
599.101	555.525
602.56	553.155
606.038	550.793
609.537	548.439
613.056	546.093
616.595	543.755
620.155	541.425
623.735	539.103
627.336	536.79
630.957	534.485
634.6	532.188
638.263	529.9
641.948	527.62
645.654	525.349
649.382	523.086
653.131	520.831
656.901	518.586
660.693	516.349
664.508	514.12
668.344	511.9
672.202	509.689
676.083	507.486
679.986	505.292
683.912	503.107
687.86	500.93
691.831	498.762
695.825	496.602
699.842	494.451
703.882	492.308
707.946	490.173
712.033	488.047
716.143	485.929
720.278	483.819
724.436	481.713
728.618	479.615
732.825	477.525
737.055	475.444
741.31	473.371
745.59	471.306
749.894	469.25
754.223	467.203
758.578	465.164
762.957	463.133
767.361	461.112
771.792	459.099
776.247	457.095
780.728	455.099
785.236	453.113
789.769	451.135
794.328	449.166
798.914	447.206
803.526	445.255
808.165	443.313
812.831	441.38
817.523	439.456
822.243	437.541
826.99	435.634
831.764	433.737
836.566	431.848
841.395	429.968
846.253	428.097
851.138	426.235
856.052	424.381
860.994	422.536
865.964	420.7
870.964	418.872
875.992	417.052
881.049	415.241
886.135	413.438
891.251	411.643
896.396	409.856
901.571	408.077
906.776	406.305
912.011	404.542
917.276	402.785
922.571	401.036
927.897	399.294
933.254	397.558
938.642	395.83
944.061	394.107
949.511	392.391
954.993	390.681
960.506	388.978
966.051	387.294
971.628	385.615
977.237	383.941
982.879	382.274
988.553	380.612
994.26	378.957
1000	377.307
1005.77	375.664
1011.58	374.026
1017.42	372.395
1023.29	370.77
1029.2	369.152
1035.14	367.54
1041.12	365.934
1047.13	364.335
1053.17	362.742
1059.25	361.156
1065.37	359.576
1071.52	358.004
1077.71	356.437
1083.93	354.878
1090.18	353.325
1096.48	351.779
1102.81	350.24
1109.17	348.708
1115.58	347.182
1122.02	345.663
1128.5	344.152
1135.01	342.647
1141.56	341.148
1148.15	339.657
1154.78	338.173
1161.45	336.695
1168.15	335.224
1174.9	333.76
1181.68	332.303
1188.5	330.852
1195.36	329.408
1202.26	327.97
1209.21	326.536
1216.19	325.108
1223.21	323.688
1230.27	322.273
1237.37	320.866
1244.51	319.465
1251.7	318.071
1258.93	316.684
1266.19	315.303
1273.5	313.929
1280.86	312.562
1288.25	311.201
1295.69	309.847
1303.17	308.5
1310.69	307.159
1318.26	305.825
1325.87	304.497
1333.52	303.176
1341.22	301.861
1348.96	300.553
1356.75	299.251
1364.58	297.956
1372.46	296.666
1380.38	295.383
1388.35	294.106
1396.37	292.834
1404.43	291.569
1412.54	290.309
1420.69	289.055
1428.89	287.807
1437.14	286.564
1445.44	285.326
1453.78	284.093
1462.18	282.866
1470.62	281.644
1479.11	280.427
1487.65	279.216
1496.24	278.01
1504.87	276.809
1513.56	275.614
1522.3	274.425
1531.09	273.24
1539.93	272.062
1548.82	270.888
1557.76	269.72
1566.75	268.558
1575.8	267.401
1584.89	266.249
1594.04	265.103
1603.25	263.963
1612.5	262.827
1621.81	261.697
1631.17	260.573
1640.59	259.453
1650.06	258.339
1659.59	257.23
1669.17	256.127
1678.8	255.028
1688.5	253.934
1698.24	252.846
1708.05	251.763
1717.91	250.684
1727.83	249.611
1737.8	248.543
1747.83	247.48
1757.92	246.422
1768.07	245.369
1778.28	244.321
1788.55	243.279
1798.87	242.241
1809.26	241.208
1819.7	240.181
1830.21	239.158
1840.77	238.14
1851.4	237.127
1862.09	236.119
1872.84	235.116
1883.65	234.118
1894.52	233.124
1905.46	232.135
1916.46	231.151
1927.52	230.171
1938.65	229.195
1949.84	228.225
1961.1	227.258
1972.42	226.296
1983.81	225.339
1995.26	224.387
2006.78	223.439
2018.37	222.495
2030.02	221.556
2041.74	220.622
2053.53	219.692
2065.38	218.767
2077.3	217.847
2089.3	216.931
2101.36	216.019
2113.49	215.112
2125.69	214.21
2137.96	213.311
2150.3	212.418
2162.72	211.528
2175.2	210.643
2187.76	209.763
2200.39	208.886
2213.09	208.014
2225.87	207.146
2238.72	206.283
2251.65	205.423
2264.64	204.567
2277.72	203.716
2290.87	202.869
2304.09	202.025
2317.39	201.185
2330.77	200.35
2344.23	199.518
2357.76	198.689
2371.37	197.864
2385.06	197.043
2398.83	196.225
2412.68	195.409
2426.61	194.595
2440.62	193.786
2454.71	192.979
2468.88	192.176
2483.13	191.377
2497.47	190.581
2511.89	189.788
2526.39	189
2540.97	188.214
2555.64	187.433
2570.4	186.655
2585.23	185.881
2600.16	185.111
2615.17	184.344
2630.27	183.582
2645.45	182.823
2660.73	182.068
2676.09	181.317
2691.53	180.57
2707.07	179.826
2722.7	179.087
2738.42	178.352
2754.23	177.621
2770.13	176.894
2786.12	176.171
2802.21	175.452
2818.38	174.736
2834.65	174.026
2851.02	173.319
2867.48	172.616
2884.03	171.917
2900.68	171.222
2917.43	170.532
2934.27	169.845
2951.21	169.163
2968.25	168.485
2985.38	167.81
3002.62	167.14
3019.95	166.474
3037.39	165.811
3054.92	165.153
3072.56	164.499
3090.3	163.848
3108.14	163.201
3126.08	162.558
3144.13	161.919
3162.28	161.284
3180.53	160.653
3198.9	160.025
3217.36	159.4
3235.94	158.779
3254.62	158.162
3273.41	157.548
3292.3	156.937
3311.31	156.33
3330.43	155.726
3349.65	155.125
3368.99	154.526
3388.44	153.931
3408	153.339
3427.68	152.749
3447.47	152.12
3467.37	151.488
3487.39	150.858
3507.52	150.232
3527.77	149.608
3548.13	148.986
3568.62	148.367
3589.22	147.749
3609.94	147.143
3630.78	146.547
3651.74	145.954
3672.82	145.362
3694.03	144.773
3715.35	144.186
3736.8	143.6
3758.37	143.017
3780.07	142.436
3801.89	141.857
3823.84	141.28
3845.92	140.706
3868.12	140.133
3890.45	139.563
3912.91	138.996
3935.5	138.43
3958.22	137.867
3981.07	137.306
4004.05	136.748
4027.17	136.192
4050.42	135.638
4073.8	135.087
4097.32	134.539
4120.98	133.993
4144.77	133.449
4168.69	132.908
4192.76	132.37
4216.97	131.834
4241.31	131.301
4265.8	130.77
4290.42	130.242
4315.19	129.717
4340.1	129.195
4365.16	128.675
4390.36	128.158
4415.7	127.643
4441.2	127.132
4466.84	126.623
4492.62	126.117
4518.56	125.614
4544.65	125.114
4570.88	124.616
4597.27	124.121
4623.81	123.63
4650.5	123.141
4677.35	122.655
4704.35	122.172
4731.51	121.691
4758.83	121.214
4786.3	120.739
4813.93	120.266
4841.72	119.795
4869.68	119.326
4897.79	118.861
4926.06	118.398
4954.5	117.938
4983.1	117.481
5011.87	117.027
5040.81	116.576
5069.91	116.127
5099.18	115.682
5128.61	115.239
5158.22	114.8
5188	114.363
5217.95	113.929
5248.07	113.498
5278.37	113.069
5308.84	112.644
5339.49	112.221
5370.32	111.801
5401.32	111.384
5432.5	110.969
5463.87	110.557
5495.41	110.148
5527.13	109.742
5559.04	109.338
5591.14	108.936
5623.41	108.537
5655.88	108.141
5688.53	107.747
5721.37	107.355
5754.4	106.966
5787.62	106.579
5821.03	106.194
5854.64	105.811
5888.44	105.431
5922.43	105.052
5956.62	104.676
5991.01	104.301
6025.6	103.928
6060.38	103.557
6095.37	103.187
6130.56	102.82
6165.95	102.454
6201.55	102.09
6237.35	101.728
6273.36	101.368
6309.57	101.009
6346	100.653
6382.63	100.298
6419.48	99.9453
6456.54	99.5944
6493.82	99.2454
6531.31	98.8983
6569.01	98.553
6606.93	98.2097
6645.08	97.8682
6683.44	97.5286
6722.02	97.1909
6760.83	96.855
6799.86	96.521
6839.12	96.1889
6878.6	95.8586
6918.31	95.5302
6958.25	95.2036
6998.42	94.8789
7038.82	94.5559
7079.46	94.2348
7120.33	93.9154
7161.43	93.5979
7202.78	93.282
7244.36	92.9672
7286.18	92.6541
7328.25	92.3428
7370.55	92.0333
7413.1	91.7255
7455.9	91.4195
7498.94	91.1153
7542.23	90.8129
7585.78	90.5123
7629.57	90.2134
7673.61	89.9164
7717.92	89.6212
7762.47	89.3279
7807.28	89.0363
7852.36	88.7466
7897.69	88.4587
7943.28	88.1726
7989.14	87.8883
8035.26	87.6059
8081.65	87.3253
8128.31	87.0465
8175.23	86.7695
8222.43	86.4943
8269.9	86.2209
8317.64	85.9494
8365.66	85.6796
8413.95	85.4115
8462.53	85.1453
8511.38	84.8807
8560.52	84.618
8609.94	84.3569
8659.64	84.0975
8709.64	83.8399
8759.92	83.5839
8810.49	83.3295
8861.35	83.0768
8912.51	82.8257
8963.96	82.5761
9015.71	82.3281
9067.76	82.0816
9120.11	81.8366
9172.76	81.5931
9225.71	81.3509
9278.97	81.1102
9332.54	80.8708
9386.42	80.6327
9440.61	80.3958
9495.11	80.1602
9549.93	79.9258
9605.06	79.6927
9660.51	79.4627
9716.28	79.2338
9772.37	79.0061
9828.79	78.7795
9885.53	78.554
9942.6	78.3296
10000	78.1064
10057.7	77.8843
10115.8	77.6634
10174.2	77.4437
10232.9	77.2251
10292	77.0077
10351.4	76.7916
10411.2	76.5766
10471.3	76.3628
10531.7	76.1503
10592.5	75.939
10653.7	75.7288
10715.2	75.52
10777.1	75.3123
10839.3	75.1059
10901.8	74.9007
10964.8	74.6968
11028.1	74.4941
11091.7	74.2926
11155.8	74.0924
11220.2	73.8935
11285	73.6958
11350.1	73.4993
11415.6	73.3041
11481.5	73.1101
11547.8	72.9174
11614.5	72.7259
11681.5	72.5356
11749	72.3466
11816.8	72.1587
11885	71.9721
11953.6	71.7867
12022.6	71.6023
12092.1	71.4188
12161.9	71.2364
12232.1	71.0553
12302.7	70.8753
12373.7	70.6966
12445.1	70.519
12517	70.3426
12589.3	70.1674
12661.9	69.9934
12735	69.8206
12808.6	69.649
12882.5	69.4786
12956.9	69.3093
13031.7	69.1412
13106.9	68.9743
13182.6	68.8085
13258.7	68.6439
13335.2	68.4804
13412.2	68.318
13489.6	68.1568
13567.5	67.9967
13645.8	67.8377
13724.6	67.6798
13803.8	67.5229
13883.5	67.3671
13963.7	67.2123
14044.3	67.0586
14125.4	66.9059
14206.9	66.7541
14288.9	66.6034
14371.4	66.4535
14454.4	66.3046
14537.8	66.1566
14621.8	66.0095
14706.2	65.8633
14791.1	65.718
14876.5	65.5737
14962.4	65.4303
15048.7	65.2878
15135.6	65.1463
15223	65.0057
15310.9	64.866
15399.3	64.7272
15488.2	64.5894
15577.6	64.4525
15667.5	64.3166
15758	64.1815
15848.9	64.0474
15940.4	63.9142
16032.5	63.7819
16125	63.6505
16218.1	63.5201
16311.7	63.3905
16405.9	63.2618
16500.6	63.1341
16595.9	63.0071
16691.7	62.8811
16788	62.7559
16885	62.6316
16982.4	62.5081
17080.5	62.3855
17179.1	62.2637
17278.3	62.1428
17378	62.0227
17478.3	61.9035
17579.2	61.7851
17680.7	61.6676
17782.8	61.5509
17885.5	61.435
17988.7	61.32
18092.6	61.2059
18197	61.0925
18302.1	60.98
18407.7	60.8684
18514	60.7575
18620.9	60.6474
18728.4	60.5382
18836.5	60.4297
18945.2	60.322
19054.6	60.2151
19164.6	60.109
19275.2	60.0036
19386.5	59.899
19498.4	59.7952
19611	59.692
19724.2	59.5897
19838.1	59.4881
19952.6	59.3872
20067.8	59.2871
20183.7	59.1877
20300.2	59.089
20417.4	58.9911
20535.3	58.8939
20653.8	58.7974
20773	58.7017
20893	58.6067
21013.6	58.5123
21134.9	58.4187
21256.9	58.3258
21379.6	58.2335
21503	58.1419
21627.2	58.051
21752	57.9607
21877.6	57.8711
22003.9	57.7821
22130.9	57.6937
22258.7	57.6059
22387.2	57.5187
22516.5	57.4321
22646.4	57.346
22777.2	57.2605
22908.7	57.1755
23040.9	57.091
23173.9	57.007
23307.7	56.9234
23442.3	56.8403
23577.6	56.7576
23713.7	56.6753
23850.6	56.5934
23988.3	56.5118
24126.8	56.4281
24266.1	56.3447
24406.2	56.262
24547.1	56.1799
24688.8	56.0984
24831.3	56.0176
24974.7	55.9373
25118.9	55.8577
25263.9	55.7788
25409.7	55.7004
25556.4	55.6226
25704	55.5455
25852.3	55.4689
26001.6	55.393
26151.7	55.3177
26302.7	55.2429
26454.5	55.1687
26607.3	55.0952
26760.9	55.0222
26915.3	54.9498
27070.7	54.8779
27227	54.8067
27384.2	54.736
27542.3	54.6658
27701.3	54.5963
27861.2	54.5273
28022.1	54.4589
28183.8	54.391
28346.5	54.3236
28510.2	54.2569
28674.8	54.1906
28840.3	54.1249
29006.8	54.0598
29174.3	53.9952
29342.7	53.9311
29512.1	53.8675
29682.5	53.8045
29853.8	53.742
30026.2	53.68
30199.5	53.6185
30373.9	53.5576
30549.2	53.4972
30725.6	53.4372
30903	53.3778
31081.4	53.3189
31260.8	53.2605
31441.3	53.2026
31622.8	53.1452
31805.3	53.0883
31989	53.0318
32173.6	52.9759
32359.4	52.9204
32546.2	52.8654
32734.1	52.8109
32923	52.7569
33113.1	52.7033
33304.3	52.6502
33496.5	52.5976
33689.9	52.5455
33884.4	52.4938
34080	52.4426
34276.8	52.3918
34474.7	52.3415
34673.7	52.2916
34873.9	52.2422
35075.2	52.1932
35277.7	52.1447
35481.3	52.0966
35686.2	52.0489
35892.2	52.0017
36099.4	51.9549
36307.8	51.9086
36517.4	51.8626
36728.2	51.8171
36940.3	51.772
37153.5	51.7274
37368	51.6832
37583.7	51.6393
37800.7	51.5959
38018.9	51.5529
38238.4	51.5103
38459.2	51.4681
38681.2	51.4263
38904.5	51.385
39129.1	51.344
39355	51.3034
39582.2	51.2632
39810.7	51.2234
40040.5	51.1839
40271.7	51.1449
40504.2	51.1063
40738	51.068
40973.2	51.0301
41209.8	50.9926
41447.7	50.9555
41686.9	50.9187
41927.6	50.8823
42169.7	50.8463
42413.1	50.8106
42658	50.7753
42904.2	50.7403
43151.9	50.7058
43401	50.6715
43651.6	50.6377
43903.6	50.6041
44157	50.571
44412	50.5381
44668.4	50.5057
44926.2	50.4735
45185.6	50.4417
45446.5	50.4103
45708.8	50.3791
45972.7	50.3484
46238.1	50.3179
46505	50.2878
46773.5	50.258
47043.5	50.2285
47315.1	50.1994
47588.3	50.1705
47863	50.142
48139.3	50.1138
48417.2	50.0859
48696.8	50.0584
48977.9	50.0311
49260.6	50.0042
49545	49.9775
49831	49.9512
50118.7	49.9252
50408.1	49.8995
50699.1	49.874
50991.8	49.8489
51286.1	49.8241
51582.2	49.7995
51880	49.7753
52179.5	49.7513
52480.7	49.7276
52783.7	49.7042
53088.4	49.6811
53394.9	49.6583
53703.2	49.6358
54013.2	49.6135
54325	49.5915
54638.7	49.5698
54954.1	49.5483
55271.3	49.5271
55590.4	49.5062
55911.4	49.4856
56234.1	49.4652
56558.8	49.4451
56885.3	49.4252
57213.7	49.4056
57544	49.3863
57876.2	49.3672
58210.3	49.3484
58546.4	49.3298
58884.4	49.3115
59224.3	49.2934
59566.2	49.2756
59910.1	49.258
60256	49.2406
60603.8	49.2235
60953.7	49.2067
61305.6	49.19
61659.5	49.1736
62015.5	49.1575
62373.5	49.1416
62733.6	49.1259
63095.7	49.1104
63460	49.0952
63826.3	49.0802
64194.8	49.0654
64565.4	49.0508
64938.2	49.0365
65313.1	49.0223
65690.1	49.0084
66069.3	48.9948
66450.8	48.9813
66834.4	48.968
67220.2	48.955
67608.3	48.9421
67998.6	48.9295
68391.2	48.9171
68786	48.9049
69183.1	48.8929
69582.5	48.881
69984.2	48.8694
70388.2	48.858
70794.6	48.8468
71203.3	48.8358
71614.3	48.825
72027.8	48.8143
72443.6	48.8039
72861.8	48.7936
73282.5	48.7836
73705.5	48.7737
74131	48.764
74559	48.7545
74989.4	48.7452
75422.3	48.736
75857.8	48.7271
76295.7	48.7183
76736.1	48.7097
77179.2	48.7012
77624.7	48.693
78072.8	48.6849
78523.6	48.677
78976.9	48.6693
79432.8	48.6617
79891.4	48.6543
80352.6	48.647
80816.5	48.6399
81283.1	48.633
81752.3	48.6263
82224.3	48.6197
82699	48.6133
83176.4	48.607
83656.6	48.6009
84139.5	48.5949
84625.3	48.5891
85113.8	48.5834
85605.2	48.5779
86099.4	48.5726
86596.4	48.5674
87096.4	48.5623
87599.2	48.5574
88104.9	48.5526
88613.5	48.548
89125.1	48.5435
89639.6	48.5392
90157.1	48.535
90677.6	48.5309
91201.1	48.527
91727.6	48.5232
92257.1	48.5195
92789.7	48.516
93325.4	48.5126
93864.2	48.5094
94406.1	48.5062
94951.1	48.5033
95499.3	48.5004
96050.6	48.4976
96605.1	48.495
97162.8	48.4925
97723.7	48.4902
98287.9	48.4879
98855.3	48.4858
99426	48.4838
100000	48.4819
100577	48.4801
101158	48.4785
101742	48.477
102329	48.4755
102920	48.4742
103514	48.473
104112	48.472
104713	48.471
105317	48.4701
105925	48.4694
106537	48.4687
107152	48.4682
107771	48.4678
108393	48.4674
109018	48.4672
109648	48.4671
110281	48.4671
110917	48.4671
111558	48.4673
112202	48.4676
112850	48.4679
113501	48.4684
114156	48.469
114815	48.4696
115478	48.4704
116145	48.4712
116815	48.4722
117490	48.4732
118168	48.4743
118850	48.4755
119536	48.4768
120226	48.4782
120921	48.4796
121619	48.4812
122321	48.4828
123027	48.4845
123737	48.4863
124451	48.4882
125170	48.4902
125893	48.4922
126619	48.4943
127350	48.4965
128086	48.4988
128825	48.5012
129569	48.5036
130317	48.5061
131069	48.5087
131826	48.5113
132587	48.514
133352	48.5168
134122	48.5197
134896	48.5226
135675	48.5256
136458	48.5287
137246	48.5318
138038	48.535
138835	48.5383
139637	48.5416
140443	48.545
141254	48.5485
142069	48.552
142889	48.5556
143714	48.5592
144544	48.5629
145378	48.5667
146218	48.5705
147062	48.5744
147911	48.5784
148765	48.5824
149624	48.5864
150487	48.5905
151356	48.5947
152230	48.5989
153109	48.6032
153993	48.6075
154882	48.6119
155776	48.6163
156675	48.6208
157580	48.6254
158489	48.6299
159404	48.6346
160325	48.6393
161250	48.644
162181	48.6488
163117	48.6536
164059	48.6584
165006	48.6634
165959	48.6683
166917	48.6733
167880	48.6783
168850	48.6834
169824	48.6886
170805	48.6937
171791	48.6989
172783	48.7042
173780	48.7095
174783	48.7148
175792	48.7202
176807	48.7256
177828	48.731
178855	48.7365
179887	48.742
180926	48.7475
181970	48.7531
183021	48.7587
184077	48.7644
185140	48.7701
186209	48.7758
187284	48.7815
188365	48.7873
189452	48.7931
190546	48.799
191646	48.8049
192752	48.8108
193865	48.8167
194984	48.8227
196110	48.8287
197242	48.8347
198381	48.8407
199526	48.8468
200678	48.8529
201837	48.859
203002	48.8652
204174	48.8713
205353	48.8775
206538	48.8838
207730	48.89
208930	48.8963
210136	48.9026
211349	48.9089
212569	48.9152
213796	48.9216
215030	48.928
216272	48.9344
217520	48.9408
218776	48.9472
220039	48.9537
221309	48.9602
222587	48.9666
223872	48.9732
225165	48.9797
226464	48.9862
227772	48.9928
229087	48.9994
230409	49.006
231739	49.0126
233077	49.0192
234423	49.0259
235776	49.0325
237137	49.0392
238506	49.0459
239883	49.0526
241268	49.0593
242661	49.066
244062	49.0727
245471	49.0795
246888	49.0862
248313	49.093
249747	49.0998
251189	49.1066
252639	49.1134
254097	49.1202
255564	49.127
257040	49.1338
258523	49.1407
260016	49.1475
261517	49.1543
263027	49.1612
264545	49.1681
266073	49.175
267609	49.1818
269153	49.1887
270707	49.1956
272270	49.2025
273842	49.2094
275423	49.2163
277013	49.2232
278612	49.2302
280221	49.2371
281838	49.244
283465	49.251
285102	49.2579
286748	49.2648
288403	49.2718
290068	49.2787
291743	49.2857
293427	49.2926
295121	49.2996
296825	49.3065
298538	49.3135
300262	49.3204
301995	49.3274
303739	49.3344
305492	49.3413
307256	49.3483
309030	49.3552
310814	49.3622
312608	49.3691
314413	49.3761
316228	49.3831
318053	49.39
319890	49.397
321736	49.4039
323594	49.4109
325462	49.4178
327341	49.4248
329230	49.4317
331131	49.4386
333043	49.4456
334965	49.4525
336899	49.4594
338844	49.4664
340800	49.4733
342768	49.4802
344747	49.4871
346737	49.494
348739	49.5009
350752	49.5078
352777	49.5147
354813	49.5216
356862	49.5285
358922	49.5354
360994	49.5422
363078	49.5491
365174	49.556
367282	49.5628
369403	49.5697
371535	49.5765
373680	49.5833
375837	49.5902
378007	49.597
380189	49.6038
382384	49.6106
384592	49.6174
386812	49.6242
389045	49.631
391291	49.6377
393550	49.6445
395822	49.6513
398107	49.658
400405	49.6647
402717	49.6715
405042	49.6782
407380	49.6849
409732	49.6916
412098	49.6983
414477	49.705
416869	49.7117
419276	49.7183
421697	49.725
424131	49.7316
426580	49.7382
429042	49.7449
431519	49.7515
434010	49.7581
436516	49.7647
439036	49.7712
441570	49.7778
444120	49.7844
446684	49.7909
449262	49.7974
451856	49.804
454465	49.8105
457088	49.817
459727	49.8235
462381	49.8299
465050	49.8364
467735	49.8428
470435	49.8493
473151	49.8557
475883	49.8621
478630	49.8685
481393	49.8749
484172	49.8813
486968	49.8876
489779	49.894
492606	49.9003
495450	49.9067
498310	49.913
501187	49.9193
504081	49.9255
506991	49.9318
509918	49.9381
512861	49.9443
515822	49.9505
518800	49.9567
521795	49.9629
524807	49.9691
527837	49.9753
530884	49.9815
533949	49.9876
537032	49.9937
540132	49.9998
543250	50.0059
546387	50.012
549541	50.0181
552713	50.0242
555904	50.0302
559114	50.0362
562341	50.0422
565588	50.0482
568853	50.0542
572137	50.0602
575440	50.0661
578762	50.0721
582103	50.078
585464	50.0839
588844	50.0898
592243	50.0957
595662	50.1015
599101	50.1074
602560	50.1132
606038	50.119
609537	50.1248
613056	50.1306
616595	50.1363
620155	50.1421
623735	50.1478
627336	50.1535
630957	50.1592
634600	50.1649
638263	50.1706
641948	50.1762
645654	50.1819
649382	50.1875
653131	50.1931
656901	50.1987
660693	50.2042
664508	50.2098
668344	50.2153
672202	50.2209
676083	50.2264
679986	50.2319
683912	50.2373
687860	50.2428
691831	50.2482
695825	50.2536
699842	50.259
703882	50.2644
707946	50.2698
712033	50.2752
716143	50.2805
720278	50.2858
724436	50.2911
728618	50.2964
732825	50.3017
737055	50.3069
741310	50.3122
745590	50.3174
749894	50.3226
754223	50.3278
758578	50.333
762957	50.3381
767361	50.3432
771792	50.3484
776247	50.3535
780728	50.3585
785236	50.3636
789769	50.3687
794328	50.3737
798914	50.3787
803526	50.3837
808165	50.3887
812831	50.3936
817523	50.3986
822243	50.4035
826990	50.4084
831764	50.4133
836566	50.4182
841395	50.4231
846253	50.4279
851138	50.4327
856052	50.4375
860994	50.4423
865964	50.4471
870964	50.4518
875992	50.4566
881049	50.4613
886135	50.466
891251	50.4707
896396	50.4754
901571	50.48
906776	50.4846
912011	50.4893
917276	50.4939
922571	50.4984
927897	50.503
933254	50.5076
938642	50.5121
944061	50.5166
949511	50.5211
954993	50.5256
960506	50.53
966051	50.5345
971628	50.5389
977237	50.5433
982879	50.5477
988553	50.5521
994260	50.5564
1e+06	50.5608
1.00577e+06	50.5651
1.01158e+06	50.5694
1.01742e+06	50.5737
1.02329e+06	50.578
1.0292e+06	50.5822
1.03514e+06	50.5864
1.04112e+06	50.5907
1.04713e+06	50.5949
1.05317e+06	50.5991
1.05925e+06	50.6032
1.06537e+06	50.6074
1.07152e+06	50.6115
1.07771e+06	50.6156
1.08393e+06	50.6197
1.09018e+06	50.6238
1.09648e+06	50.6279
1.10281e+06	50.6319
1.10917e+06	50.6359
1.11558e+06	50.64
1.12202e+06	50.6439
1.1285e+06	50.6479
1.13501e+06	50.6519
1.14156e+06	50.6558
1.14815e+06	50.6598
1.15478e+06	50.6637
1.16145e+06	50.6676
1.16815e+06	50.6714
1.1749e+06	50.6753
1.18168e+06	50.6791
1.1885e+06	50.683
1.19536e+06	50.6868
1.20226e+06	50.6906
1.20921e+06	50.6943
1.21619e+06	50.6981
1.22321e+06	50.7018
1.23027e+06	50.7056
1.23737e+06	50.7093
1.24451e+06	50.713
1.2517e+06	50.7167
1.25893e+06	50.7203
1.26619e+06	50.724
1.2735e+06	50.7276
1.28086e+06	50.7312
1.28825e+06	50.7348
1.29569e+06	50.7384
1.30317e+06	50.7419
1.31069e+06	50.7455
1.31826e+06	50.749
1.32587e+06	50.7525
1.33352e+06	50.756
1.34122e+06	50.7595
1.34896e+06	50.7629
1.35675e+06	50.7664
1.36458e+06	50.7698
1.37246e+06	50.7732
1.38038e+06	50.7766
1.38835e+06	50.78
1.39637e+06	50.7833
1.40443e+06	50.7867
1.41254e+06	50.79
1.42069e+06	50.7933
1.42889e+06	50.7966
1.43714e+06	50.7999
1.44544e+06	50.8032
1.45378e+06	50.8064
1.46218e+06	50.8097
1.47062e+06	50.8129
1.47911e+06	50.8161
1.48765e+06	50.8193
1.49624e+06	50.8224
1.50487e+06	50.8256
1.51356e+06	50.8287
1.5223e+06	50.8318
1.53109e+06	50.835
1.53993e+06	50.838
1.54882e+06	50.8411
1.55776e+06	50.8442
1.56675e+06	50.8472
1.5758e+06	50.8502
1.58489e+06	50.8533
1.59404e+06	50.8563
1.60325e+06	50.8592
1.6125e+06	50.8622
1.62181e+06	50.8652
1.63117e+06	50.8681
1.64059e+06	50.871
1.65006e+06	50.8739
1.65959e+06	50.8768
1.66917e+06	50.8797
1.6788e+06	50.8825
1.6885e+06	50.8854
1.69824e+06	50.8882
1.70805e+06	50.891
1.71791e+06	50.8938
1.72783e+06	50.8966
1.7378e+06	50.8994
1.74783e+06	50.9021
1.75792e+06	50.9049
1.76807e+06	50.9076
1.77828e+06	50.9103
1.78855e+06	50.913
1.79887e+06	50.9157
1.80926e+06	50.9183
1.8197e+06	50.921
1.83021e+06	50.9236
1.84077e+06	50.9262
1.8514e+06	50.9288
1.86209e+06	50.9314
1.87284e+06	50.934
1.88365e+06	50.9365
1.89452e+06	50.9391
1.90546e+06	50.9416
1.91646e+06	50.9441
1.92752e+06	50.9466
1.93865e+06	50.9491
1.94984e+06	50.9516
1.9611e+06	50.9541
1.97242e+06	50.9565
1.98381e+06	50.9589
1.99526e+06	50.9614
2.00678e+06	50.9638
2.01837e+06	50.9661
2.03002e+06	50.9685
2.04174e+06	50.9709
2.05353e+06	50.9732
2.06538e+06	50.9756
2.0773e+06	50.9779
2.0893e+06	50.9802
2.10136e+06	50.9825
2.11349e+06	50.9847
2.12569e+06	50.987
2.13796e+06	50.9893
2.1503e+06	50.9915
2.16272e+06	50.9937
2.1752e+06	50.9959
2.18776e+06	50.9981
2.20039e+06	51.0003
2.21309e+06	51.0025
2.22587e+06	51.0046
2.23872e+06	51.0068
2.25165e+06	51.0089
2.26464e+06	51.011
2.27772e+06	51.0131
2.29087e+06	51.0152
2.30409e+06	51.0173
2.31739e+06	51.0193
2.33077e+06	51.0214
2.34423e+06	51.0234
2.35776e+06	51.0254
2.37137e+06	51.0274
2.38506e+06	51.0294
2.39883e+06	51.0314
2.41268e+06	51.0334
2.42661e+06	51.0354
2.44062e+06	51.0373
2.45471e+06	51.0392
2.46888e+06	51.0411
2.48313e+06	51.0431
2.49747e+06	51.0449
2.51189e+06	51.0468
2.52639e+06	51.0487
2.54097e+06	51.0506
2.55564e+06	51.0524
2.5704e+06	51.0542
2.58523e+06	51.056
2.60016e+06	51.0578
2.61517e+06	51.0596
2.63027e+06	51.0614
2.64545e+06	51.0632
2.66073e+06	51.065
2.67609e+06	51.0667
2.69153e+06	51.0684
2.70707e+06	51.0702
2.7227e+06	51.0719
2.73842e+06	51.0736
2.75423e+06	51.0752
2.77013e+06	51.0769
2.78612e+06	51.0786
2.80221e+06	51.0802
2.81838e+06	51.0819
2.83465e+06	51.0835
2.85102e+06	51.0851
2.86748e+06	51.0867
2.88403e+06	51.0883
2.90068e+06	51.0899
2.91743e+06	51.0914
2.93427e+06	51.093
2.95121e+06	51.0945
2.96825e+06	51.0961
2.98538e+06	51.0976
3.00262e+06	51.0991
3.01995e+06	51.1006
3.03739e+06	51.1021
3.05492e+06	51.1036
3.07256e+06	51.105
3.0903e+06	51.1065
3.10814e+06	51.1079
3.12608e+06	51.1094
3.14413e+06	51.1108
3.16228e+06	51.1122
3.18053e+06	51.1136
3.1989e+06	51.115
3.21736e+06	51.1164
3.23594e+06	51.1177
3.25462e+06	51.1191
3.27341e+06	51.1204
3.2923e+06	51.1218
3.31131e+06	51.1231
3.33043e+06	51.1244
3.34965e+06	51.1257
3.36899e+06	51.127
3.38844e+06	51.1283
3.408e+06	51.1296
3.42768e+06	51.1308
3.44747e+06	51.1321
3.46737e+06	51.1333
3.48739e+06	51.1346
3.50752e+06	51.1358
3.52777e+06	51.137
3.54813e+06	51.1382
3.56862e+06	51.1394
3.58922e+06	51.1406
3.60994e+06	51.1418
3.63078e+06	51.1429
3.65174e+06	51.1441
3.67282e+06	51.1452
3.69403e+06	51.1463
3.71535e+06	51.1475
3.7368e+06	51.1486
3.75837e+06	51.1497
3.78007e+06	51.1508
3.80189e+06	51.1519
3.82384e+06	51.1529
3.84592e+06	51.154
3.86812e+06	51.1551
3.89045e+06	51.1561
3.91291e+06	51.1572
3.9355e+06	51.1582
3.95822e+06	51.1592
3.98107e+06	51.1602
4.00405e+06	51.1612
4.02717e+06	51.1622
4.05042e+06	51.1632
4.0738e+06	51.1642
4.09732e+06	51.1651
4.12098e+06	51.1661
4.14477e+06	51.167
4.16869e+06	51.168
4.19276e+06	51.1689
4.21697e+06	51.1698
4.24131e+06	51.1707
4.2658e+06	51.1716
4.29042e+06	51.1725
4.31519e+06	51.1734
4.3401e+06	51.1743
4.36516e+06	51.1752
4.39036e+06	51.176
4.4157e+06	51.1769
4.4412e+06	51.1777
4.46684e+06	51.1786
4.49262e+06	51.1794
4.51856e+06	51.1802
4.54465e+06	51.181
4.57088e+06	51.1818
4.59727e+06	51.1826
4.62381e+06	51.1834
4.6505e+06	51.1842
4.67735e+06	51.185
4.70435e+06	51.1857
4.73151e+06	51.1865
4.75883e+06	51.1872
4.7863e+06	51.188
4.81393e+06	51.1887
4.84172e+06	51.1894
4.86968e+06	51.1901
4.89779e+06	51.1908
4.92606e+06	51.1916
4.9545e+06	51.1922
4.9831e+06	51.1929
5.01187e+06	51.1936
5.04081e+06	51.1943
5.06991e+06	51.1949
5.09918e+06	51.1956
5.12861e+06	51.1963
5.15822e+06	51.1969
5.188e+06	51.1975
5.21795e+06	51.1982
5.24807e+06	51.1988
5.27837e+06	51.1994
5.30884e+06	51.2
5.33949e+06	51.2006
5.37032e+06	51.2012
5.40132e+06	51.2018
5.4325e+06	51.2024
5.46387e+06	51.2029
5.49541e+06	51.2035
5.52713e+06	51.2041
5.55904e+06	51.2046
5.59114e+06	51.2052
5.62341e+06	51.2057
5.65588e+06	51.2062
5.68853e+06	51.2068
5.72137e+06	51.2073
5.7544e+06	51.2078
5.78762e+06	51.2083
5.82103e+06	51.2088
5.85464e+06	51.2093
5.88844e+06	51.2098
5.92243e+06	51.2103
5.95662e+06	51.2108
5.99101e+06	51.2112
6.0256e+06	51.2117
6.06038e+06	51.2122
6.09537e+06	51.2126
6.13056e+06	51.2131
6.16595e+06	51.2135
6.20155e+06	51.2139
6.23735e+06	51.2144
6.27336e+06	51.2148
6.30957e+06	51.2152
6.346e+06	51.2156
6.38263e+06	51.216
6.41948e+06	51.2164
6.45654e+06	51.2168
6.49382e+06	51.2172
6.53131e+06	51.2176
6.56901e+06	51.218
6.60693e+06	51.2183
6.64508e+06	51.2187
6.68344e+06	51.2191
6.72202e+06	51.2194
6.76083e+06	51.2198
6.79986e+06	51.2201
6.83912e+06	51.2205
6.8786e+06	51.2208
6.91831e+06	51.2211
6.95825e+06	51.2215
6.99842e+06	51.2218
7.03882e+06	51.2221
7.07946e+06	51.2224
7.12033e+06	51.2227
7.16143e+06	51.223
7.20278e+06	51.2233
7.24436e+06	51.2236
7.28618e+06	51.2239
7.32825e+06	51.2242
7.37055e+06	51.2245
7.4131e+06	51.2247
7.4559e+06	51.225
7.49894e+06	51.2253
7.54223e+06	51.2255
7.58578e+06	51.2258
7.62957e+06	51.226
7.67361e+06	51.2263
7.71792e+06	51.2265
7.76247e+06	51.2268
7.80728e+06	51.227
7.85236e+06	51.2272
7.89769e+06	51.2275
7.94328e+06	51.2277
7.98914e+06	51.2279
8.03526e+06	51.2281
8.08165e+06	51.2283
8.12831e+06	51.2285
8.17523e+06	51.2287
8.22243e+06	51.2289
8.2699e+06	51.2291
8.31764e+06	51.2293
8.36566e+06	51.2295
8.41395e+06	51.2297
8.46253e+06	51.2299
8.51138e+06	51.2301
8.56052e+06	51.2302
8.60994e+06	51.2304
8.65964e+06	51.2306
8.70964e+06	51.2307
8.75992e+06	51.2309
8.81049e+06	51.231
8.86135e+06	51.2312
8.91251e+06	51.2313
8.96396e+06	51.2315
9.01571e+06	51.2316
9.06776e+06	51.2318
9.12011e+06	51.2319
9.17276e+06	51.232
9.22571e+06	51.2322
9.27897e+06	51.2323
9.33254e+06	51.2324
9.38642e+06	51.2325
9.44061e+06	51.2327
9.49511e+06	51.2328
9.54993e+06	51.2329
9.60506e+06	51.233
9.66051e+06	51.2331
9.71628e+06	51.2332
9.77237e+06	51.2333
9.82879e+06	51.2334
9.88553e+06	51.2335
9.9426e+06	51.2336
1e+07	51.2337
