Stopping power dEdx from Ionisation for Mn55[0.0] Z = 25 in Water, process name: ionIoni
E [MeV]	dEdx [MeV/mm]
0.001	23.5828
0.00100577	23.6512
0.00101158	23.7198
0.00101742	23.7886
0.00102329	23.8575
0.0010292	23.9267
0.00103514	23.9961
0.00104112	24.0656
0.00104713	24.1354
0.00105317	24.2054
0.00105925	24.2756
0.00106537	24.3459
0.00107152	24.4165
0.00107771	24.4873
0.00108393	24.5583
0.00109018	24.6295
0.00109648	24.7009
0.00110281	24.7725
0.00110917	24.8443
0.00111558	24.9163
0.00112202	24.9885
0.0011285	25.061
0.00113501	25.1336
0.00114156	25.2065
0.00114815	25.2795
0.00115478	25.3528
0.00116145	25.4263
0.00116815	25.5
0.0011749	25.5739
0.00118168	25.648
0.0011885	25.7223
0.00119536	25.7969
0.00120226	25.8716
0.00120921	25.9466
0.00121619	26.0218
0.00122321	26.0972
0.00123027	26.1728
0.00123737	26.2487
0.00124451	26.3248
0.0012517	26.401
0.00125893	26.4775
0.00126619	26.5543
0.0012735	26.6312
0.00128086	26.7084
0.00128825	26.7858
0.00129569	26.8634
0.00130317	26.9412
0.00131069	27.0193
0.00131826	27.0976
0.00132587	27.1761
0.00133352	27.2548
0.00134122	27.3338
0.00134896	27.413
0.00135675	27.4924
0.00136458	27.572
0.00137246	27.6519
0.00138038	27.732
0.00138835	27.8124
0.00139637	27.8929
0.00140443	27.9737
0.00141254	28.0548
0.00142069	28.136
0.00142889	28.2175
0.00143714	28.2993
0.00144544	28.3813
0.00145378	28.4635
0.00146218	28.5459
0.00147062	28.6286
0.00147911	28.7115
0.00148765	28.7947
0.00149624	28.8781
0.00150487	28.9617
0.00151356	29.0456
0.0015223	29.1297
0.00153109	29.2141
0.00153993	29.2987
0.00154882	29.3836
0.00155776	29.4687
0.00156675	29.554
0.0015758	29.6396
0.00158489	29.7255
0.00159404	29.8115
0.00160325	29.8979
0.0016125	29.9845
0.00162181	30.0713
0.00163117	30.1584
0.00164059	30.2457
0.00165006	30.3333
0.00165959	30.4211
0.00166917	30.5092
0.0016788	30.5976
0.0016885	30.6862
0.00169824	30.775
0.00170805	30.8641
0.00171791	30.9535
0.00172783	31.0431
0.0017378	31.133
0.00174783	31.2231
0.00175792	31.3135
0.00176807	31.4042
0.00177828	31.4951
0.00178855	31.5863
0.00179887	31.6778
0.00180926	31.7695
0.0018197	31.8615
0.00183021	31.9537
0.00184077	32.0462
0.0018514	32.139
0.00186209	32.232
0.00187284	32.3253
0.00188365	32.4189
0.00189452	32.5128
0.00190546	32.6069
0.00191646	32.7013
0.00192752	32.7959
0.00193865	32.8909
0.00194984	32.9861
0.0019611	33.0816
0.00197242	33.1773
0.00198381	33.2734
0.00199526	33.3697
0.00200678	33.4663
0.00201837	33.5631
0.00203002	33.6603
0.00204174	33.7577
0.00205353	33.8554
0.00206538	33.9534
0.0020773	34.0517
0.0020893	34.1502
0.00210136	34.2491
0.00211349	34.3482
0.00212569	34.4476
0.00213796	34.5473
0.0021503	34.6473
0.00216272	34.7476
0.0021752	34.8481
0.00218776	34.949
0.00220039	35.0501
0.00221309	35.1515
0.00222587	35.2533
0.00223872	35.3553
0.00225165	35.4576
0.00226464	35.5602
0.00227772	35.6631
0.00229087	35.7663
0.00230409	35.8698
0.00231739	35.9736
0.00233077	36.0777
0.00234423	36.1821
0.00235776	36.2868
0.00237137	36.3918
0.00238506	36.4971
0.00239883	36.6027
0.00241268	36.7086
0.00242661	36.8148
0.00244062	36.9213
0.00245471	37.0282
0.00246888	37.1353
0.00248313	37.2427
0.00249747	37.3505
0.00251189	37.4586
0.00252639	37.5669
0.00254097	37.6756
0.00255564	37.7846
0.0025704	37.8939
0.00258523	38.0036
0.00260016	38.1135
0.00261517	38.2238
0.00263027	38.3344
0.00264545	38.4453
0.00266073	38.5565
0.00267609	38.668
0.00269153	38.7799
0.00270707	38.8921
0.0027227	39.0046
0.00273842	39.1174
0.00275423	39.2306
0.00277013	39.344
0.00278612	39.4579
0.00280221	39.572
0.00281838	39.6865
0.00283465	39.8013
0.00285102	39.9164
0.00286748	40.0318
0.00288403	40.1476
0.00290068	40.2638
0.00291743	40.3802
0.00293427	40.497
0.00295121	40.6142
0.00296825	40.7316
0.00298538	40.8494
0.00300262	40.9676
0.00301995	41.0861
0.00303739	41.2049
0.00305492	41.3241
0.00307256	41.4436
0.0030903	41.5635
0.00310814	41.6837
0.00312608	41.8042
0.00314413	41.9251
0.00316228	42.0464
0.00318053	42.168
0.0031989	42.2899
0.00321736	42.4122
0.00323594	42.5349
0.00325462	42.6579
0.00327341	42.7812
0.0032923	42.905
0.00331131	43.029
0.00333043	43.1535
0.00334965	43.2782
0.00336899	43.4034
0.00338844	43.5289
0.003408	43.6548
0.00342768	43.781
0.00344747	43.9076
0.00346737	44.0346
0.00348739	44.1619
0.00350752	44.2896
0.00352777	44.4177
0.00354813	44.5461
0.00356862	44.6749
0.00358922	44.8041
0.00360994	44.9336
0.00363078	45.0636
0.00365174	45.1939
0.00367282	45.3245
0.00369403	45.4556
0.00371535	45.587
0.0037368	45.7188
0.00375837	45.851
0.00378007	45.9835
0.00380189	46.1165
0.00382384	46.2498
0.00384592	46.3835
0.00386812	46.5176
0.00389045	46.6521
0.00391291	46.787
0.0039355	46.9223
0.00395822	47.0579
0.00398107	47.194
0.00400405	47.3304
0.00402717	47.4672
0.00405042	47.6045
0.0040738	47.7421
0.00409732	47.8801
0.00412098	48.0185
0.00414477	48.1573
0.00416869	48.2965
0.00419276	48.4361
0.00421697	48.5762
0.00424131	48.7166
0.0042658	48.8574
0.00429042	48.9986
0.00431519	49.1403
0.0043401	49.2823
0.00436516	49.4248
0.00439036	49.5676
0.0044157	49.7109
0.0044412	49.8546
0.00446684	49.9987
0.00449262	50.1432
0.00451856	50.2882
0.00454465	50.4335
0.00457088	50.5793
0.00459727	50.7255
0.00462381	50.8721
0.0046505	51.0192
0.00467735	51.1666
0.00470435	51.3145
0.00473151	51.4628
0.00475883	51.6116
0.0047863	51.7607
0.00481393	51.9103
0.00484172	52.0604
0.00486968	52.2108
0.00489779	52.3617
0.00492606	52.5131
0.0049545	52.6648
0.0049831	52.817
0.00501187	52.9697
0.00504081	53.1228
0.00506991	53.2763
0.00509918	53.4302
0.00512861	53.5847
0.00515822	53.7395
0.005188	53.8948
0.00521795	54.0506
0.00524807	54.2068
0.00527837	54.3634
0.00530884	54.5205
0.00533949	54.6781
0.00537032	53.5538
0.00540132	53.7085
0.0054325	53.8636
0.00546387	54.0191
0.00549541	54.1751
0.00552713	54.3315
0.00555904	54.4884
0.00559114	54.6458
0.00562341	54.8036
0.00565588	54.9618
0.00568853	55.1205
0.00572137	55.2797
0.0057544	55.4393
0.00578762	55.5994
0.00582103	55.76
0.00585464	55.921
0.00588844	56.0825
0.00592243	56.2445
0.00595662	56.4069
0.00599101	56.5698
0.0060256	56.7331
0.00606038	56.897
0.00609537	57.0613
0.00613056	57.2261
0.00616595	57.3913
0.00620155	57.5571
0.00623735	57.7233
0.00627336	57.89
0.00630957	58.0572
0.006346	58.2249
0.00638263	58.393
0.00641948	58.5617
0.00645654	58.7308
0.00649382	58.9004
0.00653131	59.0705
0.00656901	59.2411
0.00660693	59.4122
0.00664508	59.5838
0.00668344	59.7559
0.00672202	59.9285
0.00676083	60.1015
0.00679986	60.2751
0.00683912	60.4492
0.0068786	60.6238
0.00691831	60.7989
0.00695825	60.9745
0.00699842	61.1506
0.00703882	61.3272
0.00707946	61.5044
0.00712033	61.682
0.00716143	61.8602
0.00720278	62.0389
0.00724436	62.218
0.00728618	62.3978
0.00732825	62.578
0.00737055	62.7587
0.0074131	62.94
0.0074559	63.1218
0.00749894	63.3041
0.00754223	63.487
0.00758578	63.6704
0.00762957	63.8543
0.00767361	64.0387
0.00771792	64.2237
0.00776247	64.4092
0.00780728	64.5953
0.00785236	64.7819
0.00789769	64.969
0.00794328	65.1567
0.00798914	65.3449
0.00803526	65.5337
0.00808165	65.723
0.00812831	65.9128
0.00817523	66.1032
0.00822243	66.2942
0.0082699	66.4857
0.00831764	66.6778
0.00836566	66.8704
0.00841395	67.0636
0.00846253	67.2573
0.00851138	67.4516
0.00856052	67.6465
0.00860994	67.8419
0.00865964	68.0379
0.00870964	68.2344
0.00875992	68.4316
0.00881049	68.6293
0.00886135	68.8275
0.00891251	69.0264
0.00896396	69.2258
0.00901571	69.4258
0.00906776	69.6264
0.00912011	69.8275
0.00917276	70.0293
0.00922571	70.2316
0.00927897	70.4345
0.00933254	70.638
0.00938642	70.8421
0.00944061	71.0468
0.00949511	71.252
0.00954993	71.4579
0.00960506	71.6644
0.00966051	71.8714
0.00971628	72.0791
0.00977237	72.2873
0.00982879	72.4962
0.00988553	72.7057
0.0099426	72.9158
0.01	73.1264
0.0100577	73.3377
0.0101158	73.5496
0.0101742	73.7622
0.0102329	73.9753
0.010292	74.189
0.0103514	74.4034
0.0104112	74.6184
0.0104713	74.834
0.0105317	75.0503
0.0105925	75.2671
0.0106537	75.4846
0.0107152	75.7028
0.0107771	75.9215
0.0108393	76.1409
0.0109018	76.3609
0.0109648	76.5816
0.0110281	76.8029
0.0110917	77.0249
0.0111558	77.2474
0.0112202	77.4707
0.011285	77.6946
0.0113501	77.9191
0.0114156	78.1443
0.0114815	78.3701
0.0115478	78.5966
0.0116145	78.8237
0.0116815	79.0515
0.011749	79.28
0.0118168	79.5091
0.011885	79.7389
0.0119536	79.9693
0.0120226	80.2005
0.0120921	80.4322
0.0121619	80.6647
0.0122321	80.8978
0.0123027	81.1316
0.0123737	81.3661
0.0124451	81.6013
0.012517	81.8372
0.0125893	82.0737
0.0126619	82.3109
0.012735	82.5488
0.0128086	82.7874
0.0128825	83.0267
0.0129569	83.2667
0.0130317	83.5073
0.0131069	83.7487
0.0131826	83.9908
0.0132587	84.2336
0.0133352	84.477
0.0134122	84.7212
0.0134896	84.9661
0.0135675	85.2117
0.0136458	85.458
0.0137246	85.7051
0.0138038	85.9528
0.0138835	86.2013
0.0139637	86.4504
0.0140443	86.7003
0.0141254	86.951
0.0142069	87.2023
0.0142889	87.4544
0.0143714	87.7072
0.0144544	87.9608
0.0145378	88.2151
0.0146218	88.4701
0.0147062	88.7258
0.0147911	88.9823
0.0148765	89.2396
0.0149624	89.4976
0.0150487	89.7563
0.0151356	90.0158
0.015223	90.276
0.0153109	90.537
0.0153993	90.7988
0.0154882	91.0613
0.0155776	91.3246
0.0156675	91.5886
0.015758	91.8534
0.0158489	92.119
0.0159404	92.3853
0.0160325	92.6524
0.016125	92.9203
0.0162181	93.189
0.0163117	93.4584
0.0164059	93.7287
0.0165006	93.9997
0.0165959	94.2715
0.0166917	94.544
0.016788	94.8174
0.016885	95.0916
0.0169824	95.3665
0.0170805	95.6423
0.0171791	95.9189
0.0172783	96.1962
0.017378	96.4744
0.0174783	96.7534
0.0175792	97.0332
0.0176807	97.3137
0.0177828	97.5952
0.0178855	97.8774
0.0179887	98.1604
0.0180926	98.4443
0.018197	98.729
0.0183021	99.0145
0.0184077	99.3008
0.018514	99.588
0.0186209	99.876
0.0187284	100.165
0.0188365	100.455
0.0189452	100.745
0.0190546	101.036
0.0191646	101.329
0.0192752	101.622
0.0193865	101.916
0.0194984	102.21
0.019611	102.506
0.0197242	102.802
0.0198381	103.1
0.0199526	103.398
0.0200678	103.697
0.0201837	103.997
0.0203002	104.298
0.0204174	104.599
0.0205353	104.902
0.0206538	105.205
0.020773	105.51
0.020893	105.815
0.0210136	106.121
0.0211349	106.428
0.0212569	106.736
0.0213796	107.045
0.021503	107.354
0.0216272	107.665
0.021752	107.976
0.0218776	108.289
0.0220039	108.602
0.0221309	108.916
0.0222587	109.231
0.0223872	109.547
0.0225165	109.864
0.0226464	110.182
0.0227772	110.501
0.0229087	110.82
0.0230409	111.141
0.0231739	111.462
0.0233077	111.785
0.0234423	112.108
0.0235776	112.433
0.0237137	112.758
0.0238506	113.084
0.0239883	113.411
0.0241268	113.739
0.0242661	114.069
0.0244062	114.399
0.0245471	114.73
0.0246888	115.062
0.0248313	115.394
0.0249747	115.728
0.0251189	116.063
0.0252639	116.399
0.0254097	116.736
0.0255564	117.074
0.025704	117.412
0.0258523	117.752
0.0260016	118.093
0.0261517	118.435
0.0263027	118.777
0.0264545	119.121
0.0266073	119.466
0.0267609	119.812
0.0269153	120.158
0.0270707	120.506
0.027227	120.855
0.0273842	121.204
0.0275423	121.555
0.0277013	121.907
0.0278612	122.26
0.0280221	122.614
0.0281838	122.969
0.0283465	123.324
0.0285102	123.681
0.0286748	124.039
0.0288403	124.398
0.0290068	124.758
0.0291743	125.12
0.0293427	125.482
0.0295121	125.845
0.0296825	126.209
0.0298538	126.574
0.0300262	126.941
0.0301995	127.308
0.0303739	127.677
0.0305492	128.046
0.0307256	128.417
0.030903	128.789
0.0310814	129.162
0.0312608	129.535
0.0314413	129.91
0.0316228	130.286
0.0318053	130.664
0.031989	131.042
0.0321736	131.421
0.0323594	131.802
0.0325462	132.183
0.0327341	132.566
0.032923	132.95
0.0331131	133.335
0.0333043	133.721
0.0334965	134.108
0.0336899	134.496
0.0338844	134.886
0.03408	135.276
0.0342768	135.668
0.0344747	136.061
0.0346737	136.455
0.0348739	136.85
0.0350752	137.246
0.0352777	137.643
0.0354813	138.042
0.0356862	138.442
0.0358922	138.842
0.0360994	139.245
0.0363078	139.648
0.0365174	140.052
0.0367282	140.458
0.0369403	140.864
0.0371535	141.272
0.037368	141.682
0.0375837	142.092
0.0378007	142.503
0.0380189	142.916
0.0382384	143.33
0.0384592	143.745
0.0386812	144.161
0.0389045	144.579
0.0391291	144.998
0.039355	145.418
0.0395822	145.839
0.0398107	146.261
0.0400405	146.685
0.0402717	147.11
0.0405042	147.536
0.040738	147.963
0.0409732	148.392
0.0412098	148.822
0.0414477	149.253
0.0416869	149.685
0.0419276	150.119
0.0421697	150.553
0.0424131	150.99
0.042658	151.427
0.0429042	151.866
0.0431519	152.306
0.043401	152.747
0.0436516	153.189
0.0439036	153.633
0.044157	154.078
0.044412	154.525
0.0446684	154.972
0.0449262	155.421
0.0451856	155.872
0.0454465	156.323
0.0457088	156.776
0.0459727	157.23
0.0462381	157.686
0.046505	158.143
0.0467735	158.601
0.0470435	159.061
0.0473151	159.521
0.0475883	159.984
0.047863	160.447
0.0481393	160.912
0.0484172	161.379
0.0486968	161.846
0.0489779	162.315
0.0492606	162.786
0.049545	163.257
0.049831	163.73
0.0501187	164.205
0.0504081	164.681
0.0506991	165.158
0.0509918	165.637
0.0512861	166.117
0.0515822	166.598
0.05188	167.081
0.0521795	167.565
0.0524807	168.051
0.0527837	168.538
0.0530884	169.027
0.0533949	169.517
0.0537032	170.008
0.0540132	170.501
0.054325	170.995
0.0546387	171.491
0.0549541	171.988
0.0552713	172.486
0.0555904	172.986
0.0559114	173.488
0.0562341	173.991
0.0565588	174.495
0.0568853	175.001
0.0572137	175.509
0.057544	176.017
0.0578762	176.528
0.0582103	177.039
0.0585464	177.553
0.0588844	178.068
0.0592243	178.584
0.0595662	179.102
0.0599101	179.621
0.060256	180.142
0.0606038	180.664
0.0609537	181.188
0.0613056	181.713
0.0616595	182.24
0.0620155	182.769
0.0623735	183.299
0.0627336	183.83
0.0630957	184.363
0.06346	184.898
0.0638263	185.434
0.0641948	185.972
0.0645654	186.511
0.0649382	187.052
0.0653131	187.595
0.0656901	188.139
0.0660693	188.685
0.0664508	189.232
0.0668344	189.781
0.0672202	190.331
0.0676083	190.883
0.0679986	191.437
0.0683912	191.992
0.068786	192.549
0.0691831	193.108
0.0695825	193.668
0.0699842	194.23
0.0703882	194.793
0.0707946	195.358
0.0712033	195.925
0.0716143	196.493
0.0720278	197.064
0.0724436	197.635
0.0728618	198.209
0.0732825	198.784
0.0737055	199.36
0.074131	199.939
0.074559	200.519
0.0749894	201.101
0.0754223	201.684
0.0758578	202.27
0.0762957	202.856
0.0767361	203.445
0.0771792	204.035
0.0776247	204.628
0.0780728	205.221
0.0785236	205.817
0.0789769	206.414
0.0794328	207.013
0.0798914	207.614
0.0803526	208.217
0.0808165	208.821
0.0812831	209.427
0.0817523	210.035
0.0822243	210.644
0.082699	211.256
0.0831764	211.869
0.0836566	212.484
0.0841395	213.101
0.0846253	213.719
0.0851138	214.34
0.0856052	214.962
0.0860994	215.586
0.0865964	216.212
0.0870964	216.839
0.0875992	217.469
0.0881049	218.1
0.0886135	218.733
0.0891251	219.368
0.0896396	220.005
0.0901571	220.644
0.0906776	221.285
0.0912011	221.927
0.0917276	222.572
0.0922571	223.218
0.0927897	223.866
0.0933254	224.516
0.0938642	225.168
0.0944061	225.822
0.0949511	226.478
0.0954993	227.135
0.0960506	227.795
0.0966051	228.456
0.0971628	229.12
0.0977237	229.785
0.0982879	230.453
0.0988553	231.122
0.099426	231.793
0.1	232.467
0.100577	233.142
0.101158	233.819
0.101742	234.498
0.102329	235.179
0.10292	235.862
0.103514	236.548
0.104112	237.235
0.104713	237.924
0.105317	238.615
0.105925	239.308
0.106537	240.003
0.107152	240.701
0.107771	241.4
0.108393	242.101
0.109018	242.805
0.109648	243.51
0.110281	244.218
0.110917	244.927
0.111558	245.639
0.112202	246.353
0.11285	247.069
0.113501	247.787
0.114156	248.507
0.114815	249.229
0.115478	249.953
0.116145	250.68
0.116815	251.408
0.11749	252.139
0.118168	252.872
0.11885	253.607
0.119536	254.344
0.120226	255.083
0.120921	255.824
0.121619	256.568
0.122321	257.314
0.123027	258.062
0.123737	258.812
0.124451	259.564
0.12517	260.319
0.125893	261.076
0.126619	261.835
0.12735	262.596
0.128086	263.359
0.128825	264.125
0.129569	264.893
0.130317	265.663
0.131069	266.436
0.131826	267.21
0.132587	267.987
0.133352	268.767
0.134122	269.548
0.134896	270.332
0.135675	271.118
0.136458	271.907
0.137246	272.697
0.138038	273.49
0.138835	274.286
0.139637	275.084
0.140443	275.884
0.141254	276.686
0.142069	277.491
0.142889	278.298
0.143714	279.108
0.144544	279.919
0.145378	280.734
0.146218	281.55
0.147062	282.369
0.147911	283.191
0.148765	284.015
0.149624	284.841
0.150487	285.67
0.151356	286.501
0.15223	287.335
0.153109	288.171
0.153993	289.009
0.154882	289.85
0.155776	290.693
0.156675	291.539
0.15758	292.388
0.158489	293.239
0.159404	294.092
0.160325	294.948
0.16125	295.806
0.162181	296.667
0.163117	297.531
0.164059	298.397
0.165006	299.265
0.165959	300.136
0.166917	301.01
0.16788	301.886
0.16885	302.765
0.169824	303.646
0.170805	304.53
0.171791	305.417
0.172783	306.306
0.17378	307.198
0.174783	308.092
0.175792	308.989
0.176807	309.889
0.177828	310.791
0.178855	311.696
0.179887	312.604
0.180926	313.514
0.18197	314.427
0.183021	315.343
0.184077	316.261
0.18514	317.182
0.186209	318.106
0.187284	319.032
0.188365	319.962
0.189452	320.894
0.190546	321.828
0.191646	322.766
0.192752	323.706
0.193865	324.649
0.194984	325.595
0.19611	326.543
0.197242	327.494
0.198381	328.448
0.199526	329.405
0.200678	330.365
0.201837	331.328
0.203002	332.293
0.204174	333.261
0.205353	334.232
0.206538	335.206
0.20773	336.183
0.20893	337.163
0.210136	338.145
0.211349	339.131
0.212569	340.119
0.213796	341.11
0.21503	342.105
0.216272	343.102
0.21752	344.102
0.218776	345.105
0.220039	346.111
0.221309	347.12
0.222587	348.132
0.223872	349.147
0.225165	350.164
0.226464	351.185
0.227772	352.209
0.229087	353.236
0.230409	354.266
0.231739	355.299
0.233077	356.335
0.234423	357.374
0.235776	358.416
0.237137	359.461
0.238506	360.51
0.239883	361.561
0.241268	362.616
0.242661	363.673
0.244062	364.734
0.245471	365.798
0.246888	366.865
0.248313	367.935
0.249747	369.008
0.251189	370.085
0.252639	371.164
0.254097	372.247
0.255564	373.333
0.25704	374.422
0.258523	375.515
0.260016	376.61
0.261517	377.709
0.263027	378.811
0.264545	379.917
0.266073	381.026
0.267609	382.137
0.269153	383.253
0.270707	384.371
0.27227	385.493
0.273842	386.618
0.275423	387.747
0.277013	388.878
0.278612	390.013
0.280221	391.152
0.281838	392.294
0.283465	393.439
0.285102	394.588
0.286748	395.74
0.288403	396.895
0.290068	398.054
0.291743	399.216
0.293427	400.382
0.295121	401.551
0.296825	402.723
0.298538	403.899
0.300262	405.079
0.301995	406.262
0.303739	407.448
0.305492	408.638
0.307256	409.832
0.30903	411.029
0.310814	412.23
0.312608	413.434
0.314413	414.642
0.316228	415.853
0.318053	417.068
0.31989	418.286
0.321736	419.508
0.323594	420.734
0.325462	421.963
0.327341	423.196
0.32923	424.433
0.331131	425.673
0.333043	426.917
0.334965	428.165
0.336899	429.416
0.338844	430.671
0.3408	431.93
0.342768	433.192
0.344747	434.459
0.346737	435.729
0.348739	437.002
0.350752	438.28
0.352777	439.561
0.354813	440.846
0.356862	442.135
0.358922	443.428
0.360994	444.724
0.363078	446.025
0.365174	447.329
0.367282	448.637
0.369403	449.949
0.371535	451.265
0.37368	452.585
0.375837	453.908
0.378007	455.236
0.380189	456.568
0.382384	457.903
0.384592	459.243
0.386812	460.586
0.389045	461.933
0.391291	463.285
0.39355	464.64
0.395822	466
0.398107	467.363
0.400405	468.731
0.402717	470.102
0.405042	471.478
0.40738	472.858
0.409732	474.242
0.412098	475.63
0.414477	477.022
0.416869	478.418
0.419276	479.818
0.421697	481.223
0.424131	482.631
0.42658	484.044
0.429042	485.461
0.431519	486.883
0.43401	488.308
0.436516	489.738
0.439036	491.172
0.44157	492.61
0.44412	494.053
0.446684	495.499
0.449262	496.951
0.451856	498.406
0.454465	499.866
0.457088	501.33
0.459727	502.798
0.462381	504.271
0.46505	505.748
0.467735	507.23
0.470435	508.716
0.473151	510.206
0.475883	511.701
0.47863	513.2
0.481393	514.704
0.484172	516.212
0.486968	517.725
0.489779	519.242
0.492606	520.764
0.49545	522.29
0.49831	523.821
0.501187	525.357
0.504081	526.897
0.506991	528.441
0.509918	529.99
0.512861	531.544
0.515822	533.102
0.5188	534.665
0.521795	536.233
0.524807	537.805
0.527837	539.383
0.530884	540.964
0.533949	542.551
0.537032	544.142
0.540132	545.738
0.54325	547.339
0.546387	548.944
0.549541	550.554
0.552713	552.169
0.555904	553.789
0.559114	555.414
0.562341	557.043
0.565588	558.678
0.568853	560.317
0.572137	561.961
0.57544	563.61
0.578762	565.264
0.582103	566.923
0.585464	568.587
0.588844	570.256
0.592243	571.93
0.595662	573.609
0.599101	575.292
0.60256	576.981
0.606038	578.675
0.609537	580.374
0.613056	582.078
0.616595	583.787
0.620155	585.502
0.623735	587.221
0.627336	588.946
0.630957	590.675
0.6346	592.41
0.638263	594.15
0.641948	595.895
0.645654	597.646
0.649382	599.401
0.653131	601.162
0.656901	602.929
0.660693	604.7
0.664508	606.477
0.668344	608.259
0.672202	610.046
0.676083	611.839
0.679986	613.637
0.683912	615.441
0.68786	617.25
0.691831	619.064
0.695825	620.884
0.699842	622.709
0.703882	624.54
0.707946	626.376
0.712033	628.217
0.716143	630.064
0.720278	631.917
0.724436	633.775
0.728618	635.639
0.732825	637.509
0.737055	639.384
0.74131	641.264
0.74559	643.151
0.749894	645.042
0.754223	646.94
0.758578	648.843
0.762957	650.752
0.767361	652.667
0.771792	654.587
0.776247	656.514
0.780728	658.446
0.785236	660.383
0.789769	662.327
0.794328	664.276
0.798914	666.232
0.803526	668.193
0.808165	670.16
0.812831	672.133
0.817523	674.112
0.822243	676.097
0.82699	678.087
0.831764	680.084
0.836566	682.087
0.841395	684.096
0.846253	686.11
0.851138	688.131
0.856052	690.158
0.860994	692.191
0.865964	694.23
0.870964	696.275
0.875992	698.327
0.881049	700.384
0.886135	702.448
0.891251	704.518
0.896396	706.594
0.901571	708.677
0.906776	710.765
0.912011	712.86
0.917276	714.962
0.922571	717.069
0.927897	719.183
0.933254	721.304
0.938642	723.43
0.944061	725.563
0.949511	727.703
0.954993	729.849
0.960506	732.001
0.966051	734.16
0.971628	736.326
0.977237	738.498
0.982879	740.676
0.988553	742.861
0.99426	745.053
1	747.251
1.00577	749.456
1.01158	751.667
1.01742	753.886
1.02329	756.11
1.0292	758.342
1.03514	760.58
1.04112	762.825
1.04713	765.077
1.05317	767.336
1.05925	769.601
1.06537	771.874
1.07152	774.153
1.07771	776.439
1.08393	778.732
1.09018	781.032
1.09648	783.338
1.10281	785.652
1.10917	787.973
1.11558	790.301
1.12202	792.635
1.1285	794.977
1.13501	797.326
1.14156	799.682
1.14815	802.045
1.15478	804.416
1.16145	806.793
1.16815	809.178
1.1749	811.57
1.18168	813.969
1.1885	816.375
1.19536	818.789
1.20226	821.21
1.20921	823.638
1.21619	826.074
1.22321	828.517
1.23027	830.967
1.23737	833.425
1.24451	835.89
1.2517	838.363
1.25893	840.843
1.26619	843.331
1.2735	845.826
1.28086	848.329
1.28825	850.839
1.29569	853.357
1.30317	855.883
1.31069	858.416
1.31826	860.957
1.32587	863.506
1.33352	866.062
1.34122	868.626
1.34896	871.198
1.35675	873.778
1.36458	876.366
1.37246	878.961
1.38038	881.651
1.38835	884.389
1.39637	887.142
1.40443	889.91
1.41254	892.692
1.42069	895.489
1.42889	898.301
1.43714	901.128
1.44544	903.969
1.45378	906.826
1.46218	909.698
1.47062	912.585
1.47911	915.487
1.48765	918.404
1.49624	921.337
1.50487	924.285
1.51356	927.248
1.5223	930.227
1.53109	933.222
1.53993	936.232
1.54882	939.258
1.55776	942.299
1.56675	945.357
1.5758	948.43
1.58489	951.519
1.59404	954.624
1.60325	957.746
1.6125	960.883
1.62181	964.037
1.63117	967.206
1.64059	970.392
1.65006	973.591
1.65959	976.702
1.66917	979.83
1.6788	982.973
1.6885	986.133
1.69824	989.308
1.70805	992.5
1.71791	995.707
1.72783	998.931
1.7378	1002.17
1.74783	1005.43
1.75792	1008.7
1.76807	1011.99
1.77828	1015.29
1.78855	1018.62
1.79887	1021.95
1.80926	1025.31
1.8197	1028.68
1.83021	1032.07
1.84077	1035.47
1.8514	1038.89
1.86209	1042.33
1.87284	1045.79
1.88365	1049.26
1.89452	1052.75
1.90546	1056.26
1.91646	1059.78
1.92752	1063.32
1.93865	1066.88
1.94984	1070.45
1.9611	1074.04
1.97242	1077.65
1.98381	1081.28
1.99526	1084.92
2.00678	1088.58
2.01837	1092.26
2.03002	1095.96
2.04174	1099.67
2.05353	1103.4
2.06538	1107.15
2.0773	1110.92
2.0893	1114.7
2.10136	1118.5
2.11349	1122.32
2.12569	1126.16
2.13796	1130.01
2.1503	1133.88
2.16272	1137.77
2.1752	1141.68
2.18776	1145.61
2.20039	1149.55
2.21309	1153.48
2.22587	1157.43
2.23872	1161.4
2.25165	1165.38
2.26464	1169.39
2.27772	1173.41
2.29087	1177.45
2.30409	1181.51
2.31739	1185.59
2.33077	1189.68
2.34423	1193.8
2.35776	1197.93
2.37137	1202.08
2.38506	1206.25
2.39883	1210.44
2.41268	1214.65
2.42661	1218.88
2.44062	1223.12
2.45471	1227.39
2.46888	1231.67
2.48313	1235.98
2.49747	1240.31
2.51189	1244.65
2.52639	1249.02
2.54097	1253.4
2.55564	1257.81
2.5704	1262.23
2.58523	1266.68
2.60016	1271.14
2.61517	1275.63
2.63027	1280.14
2.64545	1284.67
2.66073	1289.22
2.67609	1293.79
2.69153	1298.38
2.70707	1303
2.7227	1307.63
2.73842	1312.29
2.75423	1316.97
2.77013	1321.67
2.78612	1326.39
2.80221	1331.14
2.81838	1335.9
2.83465	1340.69
2.85102	1345.5
2.86748	1350.34
2.88403	1355.19
2.90068	1360.07
2.91743	1364.97
2.93427	1369.9
2.95121	1374.84
2.96825	1379.81
2.98538	1384.8
3.00262	1389.82
3.01995	1394.86
3.03739	1399.92
3.05492	1405
3.07256	1410.11
3.0903	1415.24
3.10814	1420.39
3.12608	1425.57
3.14413	1430.76
3.16228	1435.99
3.18053	1441.23
3.1989	1446.5
3.21736	1451.79
3.23594	1457.11
3.25462	1462.45
3.27341	1467.81
3.2923	1473.2
3.31131	1478.61
3.33043	1484.04
3.34965	1489.5
3.36899	1494.98
3.38844	1500.48
3.408	1506.01
3.42768	1511.56
3.44747	1517.14
3.46737	1522.74
3.48739	1528.36
3.50752	1534.01
3.52777	1539.68
3.54813	1545.37
3.56862	1551.09
3.58922	1556.84
3.60994	1562.6
3.63078	1568.4
3.65174	1574.21
3.67282	1580.05
3.69403	1585.92
3.71535	1591.8
3.7368	1597.72
3.75837	1603.65
3.78007	1609.62
3.80189	1615.6
3.82384	1621.61
3.84592	1627.65
3.86812	1633.7
3.89045	1639.79
3.91291	1645.9
3.9355	1652.03
3.95822	1658.18
3.98107	1664.36
4.00405	1670.57
4.02717	1676.8
4.05042	1683.05
4.0738	1689.33
4.09732	1695.63
4.12098	1701.96
4.14477	1708.31
4.16869	1714.68
4.19276	1721.08
4.21697	1727.5
4.24131	1733.95
4.2658	1740.42
4.29042	1746.92
4.31519	1753.44
4.3401	1759.98
4.36516	1766.55
4.39036	1773.14
4.4157	1779.75
4.4412	1786.39
4.46684	1793.06
4.49262	1799.74
4.51856	1806.45
4.54465	1813.19
4.57088	1819.94
4.59727	1826.72
4.62381	1833.53
4.6505	1840.35
4.67735	1847.21
4.70435	1854.08
4.73151	1860.98
4.75883	1867.9
4.7863	1874.84
4.81393	1881.81
4.84172	1888.8
4.86968	1895.81
4.89779	1902.85
4.92606	1909.9
4.9545	1916.98
4.9831	1924.09
5.01187	1931.21
5.04081	1938.36
5.06991	1945.53
5.09918	1952.72
5.12861	1959.94
5.15822	1967.17
5.188	1974.43
5.21795	1981.71
5.24807	1989.01
5.27837	1996.34
5.30884	2003.68
5.33949	2011.05
5.37032	2018.44
5.40132	2025.84
5.4325	2033.27
5.46387	2040.73
5.49541	2048.2
5.52713	2055.69
5.55904	2063.21
5.59114	2070.75
5.62341	2078.31
5.65588	2085.89
5.68853	2093.48
5.72137	2101.1
5.7544	2108.74
5.78762	2116.4
5.82103	2124.08
5.85464	2131.78
5.88844	2139.5
5.92243	2147.23
5.95662	2154.99
5.99101	2162.77
6.0256	2170.56
6.06038	2178.38
6.09537	2186.21
6.13056	2194.06
6.16595	2201.93
6.20155	2209.82
6.23735	2217.73
6.27336	2225.66
6.30957	2233.6
6.346	2241.57
6.38263	2249.55
6.41948	2257.54
6.45654	2265.56
6.49382	2273.59
6.53131	2281.64
6.56901	2289.71
6.60693	2297.8
6.64508	2305.9
6.68344	2314.02
6.72202	2322.15
6.76083	2330.3
6.79986	2338.47
6.83912	2346.65
6.8786	2354.85
6.91831	2363.07
6.95825	2371.3
6.99842	2379.54
7.03882	2387.8
7.07946	2396.08
7.12033	2404.37
7.16143	2412.68
7.20278	2421
7.24436	2429.33
7.28618	2437.68
7.32825	2446.04
7.37055	2454.42
7.4131	2462.81
7.4559	2471.21
7.49894	2479.63
7.54223	2488.06
7.58578	2496.5
7.62957	2504.96
7.67361	2513.42
7.71792	2521.9
7.76247	2530.4
7.80728	2538.9
7.85236	2547.41
7.89769	2555.94
7.94328	2564.48
7.98914	2573.03
8.03526	2581.59
8.08165	2590.16
8.12831	2598.74
8.17523	2607.33
8.22243	2615.93
8.2699	2624.51
8.31764	2633.06
8.36566	2641.62
8.41395	2650.19
8.46253	2658.77
8.51138	2667.36
8.56052	2675.95
8.60994	2684.55
8.65964	2693.16
8.70964	2701.77
8.75992	2710.39
8.81049	2719.01
8.86135	2727.64
8.91251	2736.28
8.96396	2744.91
9.01571	2753.55
9.06776	2762.2
9.12011	2770.84
9.17276	2779.49
9.22571	2788.14
9.27897	2796.8
9.33254	2805.45
9.38642	2814.1
9.44061	2822.75
9.49511	2831.41
9.54993	2840.06
9.60506	2848.71
9.66051	2857.36
9.71628	2866
9.77237	2874.65
9.82879	2883.28
9.88553	2891.92
9.9426	2900.55
10	2909.18
10.0577	2917.8
10.1158	2926.41
10.1742	2935.02
10.2329	2943.61
10.292	2952.21
10.3514	2960.79
10.4112	2969.36
10.4713	2977.93
10.5317	2986.48
10.5925	2995.02
10.6537	3003.55
10.7152	3012.07
10.7771	3020.58
10.8393	3029.07
10.9018	3037.55
10.9648	3046.01
11.0281	3054.48
11.0917	3062.93
11.1558	3071.38
11.2202	3079.8
11.285	3088.21
11.3501	3096.6
11.4156	3104.98
11.4815	3113.33
11.5478	3121.67
11.6145	3129.99
11.6815	3138.28
11.749	3146.56
11.8168	3154.82
11.885	3163.05
11.9536	3171.27
12.0226	3179.46
12.0921	3187.63
12.1619	3195.77
12.2321	3203.9
12.3027	3212
12.3737	3220.07
12.4451	3228.13
12.517	3236.15
12.5893	3244.15
12.6619	3252.13
12.735	3260.08
12.8086	3268
12.8825	3275.9
12.9569	3283.77
13.0317	3291.61
13.1069	3299.43
13.1826	3307.22
13.2587	3314.97
13.3352	3322.7
13.4122	3330.4
13.4896	3338.08
13.5675	3345.72
13.6458	3353.33
13.7246	3360.91
13.8038	3368.46
13.8835	3375.99
13.9637	3383.48
14.0443	3390.94
14.1254	3398.37
14.2069	3405.76
14.2889	3413.13
14.3714	3420.46
14.4544	3427.75
14.5378	3435.01
14.6218	3442.24
14.7062	3449.44
14.7911	3456.59
14.8765	3463.72
14.9624	3470.8
15.0487	3477.86
15.1356	3484.87
15.223	3491.85
15.3109	3498.79
15.3993	3505.7
15.4882	3512.57
15.5776	3519.4
15.6675	3526.19
15.758	3532.94
15.8489	3539.66
15.9404	3546.34
16.0325	3552.98
16.125	3559.58
16.2181	3566.14
16.3117	3572.66
16.4059	3579.15
16.5006	3585.6
16.5959	3592.02
16.6917	3598.4
16.788	3604.74
16.885	3611.05
16.9824	3617.31
17.0805	3623.53
17.1791	3629.71
17.2783	3635.85
17.378	3641.95
17.4783	3648.01
17.5792	3654.02
17.6807	3659.99
17.7828	3665.92
17.8855	3671.81
17.9887	3677.65
18.0926	3683.45
18.197	3689.2
18.3021	3694.92
18.4077	3700.59
18.514	3706.21
18.6209	3711.79
18.7284	3717.33
18.8365	3722.82
18.9452	3728.27
19.0546	3733.67
19.1646	3739.03
19.2752	3744.34
19.3865	3749.61
19.4984	3754.84
19.611	3760.02
19.7242	3765.16
19.8381	3770.26
19.9526	3775.31
20.0678	3780.32
20.1837	3785.28
20.3002	3790.2
20.4174	3795.08
20.5353	3799.92
20.6538	3804.71
20.773	3809.47
20.893	3814.18
21.0136	3818.85
21.1349	3823.48
21.2569	3828.08
21.3796	3832.63
21.503	3837.15
21.6272	3841.63
21.752	3846.07
21.8776	3850.48
22.0039	3854.84
22.1309	3859.13
22.2587	3863.38
22.3872	3867.59
22.5165	3871.77
22.6464	3875.91
22.7772	3880.02
22.9087	3884.09
23.0409	3888.12
23.1739	3892.12
23.3077	3896.08
23.4423	3900
23.5776	3903.89
23.7137	3907.74
23.8506	3911.55
23.9883	3915.32
24.1268	3919.05
24.2661	3922.75
24.4062	3926.41
24.5471	3930.03
24.6888	3933.61
24.8313	3937.15
24.9747	3940.65
25.1189	3944.11
25.2639	3947.54
25.4097	3950.93
25.5564	3954.27
25.704	3957.58
25.8523	3960.85
26.0016	3964.08
26.1517	3967.28
26.3027	3970.43
26.4545	3973.55
26.6073	3976.62
26.7609	3979.66
26.9153	3982.67
27.0707	3985.63
27.227	3988.56
27.3842	3991.45
27.5423	3994.3
27.7013	3997.13
27.8612	3999.92
28.0221	4002.68
28.1838	4005.4
28.3465	4008.08
28.5102	4010.72
28.6748	4013.33
28.8403	4015.9
29.0068	4018.43
29.1743	4020.92
29.3427	4023.38
29.5121	4025.8
29.6825	4028.18
29.8538	4030.53
30.0262	4032.83
30.1995	4035.1
30.3739	4037.34
30.5492	4039.53
30.7256	4041.69
30.903	4043.81
31.0814	4045.89
31.2608	4047.94
31.4413	4049.95
31.6228	4051.93
31.8053	4053.87
31.989	4055.77
32.1736	4057.64
32.3594	4059.47
32.5462	4061.27
32.7341	4063.03
32.923	4064.76
33.1131	4066.46
33.3043	4068.12
33.4965	4069.75
33.6899	4071.35
33.8844	4072.91
34.08	4074.44
34.2768	4075.94
34.4747	4077.4
34.6737	4078.83
34.8739	4080.23
35.0752	4081.59
35.2777	4082.91
35.4813	4084.21
35.6862	4085.46
35.8922	4086.69
36.0994	4087.88
36.3078	4089.04
36.5174	4090.16
36.7282	4091.25
36.9403	4092.31
37.1535	4093.34
37.368	4094.33
37.5837	4095.29
37.8007	4096.21
38.0189	4097.11
38.2384	4097.97
38.4592	4098.8
38.6812	4099.6
38.9045	4100.37
39.1291	4101.1
39.355	4101.81
39.5822	4102.48
39.8107	4103.12
40.0405	4103.73
40.2717	4104.31
40.5042	4104.85
40.738	4105.37
40.9732	4105.85
41.2098	4106.3
41.4477	4106.72
41.6869	4107.1
41.9276	4107.46
42.1697	4107.78
42.4131	4108.07
42.658	4108.33
42.9042	4108.56
43.1519	4108.76
43.401	4108.93
43.6516	4109.07
43.9036	4109.17
44.157	4109.25
44.412	4109.29
44.6684	4109.31
44.9262	4109.29
45.1856	4109.25
45.4465	4109.17
45.7088	4109.06
45.9727	4108.93
46.2381	4108.76
46.505	4108.56
46.7735	4108.33
47.0435	4108.08
47.3151	4107.79
47.5883	4107.47
47.863	4107.12
48.1393	4106.74
48.4172	4106.33
48.6968	4105.9
48.9779	4105.43
49.2606	4104.93
49.545	4104.41
49.831	4103.85
50.1187	4103.27
50.4081	4102.66
50.6991	4102.01
50.9918	4101.34
51.2861	4100.65
51.5822	4099.92
51.88	4099.17
52.1795	4098.38
52.4807	4097.57
52.7837	4096.74
53.0884	4095.87
53.3949	4094.98
53.7032	4094.06
54.0132	4093.12
54.325	4092.15
54.6387	4091.15
54.9541	4090.13
55.2713	4089.09
55.5904	4088.02
55.9114	4086.93
56.2341	4085.81
56.5588	4084.66
56.8853	4083.49
57.2137	4082.3
57.544	4081.07
57.8762	4079.83
58.2103	4078.55
58.5464	4077.25
58.8844	4075.93
59.2243	4074.57
59.5662	4073.19
59.9101	4071.79
60.256	4070.35
60.6038	4068.89
60.9537	4067.41
61.3056	4065.89
61.6595	4064.35
62.0155	4062.78
62.3735	4061.18
62.7336	4059.56
63.0957	4057.91
63.46	4056.23
63.8263	4054.52
64.1948	4052.79
64.5654	4051.03
64.9382	4049.24
65.3131	4047.42
65.6901	4045.58
66.0693	4043.7
66.4508	4041.8
66.8344	4039.87
67.2202	4037.92
67.6083	4035.93
67.9986	4033.92
68.3912	4031.88
68.786	4029.81
69.1831	4027.72
69.5825	4025.6
69.9842	4023.45
70.3882	4021.27
70.7946	4019.07
71.2033	4016.83
71.6143	4014.58
72.0278	4012.29
72.4436	4009.98
72.8618	4007.64
73.2825	4005.27
73.7055	4002.88
74.131	4000.46
74.559	3998.02
74.9894	3995.55
75.4223	3993.05
75.8578	3990.53
76.2957	3987.99
76.7361	3985.41
77.1792	3982.82
77.6247	3980.2
78.0728	3977.56
78.5236	3974.89
78.9769	3972.2
79.4328	3969.49
79.8914	3966.75
80.3526	3964
80.8165	3961.22
81.2831	3958.42
81.7523	3955.6
82.2243	3952.76
82.699	3949.89
83.1764	3946.98
83.6566	3944.06
84.1395	3941.12
84.6253	3938.16
85.1138	3935.18
85.6052	3932.18
86.0994	3929.16
86.5964	3926.12
87.0964	3923.06
87.5992	3919.98
88.1049	3916.88
88.6135	3913.76
89.1251	3910.62
89.6396	3907.46
90.1571	3904.28
90.6776	3901.08
91.2011	3897.86
91.7276	3894.62
92.2571	3891.35
92.7897	3888.07
93.3254	3884.77
93.8642	3881.45
94.4061	3878.1
94.9511	3874.74
95.4993	3871.35
96.0506	3867.95
96.6051	3864.52
97.1628	3861.07
97.7237	3857.61
98.2879	3854.12
98.8553	3850.61
99.426	3847.08
100	3843.53
100.577	3839.96
101.158	3836.37
101.742	3832.75
102.329	3829.12
102.92	3825.47
103.514	3821.79
104.112	3818.1
104.713	3814.38
105.317	3810.64
105.925	3806.88
106.537	3803.11
107.152	3799.31
107.771	3795.49
108.393	3791.65
109.018	3787.78
109.648	3783.9
110.281	3780
110.917	3776.07
111.558	3772.12
112.202	3768.15
112.85	3764.16
113.501	3760.15
114.156	3756.12
114.815	3752.07
115.478	3747.99
116.145	3743.9
116.815	3739.79
117.49	3735.66
118.168	3731.5
118.85	3727.33
119.536	3723.14
120.226	3718.92
120.921	3714.69
121.619	3710.44
122.321	3706.16
123.027	3701.87
123.737	3697.56
124.451	3693.22
125.17	3688.87
125.893	3684.5
126.619	3680.11
127.35	3675.7
128.086	3671.27
128.825	3666.82
129.569	3662.36
130.317	3657.87
131.069	3653.37
131.826	3648.84
132.587	3644.3
133.352	3639.74
134.122	3635.17
134.896	3630.57
135.675	3625.96
136.458	3621.33
137.246	3616.68
138.038	3612.01
138.835	3607.33
139.637	3602.62
140.443	3597.91
141.254	3593.17
142.069	3588.42
142.889	3583.65
143.714	3578.86
144.544	3574.06
145.378	3569.24
146.218	3564.4
147.062	3559.55
147.911	3554.68
148.765	3549.79
149.624	3544.89
150.487	3539.97
151.356	3535.03
152.23	3530.08
153.109	3525.11
153.993	3520.13
154.882	3515.13
155.776	3510.11
156.675	3505.08
157.58	3500.03
158.489	3494.97
159.404	3489.89
160.325	3484.8
161.25	3479.69
162.181	3474.57
163.117	3469.43
164.059	3464.27
165.006	3459.1
165.959	3453.91
166.917	3448.71
167.88	3443.49
168.85	3438.26
169.824	3433.01
170.805	3427.75
171.791	3422.47
172.783	3417.18
173.78	3411.88
174.783	3406.56
175.792	3401.22
176.807	3395.88
177.828	3390.51
178.855	3385.14
179.887	3379.75
180.926	3374.35
181.97	3368.93
183.021	3363.5
184.077	3358.05
185.14	3352.6
186.209	3347.12
187.284	3341.64
188.365	3336.14
189.452	3330.63
190.546	3325.11
191.646	3319.57
192.752	3314.02
193.865	3308.45
194.984	3302.88
196.11	3297.28
197.242	3291.68
198.381	3286.07
199.526	3280.44
200.678	3274.79
201.837	3269.14
203.002	3263.47
204.174	3257.79
205.353	3252.1
206.538	3246.39
207.73	3240.67
208.93	3234.94
210.136	3229.2
211.349	3223.44
212.569	3217.67
213.796	3211.89
215.03	3206.09
216.272	3200.29
217.52	3194.46
218.776	3188.63
220.039	3182.79
221.309	3176.95
222.587	3171.1
223.872	3165.23
225.165	3159.36
226.464	3153.47
227.772	3147.57
229.087	3141.66
230.409	3135.74
231.739	3129.8
233.077	3123.85
234.423	3117.9
235.776	3111.93
237.137	3105.95
238.506	3099.96
239.883	3093.95
241.268	3087.94
242.661	3081.92
244.062	3075.89
245.471	3069.85
246.888	3063.79
248.313	3057.73
249.747	3051.66
251.189	3045.58
252.639	3039.49
254.097	3033.39
255.564	3027.28
257.04	3021.16
258.523	3015.04
260.016	3008.9
261.517	3002.76
263.027	2996.61
264.545	2990.45
266.073	2984.29
267.609	2978.11
269.153	2971.93
270.707	2965.74
272.27	2959.54
273.842	2953.34
275.423	2947.13
277.013	2940.9
278.612	2934.67
280.221	2928.43
281.838	2922.18
283.465	2915.93
285.102	2909.67
286.748	2903.4
288.403	2897.13
290.068	2890.85
291.743	2884.57
293.427	2878.28
295.121	2871.98
296.825	2865.68
298.538	2859.38
300.262	2853.06
301.995	2846.75
303.739	2840.43
305.492	2834.1
307.256	2827.77
309.03	2821.43
310.814	2815.09
312.608	2808.74
314.413	2802.39
316.228	2796.03
318.053	2789.67
319.89	2783.31
321.736	2776.93
323.594	2770.56
325.462	2764.18
327.341	2757.79
329.23	2751.4
331.131	2745.01
333.043	2738.61
334.965	2732.2
336.899	2725.8
338.844	2719.38
340.8	2712.96
342.768	2706.54
344.747	2700.12
346.737	2693.69
348.739	2687.25
350.752	2680.82
352.777	2674.38
354.813	2667.94
356.862	2661.49
358.922	2655.04
360.994	2648.59
363.078	2642.13
365.174	2635.67
367.282	2629.21
369.403	2622.75
371.535	2616.28
373.68	2609.82
375.837	2603.35
378.007	2596.87
380.189	2590.4
382.384	2583.92
384.592	2577.44
386.812	2570.95
389.045	2564.47
391.291	2557.98
393.55	2551.49
395.822	2545
398.107	2538.5
400.405	2532.01
402.717	2525.51
405.042	2519.01
407.38	2512.51
409.732	2506.01
412.098	2499.51
414.477	2493
416.869	2486.5
419.276	2479.99
421.697	2473.49
424.131	2466.98
426.58	2460.47
429.042	2453.96
431.519	2447.45
434.01	2440.94
436.516	2434.43
439.036	2427.92
441.57	2421.41
444.12	2414.9
446.684	2408.38
449.262	2401.87
451.856	2395.35
454.465	2388.84
457.088	2382.33
459.727	2375.81
462.381	2369.3
465.05	2362.79
467.735	2356.28
470.435	2349.77
473.151	2343.27
475.883	2336.76
478.63	2330.26
481.393	2323.76
484.172	2317.26
486.968	2310.76
489.779	2304.27
492.606	2297.78
495.45	2291.29
498.31	2284.8
501.187	2278.32
504.081	2271.84
506.991	2265.37
509.918	2258.89
512.861	2252.42
515.822	2245.95
518.8	2239.49
521.795	2233.03
524.807	2226.57
527.837	2220.11
530.884	2213.66
533.949	2207.21
537.032	2200.76
540.132	2194.31
543.25	2187.87
546.387	2181.42
549.541	2174.98
552.713	2168.53
555.904	2162.08
559.114	2155.64
562.341	2149.19
565.588	2142.75
568.853	2136.31
572.137	2129.87
575.44	2123.44
578.762	2117.01
582.103	2110.58
585.464	2104.16
588.844	2097.74
592.243	2091.33
595.662	2084.92
599.101	2078.52
602.56	2072.12
606.038	2065.73
609.537	2059.34
613.056	2052.96
616.595	2046.59
620.155	2040.22
623.735	2033.86
627.336	2027.51
630.957	2021.17
634.6	2014.83
638.263	2008.5
641.948	2002.18
645.654	1995.86
649.382	1989.55
653.131	1983.26
656.901	1976.97
660.693	1970.69
664.508	1964.41
668.344	1958.15
672.202	1951.9
676.083	1945.65
679.986	1939.42
683.912	1933.19
687.86	1926.97
691.831	1920.76
695.825	1914.57
699.842	1908.38
703.882	1902.2
707.946	1896.03
712.033	1889.87
716.143	1883.71
720.278	1877.57
724.436	1871.44
728.618	1865.32
732.825	1859.2
737.055	1853.1
741.31	1847
745.59	1840.91
749.894	1834.83
754.223	1828.76
758.578	1822.69
762.957	1816.64
767.361	1810.59
771.792	1804.55
776.247	1798.51
780.728	1792.48
785.236	1786.46
789.769	1780.44
794.328	1774.43
798.914	1768.42
803.526	1762.42
808.165	1756.42
812.831	1750.43
817.523	1744.43
822.243	1738.44
826.99	1732.51
831.764	1726.65
836.566	1720.79
841.395	1714.93
846.253	1709.08
851.138	1703.23
856.052	1697.39
860.994	1691.54
865.964	1685.71
870.964	1679.87
875.992	1674.04
881.049	1668.22
886.135	1662.4
891.251	1656.58
896.396	1650.78
901.571	1644.97
906.776	1639.18
912.011	1633.39
917.276	1627.61
922.571	1621.84
927.897	1616.07
933.254	1610.31
938.642	1604.56
944.061	1598.82
949.511	1593.09
954.993	1587.36
960.506	1581.65
966.051	1575.95
971.628	1570.25
977.237	1564.57
982.879	1558.89
988.553	1553.23
994.26	1547.58
1000	1541.94
1005.77	1536.31
1011.58	1530.69
1017.42	1525.08
1023.29	1519.49
1029.2	1513.9
1035.14	1508.33
1041.12	1502.78
1047.13	1497.23
1053.17	1491.7
1059.25	1486.18
1065.37	1480.68
1071.52	1475.19
1077.71	1469.71
1083.93	1464.24
1090.18	1458.79
1096.48	1453.35
1102.81	1447.92
1109.17	1442.48
1115.58	1437.06
1122.02	1431.65
1128.5	1426.26
1135.01	1420.88
1141.56	1415.51
1148.15	1410.16
1154.78	1404.83
1161.45	1399.51
1168.15	1394.2
1174.9	1388.91
1181.68	1383.64
1188.5	1378.38
1195.36	1373.14
1202.26	1367.91
1209.21	1362.7
1216.19	1357.5
1223.21	1352.32
1230.27	1347.16
1237.37	1342.01
1244.51	1336.87
1251.7	1331.76
1258.93	1326.65
1266.19	1321.57
1273.5	1316.49
1280.86	1311.44
1288.25	1306.4
1295.69	1301.37
1303.17	1296.36
1310.69	1291.36
1318.26	1286.37
1325.87	1281.4
1333.52	1276.44
1341.22	1271.5
1348.96	1266.57
1356.75	1261.65
1364.58	1256.74
1372.46	1251.85
1380.38	1246.96
1388.35	1242.09
1396.37	1237.22
1404.43	1232.37
1412.54	1227.53
1420.69	1222.7
1428.89	1217.89
1437.14	1213.08
1445.44	1208.29
1453.78	1203.51
1462.18	1198.75
1470.62	1193.99
1479.11	1189.25
1487.65	1184.53
1496.24	1179.81
1504.87	1175.11
1513.56	1170.42
1522.3	1165.75
1531.09	1161.09
1539.93	1156.44
1548.82	1151.81
1557.76	1147.19
1566.75	1142.59
1575.8	1138
1584.89	1133.42
1594.04	1128.86
1603.25	1124.31
1612.5	1119.77
1621.81	1115.25
1631.17	1110.74
1640.59	1106.25
1650.06	1101.77
1659.59	1097.29
1669.17	1092.83
1678.8	1088.38
1688.5	1083.95
1698.24	1079.53
1708.05	1075.12
1717.91	1070.73
1727.83	1066.35
1737.8	1061.99
1747.83	1057.64
1757.92	1053.31
1768.07	1048.99
1778.28	1044.69
1788.55	1040.4
1798.87	1036.13
1809.26	1031.88
1819.7	1027.64
1830.21	1023.41
1840.77	1019.21
1851.4	1015.01
1862.09	1010.84
1872.84	1006.68
1883.65	1002.54
1894.52	998.408
1905.46	994.297
1916.46	990.201
1927.52	986.122
1938.65	982.058
1949.84	978.01
1961.1	973.978
1972.42	969.962
1983.81	965.962
1995.26	961.976
2006.78	958.006
2018.37	954.052
2030.02	950.112
2041.74	946.186
2053.53	942.276
2065.38	938.379
2077.3	934.497
2089.3	930.628
2101.36	926.773
2113.49	922.931
2125.69	919.102
2137.96	915.284
2150.3	911.479
2162.72	907.686
2175.2	903.903
2187.76	900.131
2200.39	896.371
2213.09	892.65
2225.87	888.938
2238.72	885.237
2251.65	881.546
2264.64	877.866
2277.72	874.196
2290.87	870.537
2304.09	866.89
2317.39	863.253
2330.77	859.628
2344.23	856.015
2357.76	852.413
2371.37	848.824
2385.06	845.246
2398.83	841.68
2412.68	838.127
2426.61	834.587
2440.62	831.059
2454.71	827.543
2468.88	824.041
2483.13	820.551
2497.47	817.075
2511.89	813.611
2526.39	810.161
2540.97	806.725
2555.64	803.301
2570.4	799.891
2585.23	796.495
2600.16	793.112
2615.17	789.743
2630.27	786.388
2645.45	783.046
2660.73	779.718
2676.09	776.403
2691.53	773.102
2707.07	769.815
2722.7	766.542
2738.42	763.282
2754.23	760.033
2770.13	756.793
2786.12	753.566
2802.21	750.353
2818.38	747.153
2834.65	743.968
2851.02	740.796
2867.48	737.638
2884.03	734.494
2900.68	731.363
2917.43	728.247
2934.27	725.144
2951.21	722.055
2968.25	718.981
2985.38	715.92
3002.62	712.872
3019.95	709.839
3037.39	706.819
3054.92	703.813
3072.56	700.82
3090.3	697.841
3108.14	694.875
3126.08	691.922
3144.13	688.982
3162.28	686.055
3180.53	683.141
3198.9	680.239
3217.36	677.35
3235.94	674.473
3254.62	671.607
3273.41	668.753
3292.3	665.911
3311.31	663.079
3330.43	660.258
3349.65	657.448
3368.99	654.649
3388.44	651.862
3408	649.085
3427.68	646.32
3447.47	643.567
3467.37	640.825
3487.39	638.095
3507.52	635.376
3527.77	632.668
3548.13	629.973
3568.62	627.289
3589.22	624.617
3609.94	621.956
3630.78	619.307
3651.74	616.67
3672.82	614.044
3694.03	611.43
3715.35	608.827
3736.8	606.236
3758.37	603.657
3780.07	601.089
3801.89	598.532
3823.84	595.986
3845.92	593.452
3868.12	590.928
3890.45	588.416
3912.91	585.914
3935.5	583.424
3958.22	580.944
3981.07	578.476
4004.05	576.019
4027.17	573.574
4050.42	571.139
4073.8	568.715
4097.32	566.303
4120.98	563.902
4144.77	561.512
4168.69	559.133
4192.76	556.764
4216.97	554.407
4241.31	552.061
4265.8	549.725
4290.42	547.4
4315.19	545.086
4340.1	542.782
4365.16	540.489
4390.36	538.205
4415.7	535.932
4441.2	533.669
4466.84	531.416
4492.62	529.173
4518.56	526.94
4544.65	524.718
4570.88	522.506
4597.27	520.304
4623.81	518.112
4650.5	515.93
4677.35	513.759
4704.35	511.598
4731.51	509.448
4758.83	507.307
4786.3	505.177
4813.93	503.057
4841.72	500.947
4869.68	498.847
4897.79	496.757
4926.06	494.677
4954.5	492.607
4983.1	490.547
5011.87	488.496
5040.81	486.455
5069.91	484.424
5099.18	482.402
5128.61	480.39
5158.22	478.387
5188	476.393
5217.95	474.409
5248.07	472.433
5278.37	470.467
5308.84	468.478
5339.49	466.383
5370.32	464.298
5401.32	462.223
5432.5	460.157
5463.87	458.101
5495.41	456.054
5527.13	454.012
5559.04	451.978
5591.14	449.954
5623.41	447.939
5655.88	445.933
5688.53	443.936
5721.37	441.949
5754.4	439.971
5787.62	438.003
5821.03	436.044
5854.64	434.095
5888.44	432.156
5922.43	430.227
5956.62	428.308
5991.01	426.398
6025.6	424.499
6060.38	422.61
6095.37	420.73
6130.56	418.862
6165.95	417.003
6201.55	415.155
6237.35	413.317
6273.36	411.489
6309.57	409.672
6346	407.865
6382.63	406.069
6419.48	404.283
6456.54	402.508
6493.82	400.743
6531.31	398.989
6569.01	397.245
6606.93	395.512
6645.08	393.789
6683.44	392.077
6722.02	390.376
6760.83	388.685
6799.86	387.004
6839.12	385.334
6878.6	383.674
6918.31	382.024
6958.25	380.384
6998.42	378.755
7038.82	377.136
7079.46	375.527
7120.33	373.928
7161.43	372.339
7202.78	370.759
7244.36	369.189
7286.18	367.629
7328.25	366.078
7370.55	364.536
7413.1	363.004
7455.9	361.48
7498.94	359.965
7542.23	358.459
7585.78	356.961
7629.57	355.472
7673.61	353.99
7717.92	352.516
7762.47	351.05
7807.28	349.591
7852.36	348.14
7897.69	346.695
7943.28	345.256
7989.14	343.824
8035.26	342.397
8081.65	340.977
8128.31	339.561
8175.23	338.15
8222.43	336.744
8269.9	335.362
8317.64	334.006
8365.66	332.656
8413.95	331.309
8462.53	329.967
8511.38	328.629
8560.52	327.296
8609.94	325.968
8659.64	324.644
8709.64	323.325
8759.92	322.011
8810.49	320.701
8861.35	319.397
8912.51	318.098
8963.96	316.803
9015.71	315.514
9067.76	314.23
9120.11	312.951
9172.76	311.678
9225.71	310.41
9278.97	309.147
9332.54	307.89
9386.42	306.639
9440.61	305.393
9495.11	304.153
9549.93	302.918
9605.06	301.69
9660.51	300.467
9716.28	299.25
9772.37	298.039
9828.79	296.834
9885.53	295.635
9942.6	294.442
10000	293.255
10057.7	292.075
10115.8	290.9
10174.2	289.732
10232.9	288.57
10292	287.415
10351.4	286.266
10411.2	285.123
10471.3	283.987
10531.7	282.857
10592.5	281.734
10653.7	280.617
10715.2	279.507
10777.1	278.403
10839.3	277.306
10901.8	276.215
10964.8	275.131
11028.1	274.05
11091.7	272.973
11155.8	271.902
11220.2	270.837
11285	269.78
11350.1	268.728
11415.6	267.684
11481.5	266.646
11547.8	265.615
11614.5	264.59
11681.5	263.571
11749	262.56
11816.8	261.555
11885	260.556
11953.6	259.564
12022.6	258.578
12092.1	257.599
12161.9	256.626
12232.1	255.659
12302.7	254.699
12373.7	253.745
12445.1	252.797
12517	251.856
12589.3	250.92
12661.9	249.99
12735	249.067
12808.6	248.149
12882.5	247.236
12956.9	246.33
13031.7	245.429
13106.9	244.533
13182.6	243.643
13258.7	242.757
13335.2	241.877
13412.2	241.002
13489.6	240.131
13567.5	239.265
13645.8	238.404
13724.6	237.547
13803.8	236.693
13883.5	235.844
13963.7	234.999
14044.3	234.158
14125.4	233.32
14206.9	232.488
14288.9	231.659
14371.4	230.834
14454.4	230.014
14537.8	229.198
14621.8	228.386
14706.2	227.578
14791.1	226.775
14876.5	225.976
14962.4	225.181
15048.7	224.391
15135.6	223.605
15223	222.823
15310.9	222.045
15399.3	221.272
15488.2	220.503
15577.6	219.738
15667.5	218.977
15758	218.221
15848.9	217.469
15940.4	216.721
16032.5	215.977
16125	215.237
16218.1	214.502
16311.7	213.77
16405.9	213.043
16500.6	212.319
16595.9	211.598
16691.7	210.881
16788	210.168
16885	209.459
16982.4	208.754
17080.5	208.053
17179.1	207.356
17278.3	206.663
17378	205.974
17478.3	205.289
17579.2	204.609
17680.7	203.933
17782.8	203.261
17885.5	202.593
17988.7	201.929
18092.6	201.269
18197	200.614
18302.1	199.963
18407.7	199.315
18514	198.673
18620.9	198.034
18728.4	197.399
18836.5	196.769
18945.2	196.142
19054.6	195.52
19164.6	194.902
19275.2	194.288
19386.5	193.678
19498.4	193.072
19611	192.47
19724.2	191.871
19838.1	191.277
19952.6	190.687
20067.8	190.1
20183.7	189.517
20300.2	188.938
20417.4	188.363
20535.3	187.791
20653.8	187.223
20773	186.658
20893	186.096
21013.6	185.538
21134.9	184.983
21256.9	184.431
21379.6	183.882
21503	183.337
21627.2	182.794
21752	182.253
21877.6	181.716
22003.9	181.181
22130.9	180.654
22258.7	180.129
22387.2	179.606
22516.5	179.086
22646.4	178.569
22777.2	178.054
22908.7	177.542
23040.9	177.033
23173.9	176.526
23307.7	176.021
23442.3	175.52
23577.6	175.021
23713.7	174.524
23850.6	174.031
23988.3	173.54
24126.8	173.052
24266.1	172.566
24406.2	172.084
24547.1	171.604
24688.8	171.127
24831.3	170.653
24974.7	170.181
25118.9	169.713
25263.9	169.247
25409.7	168.784
25556.4	168.324
25704	167.867
25852.3	167.413
26001.6	166.961
26151.7	166.512
26302.7	166.066
26454.5	165.623
26607.3	165.183
26760.9	164.746
26915.3	164.311
27070.7	163.879
27227	163.45
27384.2	163.024
27542.3	162.6
27701.3	162.178
27861.2	161.759
28022.1	161.342
28183.8	160.929
28346.5	160.518
28510.2	160.109
28674.8	159.704
28840.3	159.301
29006.8	158.901
29174.3	158.504
29342.7	158.109
29512.1	157.717
29682.5	157.328
29853.8	156.941
30026.2	156.558
30199.5	156.176
30373.9	155.798
30549.2	155.422
30725.6	155.049
30903	154.678
31081.4	154.31
31260.8	153.945
31441.3	153.582
31622.8	153.221
31805.3	152.863
31989	152.507
32173.6	152.154
32359.4	151.803
32546.2	151.454
32734.1	151.108
32923	150.764
33113.1	150.421
33304.3	150.081
33496.5	149.743
33689.9	149.407
33884.4	149.074
34080	148.742
34276.8	148.412
34474.7	148.085
34673.7	147.76
34873.9	147.437
35075.2	147.116
35277.7	146.797
35481.3	146.48
35686.2	146.166
35892.2	145.853
36099.4	145.543
36307.8	145.235
36517.4	144.928
36728.2	144.624
36940.3	144.322
37153.5	144.022
37368	143.724
37583.7	143.428
37800.7	143.134
38018.9	142.842
38238.4	142.552
38459.2	142.264
38681.2	141.978
38904.5	141.693
39129.1	141.411
39355	141.13
39582.2	140.851
39810.7	140.574
40040.5	140.3
40271.7	140.027
40504.2	139.756
40738	139.486
40973.2	139.219
41209.8	138.954
41447.7	138.69
41686.9	138.429
41927.6	138.169
42169.7	137.912
42413.1	137.656
42658	137.402
42904.2	137.15
43151.9	136.899
43401	136.651
43651.6	136.405
43903.6	136.16
44157	135.917
44412	135.676
44668.4	135.437
44926.2	135.199
45185.6	134.963
45446.5	134.729
45708.8	134.497
45972.7	134.267
46238.1	134.038
46505	133.811
46773.5	133.586
47043.5	133.362
47315.1	133.14
47588.3	132.92
47863	132.701
48139.3	132.484
48417.2	132.269
48696.8	132.055
48977.9	131.843
49260.6	131.632
49545	131.423
49831	131.215
50118.7	131.009
50408.1	130.804
50699.1	130.6
50991.8	130.398
51286.1	130.197
51582.2	129.997
51880	129.798
52179.5	129.601
52480.7	129.404
52783.7	129.209
53088.4	129.014
53394.9	128.821
53703.2	128.628
54013.2	128.436
54325	128.245
54638.7	128.054
54954.1	127.864
55271.3	127.672
55590.4	127.481
55911.4	127.291
56234.1	127.102
56558.8	126.915
56885.3	126.729
57213.7	126.544
57544	126.361
57876.2	126.18
58210.3	125.999
58546.4	125.82
58884.4	125.643
59224.3	125.466
59566.2	125.291
59910.1	125.117
60256	124.945
60603.8	124.774
60953.7	124.604
61305.6	124.436
61659.5	124.268
62015.5	124.102
62373.5	123.938
62733.6	123.774
63095.7	123.612
63460	123.451
63826.3	123.292
64194.8	123.133
64565.4	122.976
64938.2	122.82
65313.1	122.665
65690.1	122.512
66069.3	122.359
66450.8	122.208
66834.4	122.058
67220.2	121.909
67608.3	121.762
67998.6	121.615
68391.2	121.47
68786	121.326
69183.1	121.183
69582.5	121.041
69984.2	120.9
70388.2	120.76
70794.6	120.622
71203.3	120.484
71614.3	120.348
72027.8	120.213
72443.6	120.079
72861.8	119.946
73282.5	119.814
73705.5	119.683
74131	119.553
74559	119.425
74989.4	119.297
75422.3	119.17
75857.8	119.045
76295.7	118.92
76736.1	118.797
77179.2	118.674
77624.7	118.553
78072.8	118.432
78523.6	118.313
78976.9	118.195
79432.8	118.077
79891.4	117.961
80352.6	117.845
80816.5	117.731
81283.1	117.617
81752.3	117.505
82224.3	117.393
82699	117.283
83176.4	117.173
83656.6	117.064
84139.5	116.956
84625.3	116.85
85113.8	116.744
85605.2	116.639
86099.4	116.535
86596.4	116.431
87096.4	116.329
87599.2	116.228
88104.9	116.127
88613.5	116.028
89125.1	115.929
89639.6	115.831
90157.1	115.734
90677.6	115.638
91201.1	115.543
91727.6	115.448
92257.1	115.355
92789.7	115.262
93325.4	115.17
93864.2	115.079
94406.1	114.989
94951.1	114.9
95499.3	114.811
96050.6	114.724
96605.1	114.637
97162.8	114.551
97723.7	114.465
98287.9	114.381
98855.3	114.297
99426	114.214
100000	114.132
100577	114.051
101158	113.97
101742	113.89
102329	113.811
102920	113.733
103514	113.655
104112	113.578
104713	113.502
105317	113.427
105925	113.352
106537	113.278
107152	113.205
107771	113.133
108393	113.061
109018	112.99
109648	112.919
110281	112.85
110917	112.781
111558	112.712
112202	112.645
112850	112.578
113501	112.512
114156	112.446
114815	112.381
115478	112.317
116145	112.253
116815	112.19
117490	112.128
118168	112.066
118850	112.005
119536	111.945
120226	111.885
120921	111.826
121619	111.768
122321	111.71
123027	111.652
123737	111.596
124451	111.54
125170	111.484
125893	111.429
126619	111.375
127350	111.321
128086	111.268
128825	111.216
129569	111.164
130317	111.112
131069	111.061
131826	111.011
132587	110.961
133352	110.912
134122	110.864
134896	110.816
135675	110.768
136458	110.721
137246	110.675
138038	110.629
138835	110.583
139637	110.539
140443	110.494
141254	110.45
142069	110.407
142889	110.364
143714	110.322
144544	110.28
145378	110.239
146218	110.198
147062	110.158
147911	110.118
148765	110.079
149624	110.04
150487	110.001
151356	109.963
152230	109.926
153109	109.889
153993	109.852
154882	109.816
155776	109.781
156675	109.746
157580	109.711
158489	109.676
159404	109.643
160325	109.609
161250	109.576
162181	109.544
163117	109.512
164059	109.48
165006	109.449
165959	109.418
166917	109.387
167880	109.357
168850	109.327
169824	109.298
170805	109.269
171791	109.241
172783	109.213
173780	109.185
174783	109.158
175792	109.131
176807	109.104
177828	109.078
178855	109.053
179887	109.027
180926	109.002
181970	108.977
183021	108.953
184077	108.929
185140	108.906
186209	108.882
187284	108.859
188365	108.837
189452	108.815
190546	108.793
191646	108.771
192752	108.75
193865	108.729
194984	108.709
196110	108.688
197242	108.669
198381	108.649
199526	108.63
200678	108.611
201837	108.592
203002	108.574
204174	108.556
205353	108.538
206538	108.521
207730	108.504
208930	108.487
210136	108.47
211349	108.454
212569	108.438
213796	108.422
215030	108.407
216272	108.392
217520	108.377
218776	108.363
220039	108.348
221309	108.334
222587	108.321
223872	108.307
225165	108.294
226464	108.281
227772	108.268
229087	108.256
230409	108.244
231739	108.232
233077	108.22
234423	108.208
235776	108.197
237137	108.186
238506	108.175
239883	108.165
241268	108.155
242661	108.145
244062	108.135
245471	108.125
246888	108.116
248313	108.107
249747	108.098
251189	108.089
252639	108.081
254097	108.072
255564	108.064
257040	108.056
258523	108.049
260016	108.041
261517	108.034
263027	108.027
264545	108.02
266073	108.014
267609	108.007
269153	108.001
270707	107.995
272270	107.989
273842	107.983
275423	107.978
277013	107.972
278612	107.967
280221	107.962
281838	107.957
283465	107.953
285102	107.948
286748	107.944
288403	107.94
290068	107.936
291743	107.932
293427	107.928
295121	107.925
296825	107.921
298538	107.918
300262	107.915
301995	107.912
303739	107.91
305492	107.907
307256	107.905
309030	107.902
310814	107.9
312608	107.898
314413	107.897
316228	107.895
318053	107.893
319890	107.892
321736	107.891
323594	107.889
325462	107.888
327341	107.887
329230	107.887
331131	107.886
333043	107.885
334965	107.885
336899	107.885
338844	107.885
340800	107.885
342768	107.885
344747	107.885
346737	107.885
348739	107.886
350752	107.886
352777	107.887
354813	107.887
356862	107.888
358922	107.889
360994	107.89
363078	107.891
365174	107.893
367282	107.894
369403	107.895
371535	107.897
373680	107.899
375837	107.9
378007	107.902
380189	107.904
382384	107.906
384592	107.908
386812	107.91
389045	107.913
391291	107.915
393550	107.917
395822	107.92
398107	107.923
400405	107.925
402717	107.928
405042	107.931
407380	107.934
409732	107.937
412098	107.94
414477	107.943
416869	107.946
419276	107.949
421697	107.953
424131	107.956
426580	107.96
429042	107.963
431519	107.967
434010	107.97
436516	107.974
439036	107.978
441570	107.982
444120	107.986
446684	107.99
449262	107.994
451856	107.998
454465	108.002
457088	108.006
459727	108.01
462381	108.015
465050	108.019
467735	108.023
470435	108.028
473151	108.032
475883	108.037
478630	108.041
481393	108.046
484172	108.051
486968	108.055
489779	108.06
492606	108.065
495450	108.07
498310	108.074
501187	108.079
504081	108.084
506991	108.089
509918	108.094
512861	108.099
515822	108.104
518800	108.11
521795	108.115
524807	108.12
527837	108.125
530884	108.13
533949	108.136
537032	108.141
540132	108.146
543250	108.152
546387	108.157
549541	108.162
552713	108.168
555904	108.173
559114	108.179
562341	108.184
565588	108.19
568853	108.195
572137	108.201
575440	108.206
578762	108.212
582103	108.218
585464	108.223
588844	108.229
592243	108.235
595662	108.24
599101	108.246
602560	108.252
606038	108.257
609537	108.263
613056	108.269
616595	108.275
620155	108.28
623735	108.286
627336	108.292
630957	108.298
634600	108.304
638263	108.309
641948	108.315
645654	108.321
649382	108.327
653131	108.333
656901	108.339
660693	108.344
664508	108.35
668344	108.356
672202	108.362
676083	108.368
679986	108.374
683912	108.38
687860	108.385
691831	108.391
695825	108.397
699842	108.403
703882	108.409
707946	108.415
712033	108.421
716143	108.427
720278	108.432
724436	108.438
728618	108.444
732825	108.45
737055	108.456
741310	108.462
745590	108.468
749894	108.473
754223	108.479
758578	108.485
762957	108.491
767361	108.497
771792	108.503
776247	108.508
780728	108.514
785236	108.52
789769	108.526
794328	108.531
798914	108.537
803526	108.543
808165	108.549
812831	108.554
817523	108.56
822243	108.566
826990	108.572
831764	108.577
836566	108.583
841395	108.589
846253	108.594
851138	108.6
856052	108.605
860994	108.611
865964	108.617
870964	108.622
875992	108.628
881049	108.633
886135	108.639
891251	108.644
896396	108.65
901571	108.655
906776	108.661
912011	108.666
917276	108.672
922571	108.677
927897	108.682
933254	108.688
938642	108.693
944061	108.698
949511	108.704
954993	108.709
960506	108.714
966051	108.72
971628	108.725
977237	108.73
982879	108.735
988553	108.74
994260	108.746
1e+06	108.751
1.00577e+06	108.756
1.01158e+06	108.761
1.01742e+06	108.766
1.02329e+06	108.771
1.0292e+06	108.776
1.03514e+06	108.781
1.04112e+06	108.786
1.04713e+06	108.791
1.05317e+06	108.796
1.05925e+06	108.801
1.06537e+06	108.806
1.07152e+06	108.811
1.07771e+06	108.816
1.08393e+06	108.821
1.09018e+06	108.825
1.09648e+06	108.83
1.10281e+06	108.835
1.10917e+06	108.84
1.11558e+06	108.844
1.12202e+06	108.849
1.1285e+06	108.854
1.13501e+06	108.858
1.14156e+06	108.863
1.14815e+06	108.868
1.15478e+06	108.872
1.16145e+06	108.877
1.16815e+06	108.881
1.1749e+06	108.886
1.18168e+06	108.89
1.1885e+06	108.895
1.19536e+06	108.899
1.20226e+06	108.904
1.20921e+06	108.908
1.21619e+06	108.912
1.22321e+06	108.917
1.23027e+06	108.921
1.23737e+06	108.925
1.24451e+06	108.93
1.2517e+06	108.934
1.25893e+06	108.938
1.26619e+06	108.942
1.2735e+06	108.946
1.28086e+06	108.951
1.28825e+06	108.955
1.29569e+06	108.959
1.30317e+06	108.963
1.31069e+06	108.967
1.31826e+06	108.971
1.32587e+06	108.975
1.33352e+06	108.979
1.34122e+06	108.983
1.34896e+06	108.987
1.35675e+06	108.991
1.36458e+06	108.994
1.37246e+06	108.998
1.38038e+06	109.002
1.38835e+06	109.006
1.39637e+06	109.01
1.40443e+06	109.013
1.41254e+06	109.017
1.42069e+06	109.021
1.42889e+06	109.024
1.43714e+06	109.028
1.44544e+06	109.031
1.45378e+06	109.035
1.46218e+06	109.039
1.47062e+06	109.042
1.47911e+06	109.046
1.48765e+06	109.049
1.49624e+06	109.052
1.50487e+06	109.056
1.51356e+06	109.059
1.5223e+06	109.063
1.53109e+06	109.066
1.53993e+06	109.069
1.54882e+06	109.072
1.55776e+06	109.076
1.56675e+06	109.079
1.5758e+06	109.082
1.58489e+06	109.085
1.59404e+06	109.088
1.60325e+06	109.092
1.6125e+06	109.095
1.62181e+06	109.098
1.63117e+06	109.101
1.64059e+06	109.104
1.65006e+06	109.107
1.65959e+06	109.11
1.66917e+06	109.113
1.6788e+06	109.115
1.6885e+06	109.118
1.69824e+06	109.121
1.70805e+06	109.124
1.71791e+06	109.127
1.72783e+06	109.13
1.7378e+06	109.132
1.74783e+06	109.135
1.75792e+06	109.138
1.76807e+06	109.14
1.77828e+06	109.143
1.78855e+06	109.146
1.79887e+06	109.148
1.80926e+06	109.151
1.8197e+06	109.153
1.83021e+06	109.156
1.84077e+06	109.158
1.8514e+06	109.161
1.86209e+06	109.163
1.87284e+06	109.166
1.88365e+06	109.168
1.89452e+06	109.17
1.90546e+06	109.173
1.91646e+06	109.175
1.92752e+06	109.177
1.93865e+06	109.18
1.94984e+06	109.182
1.9611e+06	109.184
1.97242e+06	109.186
1.98381e+06	109.188
1.99526e+06	109.191
2.00678e+06	109.193
2.01837e+06	109.195
2.03002e+06	109.197
2.04174e+06	109.199
2.05353e+06	109.201
2.06538e+06	109.203
2.0773e+06	109.205
2.0893e+06	109.207
2.10136e+06	109.209
2.11349e+06	109.211
2.12569e+06	109.213
2.13796e+06	109.214
2.1503e+06	109.216
2.16272e+06	109.218
2.1752e+06	109.22
2.18776e+06	109.222
2.20039e+06	109.223
2.21309e+06	109.225
2.22587e+06	109.227
2.23872e+06	109.228
2.25165e+06	109.23
2.26464e+06	109.232
2.27772e+06	109.233
2.29087e+06	109.235
2.30409e+06	109.236
2.31739e+06	109.238
2.33077e+06	109.239
2.34423e+06	109.241
2.35776e+06	109.242
2.37137e+06	109.244
2.38506e+06	109.245
2.39883e+06	109.247
2.41268e+06	109.248
2.42661e+06	109.249
2.44062e+06	109.251
2.45471e+06	109.252
2.46888e+06	109.253
2.48313e+06	109.255
2.49747e+06	109.256
2.51189e+06	109.257
2.52639e+06	109.258
2.54097e+06	109.26
2.55564e+06	109.261
2.5704e+06	109.262
2.58523e+06	109.263
2.60016e+06	109.264
2.61517e+06	109.265
2.63027e+06	109.266
2.64545e+06	109.267
2.66073e+06	109.268
2.67609e+06	109.269
2.69153e+06	109.27
2.70707e+06	109.271
2.7227e+06	109.272
2.73842e+06	109.273
2.75423e+06	109.274
2.77013e+06	109.275
2.78612e+06	109.276
2.80221e+06	109.277
2.81838e+06	109.278
2.83465e+06	109.279
2.85102e+06	109.279
2.86748e+06	109.28
2.88403e+06	109.281
2.90068e+06	109.282
2.91743e+06	109.283
2.93427e+06	109.283
2.95121e+06	109.284
2.96825e+06	109.285
2.98538e+06	109.285
3.00262e+06	109.286
3.01995e+06	109.287
3.03739e+06	109.287
3.05492e+06	109.288
3.07256e+06	109.289
3.0903e+06	109.289
3.10814e+06	109.29
3.12608e+06	109.29
3.14413e+06	109.291
3.16228e+06	109.291
3.18053e+06	109.292
3.1989e+06	109.292
3.21736e+06	109.293
3.23594e+06	109.293
3.25462e+06	109.294
3.27341e+06	109.294
3.2923e+06	109.295
3.31131e+06	109.295
3.33043e+06	109.295
3.34965e+06	109.296
3.36899e+06	109.296
3.38844e+06	109.297
3.408e+06	109.297
3.42768e+06	109.297
3.44747e+06	109.298
3.46737e+06	109.298
3.48739e+06	109.298
3.50752e+06	109.298
3.52777e+06	109.299
3.54813e+06	109.299
3.56862e+06	109.299
3.58922e+06	109.299
3.60994e+06	109.3
3.63078e+06	109.3
3.65174e+06	109.3
3.67282e+06	109.3
3.69403e+06	109.3
3.71535e+06	109.301
3.7368e+06	109.301
3.75837e+06	109.301
3.78007e+06	109.301
3.80189e+06	109.301
3.82384e+06	109.301
3.84592e+06	109.301
3.86812e+06	109.301
3.89045e+06	109.302
3.91291e+06	109.302
3.9355e+06	109.302
3.95822e+06	109.302
3.98107e+06	109.302
4.00405e+06	109.302
4.02717e+06	109.302
4.05042e+06	109.302
4.0738e+06	109.302
4.09732e+06	109.302
4.12098e+06	109.302
4.14477e+06	109.302
4.16869e+06	109.302
4.19276e+06	109.302
4.21697e+06	109.302
4.24131e+06	109.302
4.2658e+06	109.302
4.29042e+06	109.302
4.31519e+06	109.302
4.3401e+06	109.302
4.36516e+06	109.302
4.39036e+06	109.302
4.4157e+06	109.301
4.4412e+06	109.301
4.46684e+06	109.301
4.49262e+06	109.301
4.51856e+06	109.301
4.54465e+06	109.301
4.57088e+06	109.301
4.59727e+06	109.301
4.62381e+06	109.301
4.6505e+06	109.301
4.67735e+06	109.3
4.70435e+06	109.3
4.73151e+06	109.3
4.75883e+06	109.3
4.7863e+06	109.3
4.81393e+06	109.3
4.84172e+06	109.3
4.86968e+06	109.299
4.89779e+06	109.299
4.92606e+06	109.299
4.9545e+06	109.299
4.9831e+06	109.299
5.01187e+06	109.299
5.04081e+06	109.299
5.06991e+06	109.298
5.09918e+06	109.298
5.12861e+06	109.298
5.15822e+06	109.298
5.188e+06	109.298
5.21795e+06	109.298
5.24807e+06	109.297
5.27837e+06	109.297
5.30884e+06	109.297
5.33949e+06	109.297
5.37032e+06	109.297
5.40132e+06	109.297
5.4325e+06	109.296
5.46387e+06	109.296
5.49541e+06	109.296
5.52713e+06	109.296
5.55904e+06	109.296
5.59114e+06	109.296
5.62341e+06	109.296
5.65588e+06	109.295
5.68853e+06	109.295
5.72137e+06	109.295
5.7544e+06	109.295
5.78762e+06	109.295
5.82103e+06	109.295
5.85464e+06	109.294
5.88844e+06	109.294
5.92243e+06	109.294
5.95662e+06	109.294
5.99101e+06	109.294
6.0256e+06	109.294
6.06038e+06	109.294
6.09537e+06	109.294
6.13056e+06	109.293
6.16595e+06	109.293
6.20155e+06	109.293
6.23735e+06	109.293
6.27336e+06	109.293
6.30957e+06	109.293
6.346e+06	109.293
6.38263e+06	109.293
6.41948e+06	109.292
6.45654e+06	109.292
6.49382e+06	109.292
6.53131e+06	109.292
6.56901e+06	109.292
6.60693e+06	109.292
6.64508e+06	109.292
6.68344e+06	109.292
6.72202e+06	109.291
6.76083e+06	109.291
6.79986e+06	109.291
6.83912e+06	109.291
6.8786e+06	109.291
6.91831e+06	109.291
6.95825e+06	109.291
6.99842e+06	109.291
7.03882e+06	109.291
7.07946e+06	109.29
7.12033e+06	109.29
7.16143e+06	109.29
7.20278e+06	109.29
7.24436e+06	109.29
7.28618e+06	109.29
7.32825e+06	109.29
7.37055e+06	109.29
7.4131e+06	109.29
7.4559e+06	109.29
7.49894e+06	109.289
7.54223e+06	109.289
7.58578e+06	109.289
7.62957e+06	109.289
7.67361e+06	109.289
7.71792e+06	109.289
7.76247e+06	109.289
7.80728e+06	109.289
7.85236e+06	109.289
7.89769e+06	109.289
7.94328e+06	109.289
7.98914e+06	109.288
8.03526e+06	109.288
8.08165e+06	109.288
8.12831e+06	109.288
8.17523e+06	109.288
8.22243e+06	109.288
8.2699e+06	109.288
8.31764e+06	109.288
8.36566e+06	109.288
8.41395e+06	109.288
8.46253e+06	109.288
8.51138e+06	109.288
8.56052e+06	109.288
8.60994e+06	109.287
8.65964e+06	109.287
8.70964e+06	109.287
8.75992e+06	109.287
8.81049e+06	109.287
8.86135e+06	109.287
8.91251e+06	109.287
8.96396e+06	109.287
9.01571e+06	109.287
9.06776e+06	109.287
9.12011e+06	109.287
9.17276e+06	109.287
9.22571e+06	109.287
9.27897e+06	109.287
9.33254e+06	109.286
9.38642e+06	109.286
9.44061e+06	109.286
9.49511e+06	109.286
9.54993e+06	109.286
9.60506e+06	109.286
9.66051e+06	109.286
9.71628e+06	109.286
9.77237e+06	109.286
9.82879e+06	109.286
9.88553e+06	109.286
9.9426e+06	109.286
1e+07	109.286
