Stopping power dEdx from Ionisation for Mn55[0.0] Z = 25 in G4_TISSUE_SOFT_ICRP, process name: ionIoni
E [MeV]	dEdx [MeV/mm]
0.001	67.2352
0.00100577	67.429
0.00101158	67.6234
0.00101742	67.8183
0.00102329	68.0138
0.0010292	68.2098
0.00103514	68.4064
0.00104112	68.6036
0.00104713	68.8014
0.00105317	68.9997
0.00105925	69.1986
0.00106537	69.398
0.00107152	69.598
0.00107771	69.7986
0.00108393	69.9998
0.00109018	70.2016
0.00109648	70.4039
0.00110281	70.6069
0.00110917	70.8104
0.00111558	71.0145
0.00112202	71.2192
0.0011285	71.4245
0.00113501	71.6303
0.00114156	71.8368
0.00114815	72.0439
0.00115478	72.2515
0.00116145	72.4598
0.00116815	72.6686
0.0011749	72.8781
0.00118168	73.0882
0.0011885	73.2988
0.00119536	73.5101
0.00120226	73.722
0.00120921	73.9345
0.00121619	74.1476
0.00122321	74.3613
0.00123027	74.5756
0.00123737	74.7906
0.00124451	75.0062
0.0012517	75.2224
0.00125893	75.4392
0.00126619	75.6566
0.0012735	75.8747
0.00128086	76.0934
0.00128825	76.3127
0.00129569	76.5327
0.00130317	76.7533
0.00131069	76.9745
0.00131826	77.1964
0.00132587	77.4189
0.00133352	77.6421
0.00134122	77.8658
0.00134896	78.0903
0.00135675	78.3154
0.00136458	78.5411
0.00137246	78.7675
0.00138038	78.9945
0.00138835	79.2222
0.00139637	79.4506
0.00140443	79.6796
0.00141254	79.9092
0.00142069	80.1396
0.00142889	80.3706
0.00143714	80.6022
0.00144544	80.8345
0.00145378	81.0675
0.00146218	81.3012
0.00147062	81.5355
0.00147911	81.7706
0.00148765	82.0063
0.00149624	82.2426
0.00150487	82.4797
0.00151356	82.7174
0.0015223	82.9558
0.00153109	83.195
0.00153993	83.4348
0.00154882	83.6752
0.00155776	83.9164
0.00156675	84.1583
0.0015758	84.4009
0.00158489	84.6442
0.00159404	84.8881
0.00160325	85.1328
0.0016125	85.3782
0.00162181	85.6243
0.00163117	85.8711
0.00164059	86.1186
0.00165006	86.3668
0.00165959	86.6158
0.00166917	86.8654
0.0016788	87.1158
0.0016885	87.3669
0.00169824	87.6187
0.00170805	87.8713
0.00171791	88.1246
0.00172783	88.3786
0.0017378	88.6333
0.00174783	88.8888
0.00175792	89.145
0.00176807	89.402
0.00177828	89.6596
0.00178855	89.9181
0.00179887	90.1773
0.00180926	90.4372
0.0018197	90.6979
0.00183021	90.9593
0.00184077	91.2215
0.0018514	91.4844
0.00186209	91.7481
0.00187284	92.0125
0.00188365	92.2778
0.00189452	92.5437
0.00190546	92.8105
0.00191646	93.078
0.00192752	93.3463
0.00193865	93.6153
0.00194984	93.8852
0.0019611	94.1558
0.00197242	94.4272
0.00198381	94.6993
0.00199526	94.9723
0.00200678	95.2461
0.00201837	95.5206
0.00203002	95.7959
0.00204174	96.072
0.00205353	96.349
0.00206538	96.6267
0.0020773	96.9052
0.0020893	97.1845
0.00210136	97.4646
0.00211349	97.7456
0.00212569	98.0273
0.00213796	98.3098
0.0021503	98.5932
0.00216272	98.8774
0.0021752	99.1624
0.00218776	99.4482
0.00220039	99.7349
0.00221309	100.022
0.00222587	100.311
0.00223872	100.6
0.00225165	100.89
0.00226464	101.181
0.00227772	101.472
0.00229087	101.765
0.00230409	102.058
0.00231739	102.352
0.00233077	102.647
0.00234423	102.943
0.00235776	103.24
0.00237137	103.537
0.00238506	103.836
0.00239883	104.135
0.00241268	104.435
0.00242661	104.736
0.00244062	105.038
0.00245471	105.341
0.00246888	105.645
0.00248313	105.949
0.00249747	106.254
0.00251189	106.561
0.00252639	106.868
0.00254097	107.176
0.00255564	107.485
0.0025704	107.795
0.00258523	108.105
0.00260016	108.417
0.00261517	108.729
0.00263027	109.043
0.00264545	109.357
0.00266073	109.672
0.00267609	109.988
0.00269153	110.305
0.00270707	110.623
0.0027227	110.942
0.00273842	111.262
0.00275423	111.583
0.00277013	111.904
0.00278612	112.227
0.00280221	112.55
0.00281838	112.875
0.00283465	113.2
0.00285102	113.526
0.00286748	113.854
0.00288403	114.182
0.00290068	114.511
0.00291743	114.841
0.00293427	115.172
0.00295121	115.504
0.00296825	115.837
0.00298538	116.171
0.00300262	116.506
0.00301995	116.841
0.00303739	117.178
0.00305492	117.516
0.00307256	117.855
0.0030903	118.194
0.00310814	118.535
0.00312608	118.877
0.00314413	119.219
0.00316228	119.563
0.00318053	119.908
0.0031989	120.253
0.00321736	120.6
0.00323594	120.948
0.00325462	121.296
0.00327341	121.646
0.0032923	121.996
0.00331131	122.348
0.00333043	122.701
0.00334965	123.054
0.00336899	123.409
0.00338844	123.765
0.003408	124.121
0.00342768	124.479
0.00344747	124.838
0.00346737	125.198
0.00348739	125.559
0.00350752	125.921
0.00352777	126.284
0.00354813	126.648
0.00356862	127.013
0.00358922	127.379
0.00360994	127.746
0.00363078	128.114
0.00365174	128.483
0.00367282	128.854
0.00369403	129.225
0.00371535	129.598
0.0037368	129.971
0.00375837	130.346
0.00378007	130.721
0.00380189	131.098
0.00382384	131.476
0.00384592	131.855
0.00386812	132.235
0.00389045	132.616
0.00391291	132.999
0.0039355	133.382
0.00395822	133.766
0.00398107	134.152
0.00400405	134.539
0.00402717	134.926
0.00405042	135.315
0.0040738	135.705
0.00409732	136.097
0.00412098	136.489
0.00414477	136.882
0.00416869	137.277
0.00419276	137.672
0.00421697	138.069
0.00424131	138.467
0.0042658	138.866
0.00429042	139.267
0.00431519	139.668
0.0043401	140.071
0.00436516	140.474
0.00439036	140.879
0.0044157	141.285
0.0044412	141.693
0.00446684	142.101
0.00449262	142.511
0.00451856	142.921
0.00454465	143.333
0.00457088	143.746
0.00459727	144.161
0.00462381	144.576
0.0046505	144.993
0.00467735	145.411
0.00470435	145.83
0.00473151	146.25
0.00475883	146.672
0.0047863	147.095
0.00481393	147.519
0.00484172	147.944
0.00486968	148.37
0.00489779	148.798
0.00492606	149.227
0.0049545	149.657
0.0049831	150.088
0.00501187	150.521
0.00504081	150.955
0.00506991	151.39
0.00509918	151.826
0.00512861	152.264
0.00515822	152.703
0.005188	153.143
0.00521795	153.584
0.00524807	154.027
0.00527837	154.471
0.00530884	154.916
0.00533949	155.363
0.00537032	155.811
0.00540132	156.26
0.0054325	156.71
0.00546387	157.162
0.00549541	157.615
0.00552713	158.069
0.00555904	158.525
0.00559114	158.982
0.00562341	159.44
0.00565588	159.899
0.00568853	160.36
0.00572137	160.823
0.0057544	161.286
0.00578762	161.751
0.00582103	162.217
0.00585464	162.685
0.00588844	163.154
0.00592243	163.624
0.00595662	164.096
0.00599101	164.569
0.0060256	165.043
0.00606038	165.519
0.00609537	165.996
0.00613056	166.474
0.00616595	166.954
0.00620155	167.435
0.00623735	167.918
0.00627336	168.402
0.00630957	168.887
0.006346	169.374
0.00638263	169.862
0.00641948	170.352
0.00645654	170.843
0.00649382	171.335
0.00653131	171.829
0.00656901	172.324
0.00660693	172.821
0.00664508	173.319
0.00668344	173.819
0.00672202	174.32
0.00676083	174.822
0.00679986	175.326
0.00683912	175.832
0.0068786	176.338
0.00691831	176.847
0.00695825	177.356
0.00699842	177.868
0.00703882	178.38
0.00707946	178.895
0.00712033	179.41
0.00716143	179.927
0.00720278	180.446
0.00724436	180.966
0.00728618	181.488
0.00732825	182.011
0.00737055	182.535
0.0074131	183.061
0.0074559	183.589
0.00749894	184.118
0.00754223	184.649
0.00758578	185.181
0.00762957	185.715
0.00767361	186.25
0.00771792	186.787
0.00776247	187.326
0.00780728	187.865
0.00785236	188.407
0.00789769	188.95
0.00794328	189.495
0.00798914	190.041
0.00803526	190.589
0.00808165	191.138
0.00812831	191.689
0.00817523	192.241
0.00822243	192.796
0.0082699	193.351
0.00831764	193.909
0.00836566	194.467
0.00841395	195.028
0.00846253	195.59
0.00851138	196.154
0.00856052	196.719
0.00860994	197.286
0.00865964	197.855
0.00870964	198.425
0.00875992	198.997
0.00881049	199.571
0.00886135	200.146
0.00891251	200.723
0.00896396	201.301
0.00901571	201.882
0.00906776	202.464
0.00912011	203.047
0.00917276	203.632
0.00922571	204.219
0.00927897	204.808
0.00933254	205.398
0.00938642	205.99
0.00944061	206.584
0.00949511	207.18
0.00954993	207.777
0.00960506	208.376
0.00966051	208.976
0.00971628	209.579
0.00977237	210.183
0.00982879	210.789
0.00988553	211.396
0.0099426	212.005
0.01	212.617
0.0100577	213.229
0.0101158	213.844
0.0101742	214.46
0.0102329	215.078
0.010292	215.698
0.0103514	216.32
0.0104112	216.944
0.0104713	217.569
0.0105317	218.196
0.0105925	218.825
0.0106537	219.456
0.0107152	220.088
0.0107771	220.723
0.0108393	221.359
0.0109018	221.997
0.0109648	222.637
0.0110281	223.279
0.0110917	223.922
0.0111558	224.568
0.0112202	225.215
0.011285	225.864
0.0113501	226.515
0.0114156	227.168
0.0114815	227.823
0.0115478	228.479
0.0116145	229.138
0.0116815	229.798
0.011749	230.461
0.0118168	231.125
0.011885	231.791
0.0119536	232.459
0.0120226	233.129
0.0120921	233.801
0.0121619	234.475
0.0122321	235.151
0.0123027	235.829
0.0123737	236.509
0.0124451	237.19
0.012517	237.874
0.0125893	238.56
0.0126619	239.247
0.012735	239.937
0.0128086	240.628
0.0128825	241.322
0.0129569	242.018
0.0130317	242.715
0.0131069	243.415
0.0131826	244.116
0.0132587	244.82
0.0133352	245.526
0.0134122	246.233
0.0134896	246.943
0.0135675	247.655
0.0136458	248.369
0.0137246	249.085
0.0138038	249.786
0.0138835	250.488
0.0139637	251.193
0.0140443	251.899
0.0141254	252.608
0.0142069	253.319
0.0142889	254.032
0.0143714	254.746
0.0144544	255.463
0.0145378	256.182
0.0146218	256.903
0.0147062	257.626
0.0147911	258.351
0.0148765	259.079
0.0149624	259.808
0.0150487	260.539
0.0151356	261.273
0.015223	262.009
0.0153109	262.746
0.0153993	263.486
0.0154882	264.228
0.0155776	264.973
0.0156675	265.719
0.015758	266.467
0.0158489	267.218
0.0159404	267.971
0.0160325	268.726
0.016125	269.483
0.0162181	270.242
0.0163117	271.004
0.0164059	271.768
0.0165006	272.533
0.0165959	273.302
0.0166917	274.072
0.016788	274.844
0.016885	275.619
0.0169824	276.396
0.0170805	277.176
0.0171791	277.957
0.0172783	278.741
0.017378	279.527
0.0174783	280.315
0.0175792	281.106
0.0176807	281.899
0.0177828	282.694
0.0178855	283.491
0.0179887	284.291
0.0180926	285.093
0.018197	285.897
0.0183021	286.704
0.0184077	287.513
0.018514	288.324
0.0186209	289.138
0.0187284	289.954
0.0188365	290.773
0.0189452	291.593
0.0190546	292.417
0.0191646	293.242
0.0192752	294.07
0.0193865	294.9
0.0194984	295.733
0.019611	296.568
0.0197242	297.406
0.0198381	298.245
0.0199526	299.088
0.0200678	299.933
0.0201837	300.78
0.0203002	301.63
0.0204174	302.482
0.0205353	303.336
0.0206538	304.193
0.020773	305.053
0.020893	305.915
0.0210136	306.78
0.0211349	307.647
0.0212569	308.516
0.0213796	309.388
0.021503	310.263
0.0216272	311.14
0.021752	312.02
0.0218776	312.902
0.0220039	313.787
0.0221309	314.674
0.0222587	315.564
0.0223872	316.456
0.0225165	317.351
0.0226464	318.249
0.0227772	319.149
0.0229087	320.052
0.0230409	320.958
0.0231739	321.866
0.0233077	322.776
0.0234423	323.69
0.0235776	324.606
0.0237137	325.524
0.0238506	326.446
0.0239883	327.37
0.0241268	328.296
0.0242661	329.226
0.0244062	330.158
0.0245471	331.092
0.0246888	332.03
0.0248313	332.97
0.0249747	333.913
0.0251189	334.859
0.0252639	335.807
0.0254097	336.758
0.0255564	337.712
0.025704	338.669
0.0258523	339.628
0.0260016	340.59
0.0261517	341.555
0.0263027	342.523
0.0264545	343.494
0.0266073	344.467
0.0267609	345.443
0.0269153	346.422
0.0270707	347.404
0.027227	348.389
0.0273842	349.377
0.0275423	350.367
0.0277013	351.361
0.0278612	352.357
0.0280221	353.356
0.0281838	354.358
0.0283465	355.363
0.0285102	356.371
0.0286748	357.382
0.0288403	358.395
0.0290068	359.412
0.0291743	360.432
0.0293427	361.454
0.0295121	362.48
0.0296825	363.508
0.0298538	364.54
0.0300262	365.574
0.0301995	366.612
0.0303739	367.653
0.0305492	368.696
0.0307256	369.743
0.030903	370.792
0.0310814	371.845
0.0312608	372.901
0.0314413	373.96
0.0316228	375.022
0.0318053	376.087
0.031989	377.155
0.0321736	378.226
0.0323594	379.3
0.0325462	380.378
0.0327341	381.458
0.032923	382.542
0.0331131	383.629
0.0333043	384.719
0.0334965	385.812
0.0336899	386.909
0.0338844	388.008
0.03408	389.111
0.0342768	390.217
0.0344747	391.326
0.0346737	392.439
0.0348739	393.554
0.0350752	394.673
0.0352777	395.796
0.0354813	396.921
0.0356862	398.05
0.0358922	399.182
0.0360994	400.317
0.0363078	401.456
0.0365174	402.598
0.0367282	403.743
0.0369403	404.892
0.0371535	406.044
0.037368	407.199
0.0375837	408.358
0.0378007	409.52
0.0380189	410.685
0.0382384	411.854
0.0384592	413.026
0.0386812	414.202
0.0389045	415.381
0.0391291	416.564
0.039355	417.75
0.0395822	418.939
0.0398107	420.132
0.0400405	421.328
0.0402717	422.528
0.0405042	423.732
0.040738	424.939
0.0409732	426.149
0.0412098	427.363
0.0414477	428.58
0.0416869	429.801
0.0419276	431.026
0.0421697	432.254
0.0424131	433.486
0.042658	434.721
0.0429042	435.96
0.0431519	437.203
0.043401	438.449
0.0436516	439.699
0.0439036	440.953
0.044157	442.21
0.044412	443.471
0.0446684	444.735
0.0449262	446.003
0.0451856	447.275
0.0454465	448.551
0.0457088	449.83
0.0459727	451.113
0.0462381	452.4
0.046505	453.691
0.0467735	454.985
0.0470435	456.283
0.0473151	457.585
0.0475883	458.891
0.047863	460.201
0.0481393	461.514
0.0484172	462.831
0.0486968	464.153
0.0489779	465.478
0.0492606	466.806
0.049545	468.139
0.049831	469.476
0.0501187	470.816
0.0504081	472.161
0.0506991	473.509
0.0509918	474.861
0.0512861	476.218
0.0515822	477.578
0.05188	478.942
0.0521795	480.311
0.0524807	481.683
0.0527837	483.059
0.0530884	484.439
0.0533949	485.824
0.0537032	487.212
0.0540132	488.605
0.054325	490.001
0.0546387	491.402
0.0549541	492.705
0.0552713	493.031
0.0555904	493.361
0.0559114	493.694
0.0562341	494.031
0.0565588	494.371
0.0568853	494.715
0.0572137	495.062
0.057544	495.412
0.0578762	495.765
0.0582103	496.122
0.0585464	496.482
0.0588844	496.845
0.0592243	497.211
0.0595662	497.579
0.0599101	497.951
0.060256	498.326
0.0606038	498.704
0.0609537	499.085
0.0613056	499.468
0.0616595	499.855
0.0620155	500.244
0.0623735	500.635
0.0627336	501.03
0.0630957	501.427
0.06346	501.827
0.0638263	502.229
0.0641948	502.634
0.0645654	503.042
0.0649382	503.452
0.0653131	503.864
0.0656901	504.279
0.0660693	504.697
0.0664508	505.116
0.0668344	505.539
0.0672202	505.963
0.0676083	506.39
0.0679986	506.819
0.0683912	507.25
0.068786	507.684
0.0691831	508.12
0.0695825	508.558
0.0699842	508.998
0.0703882	509.441
0.0707946	509.885
0.0712033	510.332
0.0716143	510.781
0.0720278	511.232
0.0724436	511.684
0.0728618	512.139
0.0732825	512.597
0.0737055	513.056
0.074131	513.517
0.074559	513.98
0.0749894	514.445
0.0754223	514.912
0.0758578	515.38
0.0762957	515.851
0.0767361	516.324
0.0771792	516.799
0.0776247	517.275
0.0780728	517.753
0.0785236	518.234
0.0789769	518.716
0.0794328	519.199
0.0798914	519.685
0.0803526	520.173
0.0808165	520.662
0.0812831	521.153
0.0817523	521.646
0.0822243	522.141
0.082699	522.637
0.0831764	523.135
0.0836566	523.635
0.0841395	524.137
0.0846253	524.641
0.0851138	525.146
0.0856052	525.653
0.0860994	526.161
0.0865964	526.672
0.0870964	527.184
0.0875992	527.698
0.0881049	528.213
0.0886135	528.73
0.0891251	529.249
0.0896396	529.77
0.0901571	530.292
0.0906776	530.816
0.0912011	531.341
0.0917276	531.869
0.0922571	532.397
0.0927897	532.928
0.0933254	533.46
0.0938642	533.994
0.0944061	534.53
0.0949511	535.067
0.0954993	535.606
0.0960506	536.147
0.0966051	536.689
0.0971628	537.233
0.0977237	537.779
0.0982879	538.326
0.0988553	538.875
0.099426	539.426
0.1	539.978
0.100577	540.532
0.101158	541.088
0.101742	541.645
0.102329	542.204
0.10292	542.765
0.103514	543.328
0.104112	543.892
0.104713	544.458
0.105317	545.025
0.105925	545.595
0.106537	546.166
0.107152	546.738
0.107771	547.313
0.108393	547.889
0.109018	548.467
0.109648	549.046
0.110281	549.628
0.110917	550.211
0.111558	550.796
0.112202	551.383
0.11285	551.971
0.113501	552.561
0.114156	553.153
0.114815	553.747
0.115478	554.342
0.116145	554.94
0.116815	555.539
0.11749	556.14
0.118168	556.743
0.11885	557.348
0.119536	557.954
0.120226	558.562
0.120921	559.173
0.121619	559.785
0.122321	560.399
0.123027	561.015
0.123737	561.632
0.124451	562.252
0.12517	562.873
0.125893	563.497
0.126619	564.122
0.12735	564.75
0.128086	565.379
0.128825	566.01
0.129569	566.644
0.130317	567.279
0.131069	567.916
0.131826	568.555
0.132587	569.196
0.133352	569.84
0.134122	570.485
0.134896	571.132
0.135675	571.782
0.136458	572.433
0.137246	573.087
0.138038	573.742
0.138835	574.4
0.139637	575.06
0.140443	575.722
0.141254	576.386
0.142069	577.052
0.142889	577.721
0.143714	578.391
0.144544	579.064
0.145378	579.739
0.146218	580.416
0.147062	581.096
0.147911	581.778
0.148765	582.461
0.149624	583.148
0.150487	583.836
0.151356	584.527
0.15223	585.22
0.153109	585.915
0.153993	586.613
0.154882	587.313
0.155776	588.015
0.156675	588.72
0.15758	589.427
0.158489	590.137
0.159404	590.849
0.160325	591.563
0.16125	592.28
0.162181	592.999
0.163117	593.721
0.164059	594.445
0.165006	595.172
0.165959	595.901
0.166917	596.632
0.16788	597.367
0.16885	598.103
0.169824	598.843
0.170805	599.585
0.171791	600.329
0.172783	601.076
0.17378	601.826
0.174783	602.578
0.175792	603.333
0.176807	604.091
0.177828	604.851
0.178855	605.614
0.179887	606.38
0.180926	607.148
0.18197	607.92
0.183021	608.694
0.184077	609.47
0.18514	610.25
0.186209	611.032
0.187284	611.817
0.188365	612.605
0.189452	613.396
0.190546	614.189
0.191646	614.986
0.192752	615.785
0.193865	616.587
0.194984	617.393
0.19611	618.201
0.197242	619.012
0.198381	619.826
0.199526	620.643
0.200678	621.463
0.201837	622.286
0.203002	623.112
0.204174	623.941
0.205353	624.773
0.206538	625.608
0.20773	626.446
0.20893	627.288
0.210136	628.132
0.211349	628.98
0.212569	629.83
0.213796	630.684
0.21503	631.541
0.216272	632.402
0.21752	633.265
0.218776	634.132
0.220039	635.002
0.221309	635.875
0.222587	636.751
0.223872	637.631
0.225165	638.514
0.226464	639.4
0.227772	640.29
0.229087	641.183
0.230409	642.08
0.231739	642.979
0.233077	643.883
0.234423	644.789
0.235776	645.699
0.237137	646.613
0.238506	647.529
0.239883	648.45
0.241268	649.374
0.242661	650.301
0.244062	651.232
0.245471	652.166
0.246888	653.104
0.248313	654.046
0.249747	654.991
0.251189	655.94
0.252639	656.892
0.254097	657.848
0.255564	658.808
0.25704	659.771
0.258523	660.738
0.260016	661.709
0.261517	662.683
0.263027	663.661
0.264545	664.643
0.266073	665.628
0.267609	666.618
0.269153	667.611
0.270707	668.608
0.27227	669.609
0.273842	670.613
0.275423	671.622
0.277013	672.634
0.278612	673.65
0.280221	674.67
0.281838	675.694
0.283465	676.722
0.285102	677.754
0.286748	678.79
0.288403	679.829
0.290068	680.873
0.291743	681.921
0.293427	682.973
0.295121	684.029
0.296825	685.089
0.298538	686.152
0.300262	687.22
0.301995	688.293
0.303739	689.369
0.305492	690.449
0.307256	691.534
0.30903	692.622
0.310814	693.715
0.312608	694.812
0.314413	695.913
0.316228	697.019
0.318053	698.128
0.31989	699.242
0.321736	700.361
0.323594	701.483
0.325462	702.61
0.327341	703.741
0.32923	704.876
0.331131	706.016
0.333043	707.16
0.334965	708.308
0.336899	709.461
0.338844	710.618
0.3408	711.78
0.342768	712.946
0.344747	714.117
0.346737	715.292
0.348739	716.471
0.350752	717.655
0.352777	718.843
0.354813	720.036
0.356862	721.234
0.358922	722.436
0.360994	723.642
0.363078	724.854
0.365174	726.069
0.367282	727.29
0.369403	728.515
0.371535	729.744
0.37368	730.979
0.375837	732.217
0.378007	733.461
0.380189	734.709
0.382384	735.962
0.384592	737.22
0.386812	738.482
0.389045	739.75
0.391291	741.021
0.39355	742.298
0.395822	743.58
0.398107	744.866
0.400405	746.157
0.402717	747.453
0.405042	748.754
0.40738	750.059
0.409732	751.37
0.412098	752.685
0.414477	754.006
0.416869	755.331
0.419276	756.661
0.421697	757.996
0.424131	759.336
0.42658	760.681
0.429042	762.031
0.431519	763.386
0.43401	764.746
0.436516	766.111
0.439036	767.481
0.44157	768.856
0.44412	770.236
0.446684	771.621
0.449262	773.011
0.451856	774.406
0.454465	775.807
0.457088	777.212
0.459727	778.623
0.462381	780.039
0.46505	781.46
0.467735	782.886
0.470435	784.317
0.473151	785.754
0.475883	787.195
0.47863	788.642
0.481393	790.094
0.484172	791.552
0.486968	793.014
0.489779	794.482
0.492606	795.955
0.49545	797.434
0.49831	798.917
0.501187	800.406
0.504081	801.901
0.506991	803.4
0.509918	804.905
0.512861	806.416
0.515822	807.931
0.5188	809.452
0.521795	810.979
0.524807	812.511
0.527837	814.048
0.530884	815.591
0.533949	817.139
0.537032	818.692
0.540132	820.251
0.54325	821.815
0.546387	823.385
0.549541	824.961
0.552713	826.541
0.555904	828.128
0.559114	829.719
0.562341	831.317
0.565588	832.92
0.568853	834.528
0.572137	836.142
0.57544	837.761
0.578762	839.386
0.582103	841.017
0.585464	842.653
0.588844	844.294
0.592243	845.941
0.595662	847.594
0.599101	849.253
0.60256	850.917
0.606038	852.586
0.609537	854.261
0.613056	855.942
0.616595	857.629
0.620155	859.321
0.623735	861.019
0.627336	862.722
0.630957	864.431
0.6346	866.146
0.638263	867.866
0.641948	869.592
0.645654	871.324
0.649382	873.061
0.653131	874.804
0.656901	876.553
0.660693	878.308
0.664508	880.068
0.668344	881.834
0.672202	883.606
0.676083	885.383
0.679986	887.166
0.683912	888.955
0.68786	890.749
0.691831	892.549
0.695825	894.355
0.699842	896.167
0.703882	897.984
0.707946	899.808
0.712033	901.637
0.716143	903.471
0.720278	905.312
0.724436	907.158
0.728618	909.01
0.732825	910.867
0.737055	912.731
0.74131	914.6
0.74559	916.475
0.749894	918.355
0.754223	920.242
0.758578	922.134
0.762957	924.032
0.767361	925.935
0.771792	927.845
0.776247	929.76
0.780728	931.681
0.785236	933.607
0.789769	935.54
0.794328	937.478
0.798914	939.421
0.803526	941.371
0.808165	943.326
0.812831	945.287
0.817523	947.254
0.822243	949.226
0.82699	951.204
0.831764	953.188
0.836566	955.178
0.841395	957.173
0.846253	959.174
0.851138	961.18
0.856052	963.193
0.860994	965.21
0.865964	967.234
0.870964	969.263
0.875992	971.298
0.881049	973.339
0.886135	975.385
0.891251	977.436
0.896396	979.494
0.901571	981.557
0.906776	983.625
0.912011	985.699
0.917276	987.779
0.922571	989.864
0.927897	991.955
0.933254	994.051
0.938642	996.153
0.944061	998.26
0.949511	1000.37
0.954993	1002.49
0.960506	1004.61
0.966051	1006.74
0.971628	1008.88
0.977237	1011.02
0.982879	1013.16
0.988553	1015.31
0.99426	1017.47
1	1019.63
1.00577	1021.8
1.01158	1023.97
1.01742	1026.15
1.02329	1028.33
1.0292	1030.52
1.03514	1032.71
1.04112	1034.91
1.04713	1037.12
1.05317	1039.32
1.05925	1041.54
1.06537	1043.76
1.07152	1045.98
1.07771	1048.21
1.08393	1050.45
1.09018	1052.68
1.09648	1054.93
1.10281	1057.18
1.10917	1059.43
1.11558	1061.69
1.12202	1063.96
1.1285	1066.23
1.13501	1068.5
1.14156	1070.78
1.14815	1073.06
1.15478	1075.35
1.16145	1077.64
1.16815	1079.94
1.1749	1082.24
1.18168	1084.55
1.1885	1086.86
1.19536	1089.18
1.20226	1091.5
1.20921	1093.83
1.21619	1096.16
1.22321	1098.49
1.23027	1100.83
1.23737	1103.17
1.24451	1105.52
1.2517	1107.87
1.25893	1110.23
1.26619	1112.59
1.2735	1114.95
1.28086	1117.32
1.28825	1119.69
1.29569	1122.07
1.30317	1124.45
1.31069	1126.83
1.31826	1129.22
1.32587	1131.61
1.33352	1134.01
1.34122	1136.41
1.34896	1138.81
1.35675	1141.22
1.36458	1143.63
1.37246	1146.04
1.38038	1148.46
1.38835	1150.88
1.39637	1153.31
1.40443	1155.74
1.41254	1158.17
1.42069	1160.6
1.42889	1163.04
1.43714	1165.48
1.44544	1167.92
1.45378	1170.37
1.46218	1172.82
1.47062	1175.27
1.47911	1177.73
1.48765	1180.19
1.49624	1182.65
1.50487	1185.11
1.51356	1187.58
1.5223	1190.05
1.53109	1192.52
1.53993	1195
1.54882	1197.47
1.55776	1199.95
1.56675	1202.43
1.5758	1204.92
1.58489	1207.4
1.59404	1209.89
1.60325	1212.38
1.6125	1214.87
1.62181	1217.36
1.63117	1219.86
1.64059	1222.35
1.65006	1224.85
1.65959	1227.35
1.66917	1229.85
1.6788	1232.35
1.6885	1234.85
1.69824	1237.36
1.70805	1239.86
1.71791	1242.37
1.72783	1244.88
1.7378	1247.38
1.74783	1249.89
1.75792	1252.4
1.76807	1254.91
1.77828	1257.42
1.78855	1259.93
1.79887	1262.45
1.80926	1264.96
1.8197	1267.47
1.83021	1269.98
1.84077	1272.49
1.8514	1275
1.86209	1277.51
1.87284	1280.02
1.88365	1282.53
1.89452	1285.04
1.90546	1287.55
1.91646	1290.06
1.92752	1292.57
1.93865	1295.07
1.94984	1297.58
1.9611	1300.08
1.97242	1302.59
1.98381	1305.09
1.99526	1307.59
2.00678	1310.09
2.01837	1312.58
2.03002	1315.08
2.04174	1317.57
2.05353	1320.06
2.06538	1322.55
2.0773	1325.04
2.0893	1328.22
2.10136	1335.05
2.11349	1341.91
2.12569	1348.8
2.13796	1355.74
2.1503	1362.71
2.16272	1369.71
2.1752	1376.75
2.18776	1383.83
2.20039	1390.95
2.21309	1398.1
2.22587	1405.28
2.23872	1412.51
2.25165	1419.77
2.26464	1427.07
2.27772	1434.4
2.29087	1441.78
2.30409	1449.18
2.31739	1456.63
2.33077	1464.11
2.34423	1471.63
2.35776	1479.19
2.37137	1486.79
2.38506	1494.42
2.39883	1502.09
2.41268	1509.79
2.42661	1517.54
2.44062	1525.32
2.45471	1533.14
2.46888	1540.99
2.48313	1548.89
2.49747	1556.82
2.51189	1564.79
2.52639	1572.79
2.54097	1580.84
2.55564	1588.92
2.5704	1597.04
2.58523	1605.19
2.60016	1613.39
2.61517	1621.62
2.63027	1629.89
2.64545	1638.19
2.66073	1646.53
2.67609	1654.92
2.69153	1663.33
2.70707	1671.79
2.7227	1680.28
2.73842	1688.81
2.75423	1697.38
2.77013	1705.98
2.78612	1714.63
2.80221	1723.31
2.81838	1732.02
2.83465	1740.77
2.85102	1749.56
2.86748	1758.39
2.88403	1767.26
2.90068	1776.16
2.91743	1785.09
2.93427	1794.07
2.95121	1803.08
2.96825	1812.13
2.98538	1821.21
3.00262	1830.33
3.01995	1839.49
3.03739	1848.68
3.05492	1857.91
3.07256	1867.17
3.0903	1876.47
3.10814	1885.81
3.12608	1895.18
3.14413	1904.59
3.16228	1914.03
3.18053	1923.51
3.1989	1933.02
3.21736	1942.57
3.23594	1952.15
3.25462	1961.76
3.27341	1971.42
3.2923	1981.1
3.31131	1990.82
3.33043	2000.57
3.34965	2010.36
3.36899	2020.18
3.38844	2030.04
3.408	2039.93
3.42768	2049.85
3.44747	2059.8
3.46737	2069.79
3.48739	2079.81
3.50752	2089.86
3.52777	2099.94
3.54813	2110.06
3.56862	2120.21
3.58922	2130.38
3.60994	2140.59
3.63078	2150.84
3.65174	2161.11
3.67282	2171.41
3.69403	2181.74
3.71535	2192.1
3.7368	2202.49
3.75837	2212.92
3.78007	2223.37
3.80189	2233.85
3.82384	2244.35
3.84592	2254.89
3.86812	2265.45
3.89045	2276.05
3.91291	2286.67
3.9355	2297.31
3.95822	2307.99
3.98107	2318.69
4.00405	2329.41
4.02717	2340.16
4.05042	2350.94
4.0738	2361.74
4.09732	2372.57
4.12098	2383.42
4.14477	2394.3
4.16869	2405.2
4.19276	2416.12
4.21697	2427.07
4.24131	2438.04
4.2658	2449.03
4.29042	2460.04
4.31519	2471.08
4.3401	2482.13
4.36516	2493.21
4.39036	2504.3
4.4157	2515.42
4.4412	2526.56
4.46684	2537.71
4.49262	2548.89
4.51856	2560.08
4.54465	2571.29
4.57088	2582.52
4.59727	2593.76
4.62381	2605.02
4.6505	2616.3
4.67735	2627.59
4.70435	2638.9
4.73151	2650.22
4.75883	2661.56
4.7863	2672.91
4.81393	2684.27
4.84172	2695.64
4.86968	2707.03
4.89779	2718.43
4.92606	2729.84
4.9545	2741.27
4.9831	2752.7
5.01187	2764.14
5.04081	2775.59
5.06991	2787.05
5.09918	2798.52
5.12861	2809.99
5.15822	2821.48
5.188	2832.96
5.21795	2844.46
5.24807	2855.96
5.27837	2867.47
5.30884	2878.98
5.33949	2890.49
5.37032	2902.01
5.40132	2913.52
5.4325	2925.05
5.46387	2936.57
5.49541	2948.09
5.52713	2959.62
5.55904	2971.14
5.59114	2982.67
5.62341	2994.19
5.65588	3005.71
5.68853	3017.23
5.72137	3028.74
5.7544	3040.25
5.78762	3051.76
5.82103	3063.26
5.85464	3074.75
5.88844	3086.24
5.92243	3097.73
5.95662	3109.2
5.99101	3120.67
6.0256	3132.13
6.06038	3143.58
6.09537	3155.02
6.13056	3166.45
6.16595	3177.86
6.20155	3189.27
6.23735	3200.67
6.27336	3212.05
6.30957	3223.41
6.346	3234.77
6.38263	3246.1
6.41948	3257.43
6.45654	3268.73
6.49382	3280.02
6.53131	3291.29
6.56901	3302.55
6.60693	3313.78
6.64508	3325
6.68344	3336.2
6.72202	3347.37
6.76083	3358.52
6.79986	3369.66
6.83912	3380.77
6.8786	3391.85
6.91831	3402.92
6.95825	3413.95
6.99842	3424.97
7.03882	3435.95
7.07946	3446.91
7.12033	3457.85
7.16143	3468.75
7.20278	3479.63
7.24436	3490.48
7.28618	3501.3
7.32825	3512.09
7.37055	3522.85
7.4131	3533.57
7.4559	3544.27
7.49894	3554.93
7.54223	3565.56
7.58578	3576.16
7.62957	3586.72
7.67361	3597.24
7.71792	3607.73
7.76247	3618.19
7.80728	3628.6
7.85236	3638.98
7.89769	3649.32
7.94328	3659.62
7.98914	3669.89
8.03526	3680.11
8.08165	3690.29
8.12831	3700.44
8.17523	3710.54
8.22243	3720.59
8.2699	3730.61
8.31764	3740.58
8.36566	3750.51
8.41395	3760.4
8.46253	3770.23
8.51138	3780.03
8.56052	3789.78
8.60994	3799.48
8.65964	3809.13
8.70964	3818.74
8.75992	3828.3
8.81049	3837.81
8.86135	3847.27
8.91251	3856.68
8.96396	3866.04
9.01571	3875.35
9.06776	3884.61
9.12011	3893.82
9.17276	3902.98
9.22571	3912.08
9.27897	3921.13
9.33254	3930.13
9.38642	3939.07
9.44061	3947.96
9.49511	3956.8
9.54993	3965.58
9.60506	3974.3
9.66051	3982.97
9.71628	3991.58
9.77237	4000.14
9.82879	4008.63
9.88553	4017.08
9.9426	4025.46
10	4031.59
10.0577	4039.83
10.1158	4048.02
10.1742	4056.14
10.2329	4064.21
10.292	4072.21
10.3514	4080.16
10.4112	4088.04
10.4713	4095.86
10.5317	4103.62
10.5925	4111.32
10.6537	4118.96
10.7152	4126.54
10.7771	4134.05
10.8393	4141.5
10.9018	4148.89
10.9648	4156.21
11.0281	4163.47
11.0917	4170.67
11.1558	4177.8
11.2202	4184.87
11.285	4191.88
11.3501	4198.82
11.4156	4205.7
11.4815	4212.51
11.5478	4219.26
11.6145	4225.94
11.6815	4232.55
11.749	4239.1
11.8168	4245.59
11.885	4252.01
11.9536	4258.36
12.0226	4264.65
12.0921	4270.87
12.1619	4277.03
12.2321	4283.12
12.3027	4289.14
12.3737	4295.1
12.4451	4300.99
12.517	4306.81
12.5893	4312.57
12.6619	4318.26
12.735	4323.89
12.8086	4329.44
12.8825	4334.94
12.9569	4340.36
13.0317	4345.72
13.1069	4351.01
13.1826	4356.24
13.2587	4361.4
13.3352	4366.49
13.4122	4371.52
13.4896	4376.48
13.5675	4381.37
13.6458	4386.2
13.7246	4390.96
13.8038	4395.65
13.8835	4400.28
13.9637	4404.85
14.0443	4409.34
14.1254	4413.78
14.2069	4418.14
14.2889	4422.44
14.3714	4426.68
14.4544	4430.85
14.5378	4434.96
14.6218	4439
14.7062	4442.97
14.7911	4446.89
14.8765	4450.73
14.9624	4454.52
15.0487	4458.24
15.1356	4461.89
15.223	4465.49
15.3109	4469.02
15.3993	4472.48
15.4882	4475.89
15.5776	4479.23
15.6675	4482.51
15.758	4463.08
15.8489	4466.41
15.9404	4469.68
16.0325	4472.9
16.125	4476.04
16.2181	4479.13
16.3117	4482.16
16.4059	4485.12
16.5006	4488.03
16.5959	4490.87
16.6917	4493.66
16.788	4496.38
16.885	4499.05
16.9824	4501.65
17.0805	4504.2
17.1791	4506.69
17.2783	4509.12
17.378	4511.49
17.4783	4513.81
17.5792	4516.06
17.6807	4518.27
17.7828	4520.41
17.8855	4522.5
17.9887	4524.53
18.0926	4526.51
18.197	4528.43
18.3021	4530.3
18.4077	4532.11
18.514	4533.87
18.6209	4535.58
18.7284	4537.23
18.8365	4538.83
18.9452	4540.38
19.0546	4541.87
19.1646	4543.32
19.2752	4544.71
19.3865	4546.05
19.4984	4547.34
19.611	4548.59
19.7242	4549.78
19.8381	4550.92
19.9526	4552.02
20.0678	4553.06
20.1837	4554.06
20.3002	4555.01
20.4174	4555.92
20.5353	4556.78
20.6538	4557.59
20.773	4558.35
20.893	4559.07
21.0136	4559.75
21.1349	4560.38
21.2569	4560.97
21.3796	4561.51
21.503	4562.01
21.6272	4562.47
21.752	4562.89
21.8776	4563.26
22.0039	4563.6
22.1309	4563.89
22.2587	4564.14
22.3872	4564.35
22.5165	4564.52
22.6464	4564.66
22.7772	4564.75
22.9087	4564.81
23.0409	4564.83
23.1739	4564.81
23.3077	4564.75
23.4423	4564.66
23.5776	4564.53
23.7137	4564.37
23.8506	4564.17
23.9883	4563.94
24.1268	4563.67
24.2661	4563.37
24.4062	4563.03
24.5471	4562.66
24.6888	4562.26
24.8313	4561.83
24.9747	4561.37
25.1189	4560.87
25.2639	4560.34
25.4097	4559.79
25.5564	4559.2
25.704	4558.58
25.8523	4557.94
26.0016	4557.26
26.1517	4556.56
26.3027	4555.83
26.4545	4555.07
26.6073	4554.29
26.7609	4553.48
26.9153	4552.64
27.0707	4551.77
27.227	4550.89
27.3842	4549.97
27.5423	4549.03
27.7013	4548.07
27.8612	4547.08
28.0221	4546.07
28.1838	4545.04
28.3465	4543.98
28.5102	4542.9
28.6748	4541.8
28.8403	4540.67
29.0068	4539.53
29.1743	4538.36
29.3427	4537.18
29.5121	4535.97
29.6825	4534.74
29.8538	4533.5
30.0262	4532.23
30.1995	4530.95
30.3739	4529.64
30.5492	4528.32
30.7256	4526.98
30.903	4525.63
31.0814	4524.25
31.2608	4522.86
31.4413	4521.45
31.6228	4520.03
31.8053	4518.59
31.989	4517.13
32.1736	4515.66
32.3594	4514.17
32.5462	4512.67
32.7341	4511.15
32.923	4509.62
33.1131	4508.08
33.3043	4506.52
33.4965	4504.94
33.6899	4503.36
33.8844	4501.76
34.08	4500.14
34.2768	4498.52
34.4747	4496.88
34.6737	4495.23
34.8739	4493.57
35.0752	4491.9
35.2777	4490.21
35.4813	4488.52
35.6862	4486.81
35.8922	4485.09
36.0994	4483.36
36.3078	4481.63
36.5174	4479.88
36.7282	4478.12
36.9403	4476.35
37.1535	4474.57
37.368	4472.78
37.5837	4470.99
37.8007	4469.18
38.0189	4467.36
38.2384	4465.54
38.4592	4463.71
38.6812	4461.86
38.9045	4460.01
39.1291	4458.16
39.355	4456.29
39.5822	4454.42
39.8107	4452.53
40.0405	4450.64
40.2717	4448.75
40.5042	4446.84
40.738	4444.93
40.9732	4443.01
41.2098	4441.09
41.4477	4439.15
41.6869	4437.21
41.9276	4435.27
42.1697	4433.31
42.4131	4431.35
42.658	4429.39
42.9042	4427.41
43.1519	4425.43
43.401	4423.45
43.6516	4421.46
43.9036	4419.46
44.157	4417.45
44.412	4415.44
44.6684	4413.43
44.9262	4411.41
45.1856	4409.38
45.4465	4407.34
45.7088	4405.31
45.9727	4403.26
46.2381	4401.21
46.505	4399.15
46.7735	4397.09
47.0435	4395.02
47.3151	4392.95
47.5883	4390.87
47.863	4388.79
48.1393	4386.7
48.4172	4384.6
48.6968	4382.5
48.9779	4380.4
49.2606	4378.29
49.545	4376.17
49.831	4374.05
50.1187	4371.92
50.4081	4369.79
50.6991	4367.65
50.9918	4365.5
51.2861	4363.36
51.5822	4361.2
51.88	4359.04
52.1795	4356.87
52.4807	4354.7
52.7837	4352.53
53.0884	4350.34
53.3949	4348.16
53.7032	4345.96
54.0132	4343.76
54.325	4341.56
54.6387	4339.35
54.9541	4337.13
55.2713	4334.91
55.5904	4332.68
55.9114	4330.45
56.2341	4328.21
56.5588	4325.96
56.8853	4323.71
57.2137	4321.46
57.544	4319.19
57.8762	4316.92
58.2103	4314.65
58.5464	4312.37
58.8844	4310.08
59.2243	4307.78
59.5662	4305.48
59.9101	4303.17
60.256	4300.86
60.6038	4298.54
60.9537	4296.21
61.3056	4293.88
61.6595	4291.54
62.0155	4289.19
62.3735	4286.84
62.7336	4284.48
63.0957	4282.11
63.46	4279.73
63.8263	4277.35
64.1948	4274.96
64.5654	4272.56
64.9382	4270.16
65.3131	4267.75
65.6901	4265.33
66.0693	4262.9
66.4508	4260.47
66.8344	4258.02
67.2202	4255.57
67.6083	4253.12
67.9986	4250.65
68.3912	4248.18
68.786	4245.69
69.1831	4243.2
69.5825	4240.71
69.9842	4238.2
70.3882	4235.69
70.7946	4233.16
71.2033	4230.63
71.6143	4228.09
72.0278	4225.54
72.4436	4222.98
72.8618	4220.41
73.2825	4217.83
73.7055	4215.25
74.131	4212.65
74.559	4210.05
74.9894	4207.43
75.4223	4204.81
75.8578	4202.18
76.2957	4199.54
76.7361	4196.88
77.1792	4194.22
77.6247	4191.55
78.0728	4188.87
78.5236	4186.18
78.9769	4183.47
79.4328	4180.76
79.8914	4178.04
80.3526	4175.31
80.8165	4172.56
81.2831	4169.81
81.7523	4167.05
82.2243	4164.27
82.699	4161.48
83.1764	4158.69
83.6566	4155.88
84.1395	4153.06
84.6253	4150.23
85.1138	4147.39
85.6052	4144.53
86.0994	4141.67
86.5964	4138.79
87.0964	4135.91
87.5992	4133.01
88.1049	4130.1
88.6135	4127.17
89.1251	4124.24
89.6396	4121.29
90.1571	4118.33
90.6776	4115.36
91.2011	4112.38
91.7276	4109.38
92.2571	4106.37
92.7897	4103.35
93.3254	4100.32
93.8642	4097.27
94.4061	4094.21
94.9511	4091.14
95.4993	4088.05
96.0506	4084.96
96.6051	4081.84
97.1628	4078.72
97.7237	4075.58
98.2879	4072.43
98.8553	4069.26
99.426	4066.09
100	4062.89
100.577	4059.69
101.158	4056.47
101.742	4053.23
102.329	4049.99
102.92	4046.73
103.514	4043.45
104.112	4040.16
104.713	4036.86
105.317	4033.54
105.925	4030.2
106.537	4026.86
107.152	4023.49
107.771	4020.12
108.393	4016.72
109.018	4013.32
109.648	4006.66
110.281	3999.65
110.917	3992.66
111.558	3985.71
112.202	3978.76
112.85	3971.82
113.501	3965.13
114.156	3958.21
114.815	3951.29
115.478	3944.39
116.145	3937.5
116.815	3930.61
117.49	3923.73
118.168	3916.85
118.85	3909.99
119.536	3903.13
120.226	3896.27
120.921	3889.43
121.619	3883.11
122.321	3876.28
123.027	3869.6
123.737	3862.78
124.451	3855.97
125.17	3849.16
125.893	3842.35
126.619	3835.56
127.35	3828.76
128.086	3821.97
128.825	3815.2
129.569	3808.42
130.317	3801.64
131.069	3794.87
131.826	3788.11
132.587	3781.34
133.352	3776.85
134.122	3770.08
134.896	3763.31
135.675	3756.54
136.458	3749.78
137.246	3735.33
138.038	3729.12
138.835	3722.24
139.637	3715.36
140.443	3708.48
141.254	3701.6
142.069	3694.75
142.889	3687.9
143.714	3681.04
144.544	3674.2
145.378	3667.35
146.218	3660.5
147.062	3653.66
147.911	3646.81
148.765	3639.97
149.624	3633.12
150.487	3626.27
151.356	3619.43
152.23	3612.58
153.109	3605.73
153.993	3598.88
154.882	3592.03
155.776	3585.17
156.675	3578.31
157.58	3571.45
158.489	3564.59
159.404	3557.73
160.325	3550.86
161.25	3543.99
162.181	3537.12
163.117	3532.55
164.059	3525.66
165.006	3518.77
165.959	3511.88
166.917	3504.99
167.88	3498.09
168.85	3491.19
169.824	3484.28
170.805	3477.37
171.791	3470.46
172.783	3463.55
173.78	3456.63
174.783	3449.71
175.792	3442.79
176.807	3435.87
177.828	3428.94
178.855	3422.02
179.887	3415.09
180.926	3408.16
181.97	3401.22
183.021	3394.29
184.077	3387.35
185.14	3380.56
186.209	3373.62
187.284	3366.67
188.365	3364.64
189.452	3357.66
190.546	3350.69
191.646	3343.72
192.752	3337.12
193.865	3330.5
194.984	3323.88
196.11	3317.25
197.242	3310.61
198.381	3303.98
199.526	3297.34
200.678	3290.69
201.837	3284.04
203.002	3277.39
204.174	3270.73
205.353	3264.07
206.538	3257.41
207.73	3250.74
208.93	3244.07
210.136	3237.4
211.349	3230.72
212.569	3224.04
213.796	3217.36
215.03	3210.68
216.272	3203.99
217.52	3197.3
218.776	3190.61
220.039	3183.92
221.309	3177.22
222.587	3170.53
223.872	3164.75
225.165	3158.03
226.464	3151.32
227.772	3144.6
229.087	3137.89
230.409	3131.17
231.739	3124.45
233.077	3117.74
234.423	3111.02
235.776	3104.3
237.137	3097.59
238.506	3090.87
239.883	3084.16
241.268	3077.44
242.661	3070.74
244.062	3066.23
245.471	3059.5
246.888	3052.78
248.313	3046.05
249.747	3039.33
251.189	3032.61
252.639	3025.89
254.097	3019.17
255.564	3012.46
257.04	3005.75
258.523	2999.04
260.016	2992.34
261.517	2985.64
263.027	2978.94
264.545	2972.24
266.073	2965.55
267.609	2958.86
269.153	2952.17
270.707	2945.49
272.27	2938.81
273.842	2932.14
275.423	2925.46
277.013	2918.79
278.612	2912.13
280.221	2905.46
281.838	2898.8
283.465	2892.15
285.102	2885.5
286.748	2878.85
288.403	2872.2
290.068	2865.56
291.743	2858.92
293.427	2852.29
295.121	2845.66
296.825	2839.03
298.538	2832.41
300.262	2825.79
301.995	2819.17
303.739	2812.57
305.492	2805.96
307.256	2799.35
309.03	2792.81
310.814	2786.21
312.608	2779.62
314.413	2773.65
316.228	2767.06
318.053	2760.47
319.89	2753.88
321.736	2747.29
323.594	2740.71
325.462	2734.13
327.341	2727.55
329.23	2720.98
331.131	2714.42
333.043	2707.85
334.965	2701.29
336.899	2694.73
338.844	2688.18
340.8	2681.63
342.768	2675.08
344.747	2668.53
346.737	2661.99
348.739	2655.46
350.752	2648.92
352.777	2642.39
354.813	2635.86
356.862	2629.34
358.922	2622.82
360.994	2616.3
363.078	2609.79
365.174	2603.28
367.282	2596.77
369.403	2590.27
371.535	2583.77
373.68	2577.28
375.837	2570.78
378.007	2564.29
380.189	2557.81
382.384	2551.32
384.592	2544.85
386.812	2538.37
389.045	2531.9
391.291	2525.43
393.55	2518.97
395.822	2512.51
398.107	2506.05
400.405	2499.6
402.717	2493.15
405.042	2486.7
407.38	2480.26
409.732	2474.67
412.098	2468.22
414.477	2461.77
416.869	2455.33
419.276	2448.89
421.697	2442.46
424.131	2436.03
426.58	2429.6
429.042	2423.17
431.519	2416.75
434.01	2410.37
436.516	2403.96
439.036	2397.55
441.57	2391.14
444.12	2384.74
446.684	2378.34
449.262	2371.94
451.856	2365.55
454.465	2359.17
457.088	2352.79
459.727	2346.41
462.381	2340.03
465.05	2333.66
467.735	2327.29
470.435	2320.93
473.151	2314.57
475.883	2308.21
478.63	2301.86
481.393	2295.51
484.172	2289.17
486.968	2282.83
489.779	2276.49
492.606	2270.16
495.45	2263.83
498.31	2257.5
501.187	2251.18
504.081	2244.87
506.991	2238.56
509.918	2232.25
512.861	2225.94
515.822	2219.65
518.8	2213.35
521.795	2207.06
524.807	2200.77
527.837	2194.49
530.884	2188.22
533.949	2181.95
537.032	2175.68
540.132	2169.42
543.25	2163.16
546.387	2156.91
549.541	2150.66
552.713	2144.42
555.904	2138.18
559.114	2131.95
562.341	2125.72
565.588	2119.5
568.853	2113.28
572.137	2107.07
575.44	2101.43
578.762	2095.22
582.103	2089.02
585.464	2082.83
588.844	2076.64
592.243	2070.45
595.662	2064.28
599.101	2058.11
602.56	2051.94
606.038	2045.78
609.537	2039.63
613.056	2033.48
616.595	2027.34
620.155	2021.21
623.735	2015.08
627.336	2008.96
630.957	2002.85
634.6	1996.74
638.263	1990.64
641.948	1984.55
645.654	1978.46
649.382	1972.39
653.131	1966.31
656.901	1960.25
660.693	1954.19
664.508	1948.14
668.344	1942.1
672.202	1936.07
676.083	1930.04
679.986	1924.02
683.912	1918.01
687.86	1912.01
691.831	1906.01
695.825	1900.03
699.842	1894.05
703.882	1888.08
707.946	1882.11
712.033	1876.16
716.143	1870.21
720.278	1864.27
724.436	1858.34
728.618	1852.41
732.825	1846.5
737.055	1840.59
741.31	1834.7
745.59	1828.81
749.894	1822.93
754.223	1817.06
758.578	1811.19
762.957	1805.34
767.361	1799.49
771.792	1793.66
776.247	1787.83
780.728	1782.01
785.236	1776.2
789.769	1770.4
794.328	1764.61
798.914	1758.83
803.526	1753.06
808.165	1747.3
812.831	1741.54
817.523	1735.8
822.243	1730.06
826.99	1724.34
831.764	1718.62
836.566	1712.92
841.395	1707.23
846.253	1701.54
851.138	1695.87
856.052	1690.2
860.994	1684.55
865.964	1678.9
870.964	1673.27
875.992	1667.64
881.049	1662.03
886.135	1656.42
891.251	1650.83
896.396	1645.24
901.571	1639.67
906.776	1634.1
912.011	1628.55
917.276	1623.01
922.571	1617.48
927.897	1611.95
933.254	1606.44
938.642	1600.94
944.061	1595.45
949.511	1589.97
954.993	1584.5
960.506	1579.04
966.051	1573.59
971.628	1568.15
977.237	1562.72
982.879	1557.31
988.553	1551.9
994.26	1546.5
1000	1541.12
1005.77	1535.74
1011.58	1530.38
1017.42	1525.03
1023.29	1519.69
1029.2	1514.35
1035.14	1509.03
1041.12	1503.73
1047.13	1498.43
1053.17	1493.14
1059.25	1487.87
1065.37	1482.6
1071.52	1477.35
1077.71	1472.1
1083.93	1466.87
1090.18	1461.65
1096.48	1456.44
1102.81	1451.25
1109.17	1446.06
1115.58	1440.88
1122.02	1435.72
1128.5	1430.57
1135.01	1425.43
1141.56	1420.3
1148.15	1415.18
1154.78	1410.07
1161.45	1404.98
1168.15	1399.89
1174.9	1394.82
1181.68	1389.76
1188.5	1384.71
1195.36	1379.68
1202.26	1374.65
1209.21	1369.64
1216.19	1364.64
1223.21	1359.65
1230.27	1354.67
1237.37	1349.7
1244.51	1344.75
1251.7	1339.81
1258.93	1334.87
1266.19	1329.96
1273.5	1325.05
1280.86	1320.15
1288.25	1315.27
1295.69	1310.98
1303.17	1306.12
1310.69	1301.27
1318.26	1296.42
1325.87	1291.6
1333.52	1286.78
1341.22	1281.98
1348.96	1277.19
1356.75	1272.41
1364.58	1267.64
1372.46	1262.88
1380.38	1258.14
1388.35	1253.41
1396.37	1248.69
1404.43	1243.99
1412.54	1239.29
1420.69	1234.61
1428.89	1229.95
1437.14	1225.29
1445.44	1220.65
1453.78	1216.02
1462.18	1211.4
1470.62	1206.79
1479.11	1202.2
1487.65	1197.62
1496.24	1193.05
1504.87	1188.49
1513.56	1183.95
1522.3	1179.42
1531.09	1174.9
1539.93	1170.4
1548.82	1165.9
1557.76	1161.42
1566.75	1156.96
1575.8	1152.5
1584.89	1148.06
1594.04	1143.63
1603.25	1139.21
1612.5	1134.81
1621.81	1130.42
1631.17	1126.04
1640.59	1121.67
1650.06	1117.32
1659.59	1112.97
1669.17	1108.65
1678.8	1104.33
1688.5	1100.03
1698.24	1095.74
1708.05	1091.46
1717.91	1087.2
1727.83	1082.94
1737.8	1078.71
1747.83	1074.48
1757.92	1070.27
1768.07	1066.07
1778.28	1061.88
1788.55	1057.7
1798.87	1053.54
1809.26	1049.39
1819.7	1045.25
1830.21	1041.13
1840.77	1037.02
1851.4	1032.92
1862.09	1028.83
1872.84	1024.76
1883.65	1020.7
1894.52	1016.65
1905.46	1012.61
1916.46	1008.59
1927.52	1004.58
1938.65	1000.58
1949.84	996.6
1961.1	992.628
1972.42	988.67
1983.81	984.724
1995.26	980.79
2006.78	976.869
2018.37	972.962
2030.02	969.066
2041.74	965.184
2053.53	961.314
2065.38	957.457
2077.3	953.612
2089.3	949.78
2101.36	945.961
2113.49	942.154
2125.69	938.36
2137.96	934.579
2150.3	930.81
2162.72	927.054
2175.2	923.311
2187.76	919.58
2200.39	915.862
2213.09	912.156
2225.87	908.463
2238.72	904.782
2251.65	901.114
2264.64	897.459
2277.72	893.816
2290.87	890.186
2304.09	886.568
2317.39	882.963
2330.77	879.37
2344.23	875.79
2357.76	872.222
2371.37	868.667
2385.06	865.124
2398.83	861.593
2412.68	858.075
2426.61	854.57
2440.62	851.077
2454.71	847.596
2468.88	844.127
2483.13	840.671
2497.47	837.228
2511.89	833.796
2526.39	830.378
2540.97	826.971
2555.64	823.577
2570.4	820.195
2585.23	816.825
2600.16	813.467
2615.17	810.122
2630.27	806.789
2645.45	803.468
2660.73	800.159
2676.09	796.863
2691.53	793.578
2707.07	790.306
2722.7	787.046
2738.42	783.798
2754.23	780.562
2770.13	777.338
2786.12	774.127
2802.21	770.927
2818.38	767.739
2834.65	764.563
2851.02	761.4
2867.48	758.248
2884.03	755.108
2900.68	751.98
2917.43	748.865
2934.27	745.761
2951.21	742.668
2968.25	739.588
2985.38	736.52
3002.62	733.463
3019.95	730.418
3037.39	727.385
3054.92	724.363
3072.56	721.354
3090.3	718.356
3108.14	715.37
3126.08	712.395
3144.13	709.432
3162.28	706.481
3180.53	703.541
3198.9	700.613
3217.36	697.696
3235.94	694.791
3254.62	691.898
3273.41	689.016
3292.3	686.145
3311.31	683.286
3330.43	680.438
3349.65	677.602
3368.99	674.777
3388.44	671.964
3408	669.161
3427.68	666.371
3447.47	663.591
3467.37	660.822
3487.39	658.065
3507.52	655.319
3527.77	652.585
3548.13	649.861
3568.62	647.148
3589.22	644.447
3609.94	641.757
3630.78	639.078
3651.74	636.409
3672.82	633.752
3694.03	631.106
3715.35	628.471
3736.8	625.846
3758.37	623.233
3780.07	620.63
3801.89	618.039
3823.84	615.458
3845.92	612.888
3868.12	610.329
3890.45	607.78
3912.91	605.242
3935.5	602.715
3958.22	600.199
3981.07	597.693
4004.05	595.198
4027.17	592.713
4050.42	590.239
4073.8	587.775
4097.32	585.322
4120.98	582.88
4144.77	580.448
4168.69	578.026
4192.76	575.615
4216.97	573.214
4241.31	570.823
4265.8	568.443
4290.42	566.073
4315.19	563.713
4340.1	561.364
4365.16	559.025
4390.36	556.696
4415.7	554.376
4441.2	552.068
4466.84	549.769
4492.62	547.48
4518.56	545.201
4544.65	542.932
4570.88	540.674
4597.27	538.425
4623.81	536.186
4650.5	533.957
4677.35	531.738
4704.35	529.528
4731.51	527.329
4758.83	525.139
4786.3	522.959
4813.93	520.788
4841.72	518.627
4869.68	516.476
4897.79	514.335
4926.06	512.203
4954.5	510.081
4983.1	507.968
5011.87	505.865
5040.81	503.771
5069.91	501.686
5099.18	499.611
5128.61	497.546
5158.22	495.489
5188	493.443
5217.95	491.405
5248.07	489.376
5278.37	487.357
5308.84	485.347
5339.49	483.347
5370.32	481.355
5401.32	479.372
5432.5	477.399
5463.87	475.435
5495.41	473.479
5527.13	471.533
5559.04	469.595
5591.14	467.667
5623.41	465.747
5655.88	463.837
5688.53	461.935
5721.37	460.042
5754.4	458.158
5787.62	456.282
5821.03	454.415
5854.64	452.557
5888.44	450.708
5922.43	448.867
5956.62	447.035
5991.01	445.211
6025.6	443.396
6060.38	441.589
6095.37	439.791
6130.56	438.002
6165.95	436.221
6201.55	434.448
6237.35	432.683
6273.36	430.927
6309.57	429.18
6346	427.44
6382.63	425.709
6419.48	423.986
6456.54	422.271
6493.82	420.564
6531.31	418.866
6569.01	417.175
6606.93	415.493
6645.08	413.819
6683.44	412.152
6722.02	410.494
6760.83	408.844
6799.86	407.201
6839.12	405.566
6878.6	403.94
6918.31	402.321
6958.25	400.71
6998.42	399.106
7038.82	397.511
7079.46	395.923
7120.33	394.343
7161.43	392.77
7202.78	391.206
7244.36	389.648
7286.18	388.099
7328.25	386.556
7370.55	385.022
7413.1	383.495
7455.9	381.975
7498.94	380.463
7542.23	378.958
7585.78	377.46
7629.57	375.97
7673.61	374.487
7717.92	373.012
7762.47	371.543
7807.28	370.082
7852.36	368.629
7897.69	367.182
7943.28	365.742
7989.14	364.31
8035.26	362.884
8081.65	361.466
8128.31	360.055
8175.23	358.651
8222.43	357.253
8269.9	355.863
8317.64	354.48
8365.66	353.103
8413.95	351.733
8462.53	350.371
8511.38	349.014
8560.52	347.665
8609.94	346.323
8659.64	344.987
8709.64	343.658
8759.92	342.336
8810.49	341.02
8861.35	339.711
8912.51	338.408
8963.96	337.112
9015.71	335.823
9067.76	334.54
9120.11	333.263
9172.76	331.993
9225.71	330.73
9278.97	329.473
9332.54	328.222
9386.42	326.978
9440.61	325.739
9495.11	324.508
9549.93	323.282
9605.06	322.063
9660.51	320.85
9716.28	319.643
9772.37	318.442
9828.79	317.248
9885.53	316.059
9942.6	314.877
10000	313.701
10057.7	312.53
10115.8	311.366
10174.2	310.208
10232.9	309.056
10292	307.909
10351.4	306.769
10411.2	305.635
10471.3	304.506
10531.7	303.383
10592.5	302.266
10653.7	301.155
10715.2	300.049
10777.1	298.95
10839.3	297.856
10901.8	296.768
10964.8	295.685
11028.1	294.608
11091.7	293.537
11155.8	292.471
11220.2	291.411
11285	290.356
11350.1	289.307
11415.6	288.263
11481.5	287.225
11547.8	286.193
11614.5	285.165
11681.5	284.143
11749	283.127
11816.8	282.116
11885	281.11
11953.6	280.11
12022.6	279.115
12092.1	278.125
12161.9	277.14
12232.1	276.161
12302.7	275.186
12373.7	274.217
12445.1	273.253
12517	272.295
12589.3	271.341
12661.9	270.393
12735	269.449
12808.6	268.511
12882.5	267.577
12956.9	266.649
13031.7	265.725
13106.9	264.807
13182.6	263.893
13258.7	262.985
13335.2	262.081
13412.2	261.182
13489.6	260.288
13567.5	259.399
13645.8	258.514
13724.6	257.635
13803.8	256.76
13883.5	255.89
13963.7	255.025
14044.3	254.164
14125.4	253.308
14206.9	252.457
14288.9	251.61
14371.4	250.768
14454.4	249.93
14537.8	249.097
14621.8	248.269
14706.2	247.445
14791.1	246.626
14876.5	245.811
14962.4	245.001
15048.7	244.195
15135.6	243.394
15223	242.597
15310.9	241.804
15399.3	241.016
15488.2	240.232
15577.6	239.453
15667.5	238.677
15758	237.907
15848.9	237.14
15940.4	236.378
16032.5	235.62
16125	234.866
16218.1	234.116
16311.7	233.371
16405.9	232.629
16500.6	231.892
16595.9	231.159
16691.7	230.43
16788	229.706
16885	228.985
16982.4	228.268
17080.5	227.556
17179.1	226.847
17278.3	226.143
17378	225.442
17478.3	224.745
17579.2	224.053
17680.7	223.364
17782.8	222.679
17885.5	221.998
17988.7	221.321
18092.6	220.648
18197	219.979
18302.1	219.313
18407.7	218.652
18514	217.994
18620.9	217.34
18728.4	216.69
18836.5	216.043
18945.2	215.4
19054.6	214.761
19164.6	214.126
19275.2	213.494
19386.5	212.866
19498.4	212.241
19611	211.621
19724.2	211.003
19838.1	210.39
19952.6	209.78
20067.8	209.173
20183.7	208.571
20300.2	207.971
20417.4	207.375
20535.3	206.783
20653.8	206.194
20773	205.609
20893	205.027
21013.6	204.449
21134.9	203.874
21256.9	203.302
21379.6	202.734
21503	202.169
21627.2	201.607
21752	201.049
21877.6	200.495
22003.9	199.943
22130.9	199.395
22258.7	198.85
22387.2	198.308
22516.5	197.77
22646.4	197.235
22777.2	196.703
22908.7	196.175
23040.9	195.649
23173.9	195.127
23307.7	194.608
23442.3	194.092
23577.6	193.579
23713.7	193.069
23850.6	192.563
23988.3	192.06
24126.8	191.559
24266.1	191.062
24406.2	190.568
24547.1	190.077
24688.8	189.589
24831.3	189.103
24974.7	188.621
25118.9	188.142
25263.9	187.666
25409.7	187.193
25556.4	186.723
25704	186.256
25852.3	185.791
26001.6	185.33
26151.7	184.872
26302.7	184.416
26454.5	183.963
26607.3	183.513
26760.9	183.066
26915.3	182.622
27070.7	182.181
27227	181.742
27384.2	181.307
27542.3	180.874
27701.3	180.444
27861.2	180.017
28022.1	179.592
28183.8	179.17
28346.5	178.751
28510.2	178.334
28674.8	177.921
28840.3	177.51
29006.8	177.101
29174.3	176.695
29342.7	176.292
29512.1	175.892
29682.5	175.494
29853.8	175.099
30026.2	174.706
30199.5	174.316
30373.9	173.929
30549.2	173.544
30725.6	173.162
30903	172.782
31081.4	172.405
31260.8	172.03
31441.3	171.658
31622.8	171.289
31805.3	170.922
31989	170.557
32173.6	170.195
32359.4	169.835
32546.2	169.478
32734.1	169.123
32923	168.771
33113.1	168.421
33304.3	168.073
33496.5	167.728
33689.9	167.385
33884.4	167.045
34080	166.707
34276.8	166.371
34474.7	166.038
34673.7	165.707
34873.9	165.378
35075.2	165.051
35277.7	164.727
35481.3	164.406
35686.2	164.086
35892.2	163.769
36099.4	163.454
36307.8	163.141
36517.4	162.831
36728.2	162.522
36940.3	162.216
37153.5	161.913
37368	161.611
37583.7	161.312
37800.7	161.014
38018.9	160.719
38238.4	160.426
38459.2	160.135
38681.2	159.847
38904.5	159.56
39129.1	159.276
39355	158.994
39582.2	158.714
39810.7	158.436
40040.5	158.16
40271.7	157.886
40504.2	157.614
40738	157.344
40973.2	157.076
41209.8	156.811
41447.7	156.547
41686.9	156.286
41927.6	156.026
42169.7	155.768
42413.1	155.513
42658	155.259
42904.2	155.008
43151.9	154.758
43401	154.51
43651.6	154.264
43903.6	154.021
44157	153.779
44412	153.539
44668.4	153.301
44926.2	153.065
45185.6	152.83
45446.5	152.598
45708.8	152.368
45972.7	152.139
46238.1	151.912
46505	151.688
46773.5	151.465
47043.5	151.243
47315.1	151.024
47588.3	150.807
47863	150.591
48139.3	150.377
48417.2	150.165
48696.8	149.955
48977.9	149.746
49260.6	149.539
49545	149.334
49831	149.131
50118.7	148.93
50408.1	148.73
50699.1	148.532
50991.8	148.336
51286.1	148.141
51582.2	147.949
51880	147.758
52179.5	147.568
52480.7	147.38
52783.7	147.194
53088.4	147.007
53394.9	146.809
53703.2	146.612
54013.2	146.417
54325	146.224
54638.7	146.032
54954.1	145.842
55271.3	145.654
55590.4	145.467
55911.4	145.281
56234.1	145.098
56558.8	144.916
56885.3	144.735
57213.7	144.556
57544	144.378
57876.2	144.202
58210.3	144.028
58546.4	143.855
58884.4	143.684
59224.3	143.514
59566.2	143.345
59910.1	143.178
60256	143.013
60603.8	142.849
60953.7	142.687
61305.6	142.526
61659.5	142.366
62015.5	142.208
62373.5	142.051
62733.6	141.896
63095.7	141.742
63460	141.59
63826.3	141.439
64194.8	141.29
64565.4	141.142
64938.2	140.995
65313.1	140.849
65690.1	140.706
66069.3	140.563
66450.8	140.422
66834.4	140.282
67220.2	140.143
67608.3	140.006
67998.6	139.871
68391.2	139.736
68786	139.603
69183.1	139.471
69582.5	139.341
69984.2	139.211
70388.2	139.084
70794.6	138.957
71203.3	138.832
71614.3	138.708
72027.8	138.585
72443.6	138.463
72861.8	138.343
73282.5	138.224
73705.5	138.107
74131	137.99
74559	137.875
74989.4	137.761
75422.3	137.648
75857.8	137.537
76295.7	137.426
76736.1	137.317
77179.2	137.209
77624.7	137.103
78072.8	136.997
78523.6	136.893
78976.9	136.79
79432.8	136.688
79891.4	136.587
80352.6	136.487
80816.5	136.389
81283.1	136.291
81752.3	136.195
82224.3	136.1
82699	136.006
83176.4	135.913
83656.6	135.821
84139.5	135.731
84625.3	135.641
85113.8	135.553
85605.2	135.465
86099.4	135.379
86596.4	135.294
87096.4	135.21
87599.2	135.127
88104.9	135.045
88613.5	134.964
89125.1	134.884
89639.6	134.805
90157.1	134.728
90677.6	134.651
91201.1	134.575
91727.6	134.501
92257.1	134.427
92789.7	134.355
93325.4	134.283
93864.2	134.212
94406.1	134.143
94951.1	134.074
95499.3	134.006
96050.6	133.94
96605.1	133.874
97162.8	133.81
97723.7	133.746
98287.9	133.683
98855.3	133.621
99426	133.56
100000	133.5
100577	133.441
101158	133.383
101742	133.326
102329	133.27
102920	133.215
103514	133.161
104112	133.107
104713	133.055
105317	133.003
105925	132.952
106537	132.902
107152	132.853
107771	132.805
108393	132.758
109018	132.712
109648	132.666
110281	132.622
110917	132.578
111558	132.535
112202	132.493
112850	132.452
113501	132.411
114156	132.372
114815	132.333
115478	132.295
116145	132.258
116815	132.222
117490	132.186
118168	132.151
118850	132.117
119536	132.084
120226	132.052
120921	132.021
121619	131.99
122321	131.96
123027	131.931
123737	131.902
124451	131.874
125170	131.847
125893	131.821
126619	131.796
127350	131.771
128086	131.747
128825	131.724
129569	131.701
130317	131.68
131069	131.659
131826	131.638
132587	131.619
133352	131.6
134122	131.581
134896	131.564
135675	131.547
136458	131.531
137246	131.516
138038	131.501
138835	131.487
139637	131.473
140443	131.46
141254	131.448
142069	131.437
142889	131.426
143714	131.416
144544	131.406
145378	131.398
146218	131.389
147062	131.382
147911	131.375
148765	131.369
149624	131.363
150487	131.358
151356	131.353
152230	131.35
153109	131.346
153993	131.344
154882	131.342
155776	131.34
156675	131.339
157580	131.339
158489	131.339
159404	131.34
160325	131.342
161250	131.344
162181	131.346
163117	131.35
164059	131.353
165006	131.358
165959	131.363
166917	131.368
167880	131.374
168850	131.38
169824	131.387
170805	131.395
171791	131.403
172783	131.412
173780	131.421
174783	131.431
175792	131.441
176807	131.451
177828	131.463
178855	131.474
179887	131.487
180926	131.499
181970	131.513
183021	131.526
184077	131.54
185140	131.555
186209	131.57
187284	131.586
188365	131.602
189452	131.619
190546	131.636
191646	131.653
192752	131.671
193865	131.69
194984	131.709
196110	131.728
197242	131.748
198381	131.768
199526	131.789
200678	131.81
201837	131.832
203002	131.854
204174	131.876
205353	131.899
206538	131.922
207730	131.946
208930	131.97
210136	131.995
211349	132.02
212569	132.045
213796	132.071
215030	132.097
216272	132.123
217520	132.15
218776	132.178
220039	132.206
221309	132.234
222587	132.262
223872	132.291
225165	132.32
226464	132.35
227772	132.38
229087	132.411
230409	132.441
231739	132.472
233077	132.504
234423	132.536
235776	132.568
237137	132.601
238506	132.634
239883	132.667
241268	132.7
242661	132.734
244062	132.769
245471	132.803
246888	132.838
248313	132.874
249747	132.909
251189	132.945
252639	132.982
254097	133.018
255564	133.055
257040	133.092
258523	133.13
260016	133.168
261517	133.206
263027	133.244
264545	133.283
266073	133.322
267609	133.362
269153	133.401
270707	133.441
272270	133.482
273842	133.522
275423	133.563
277013	133.604
278612	133.646
280221	133.687
281838	133.729
283465	133.772
285102	133.814
286748	133.857
288403	133.9
290068	133.943
291743	133.987
293427	134.031
295121	134.075
296825	134.119
298538	134.164
300262	134.209
301995	134.254
303739	134.299
305492	134.345
307256	134.391
309030	134.437
310814	134.483
312608	134.53
314413	134.577
316228	134.624
318053	134.671
319890	134.719
321736	134.766
323594	134.814
325462	134.862
327341	134.911
329230	134.959
331131	135.008
333043	135.057
334965	135.107
336899	135.156
338844	135.206
340800	135.256
342768	135.306
344747	135.356
346737	135.407
348739	135.457
350752	135.508
352777	135.56
354813	135.611
356862	135.662
358922	135.714
360994	135.766
363078	135.818
365174	135.87
367282	135.923
369403	135.975
371535	136.028
373680	136.081
375837	136.134
378007	136.188
380189	136.241
382384	136.295
384592	136.349
386812	136.403
389045	136.457
391291	136.511
393550	136.566
395822	136.62
398107	136.675
400405	136.73
402717	136.785
405042	136.841
407380	136.896
409732	136.952
412098	137.007
414477	137.063
416869	137.119
419276	137.176
421697	137.232
424131	137.288
426580	137.345
429042	137.402
431519	137.459
434010	137.516
436516	137.573
439036	137.63
441570	137.688
444120	137.745
446684	137.803
449262	137.861
451856	137.919
454465	137.977
457088	138.035
459727	138.094
462381	138.152
465050	138.211
467735	138.269
470435	138.328
473151	138.387
475883	138.446
478630	138.505
481393	138.565
484172	138.624
486968	138.684
489779	138.743
492606	138.803
495450	138.863
498310	138.923
501187	138.983
504081	139.043
506991	139.103
509918	139.164
512861	139.224
515822	139.285
518800	139.345
521795	139.406
524807	139.467
527837	139.528
530884	139.589
533949	139.65
537032	139.711
540132	139.773
543250	139.834
546387	139.895
549541	139.957
552713	140.019
555904	140.08
559114	140.142
562341	140.204
565588	140.266
568853	140.328
572137	140.39
575440	140.452
578762	140.515
582103	140.577
585464	140.64
588844	140.702
592243	140.765
595662	140.827
599101	140.89
602560	140.953
606038	141.016
609537	141.079
613056	141.142
616595	141.205
620155	141.268
623735	141.331
627336	141.395
630957	141.458
634600	141.521
638263	141.585
641948	141.648
645654	141.712
649382	141.775
653131	141.839
656901	141.903
660693	141.967
664508	142.031
668344	142.095
672202	142.158
676083	142.223
679986	142.287
683912	142.351
687860	142.415
691831	142.479
695825	142.543
699842	142.608
703882	142.672
707946	142.737
712033	142.801
716143	142.866
720278	142.93
724436	142.995
728618	143.059
732825	143.124
737055	143.189
741310	143.254
745590	143.318
749894	143.383
754223	143.448
758578	143.513
762957	143.578
767361	143.643
771792	143.708
776247	143.773
780728	143.838
785236	143.903
789769	143.969
794328	144.034
798914	144.099
803526	144.164
808165	144.23
812831	144.295
817523	144.36
822243	144.426
826990	144.491
831764	144.557
836566	144.622
841395	144.688
846253	144.753
851138	144.819
856052	144.884
860994	144.95
865964	145.016
870964	145.081
875992	145.147
881049	145.213
886135	145.278
891251	145.344
896396	145.41
901571	145.476
906776	145.542
912011	145.607
917276	145.673
922571	145.739
927897	145.805
933254	145.871
938642	145.937
944061	146.003
949511	146.069
954993	146.135
960506	146.201
966051	146.267
971628	146.333
977237	146.399
982879	146.465
988553	146.531
994260	146.597
1e+06	146.663
1.00577e+06	146.729
1.01158e+06	146.795
1.01742e+06	146.861
1.02329e+06	146.928
1.0292e+06	146.994
1.03514e+06	147.06
1.04112e+06	147.126
1.04713e+06	147.192
1.05317e+06	147.258
1.05925e+06	147.325
1.06537e+06	147.391
1.07152e+06	147.457
1.07771e+06	147.523
1.08393e+06	147.589
1.09018e+06	147.656
1.09648e+06	147.722
1.10281e+06	147.788
1.10917e+06	147.854
1.11558e+06	147.92
1.12202e+06	147.987
1.1285e+06	148.053
1.13501e+06	148.119
1.14156e+06	148.185
1.14815e+06	148.252
1.15478e+06	148.318
1.16145e+06	148.384
1.16815e+06	148.451
1.1749e+06	148.517
1.18168e+06	148.583
1.1885e+06	148.649
1.19536e+06	148.716
1.20226e+06	148.782
1.20921e+06	148.848
1.21619e+06	148.914
1.22321e+06	148.981
1.23027e+06	149.047
1.23737e+06	149.113
1.24451e+06	149.179
1.2517e+06	149.246
1.25893e+06	149.312
1.26619e+06	149.378
1.2735e+06	149.444
1.28086e+06	149.511
1.28825e+06	149.577
1.29569e+06	149.643
1.30317e+06	149.709
1.31069e+06	149.776
1.31826e+06	149.842
1.32587e+06	149.908
1.33352e+06	149.974
1.34122e+06	150.04
1.34896e+06	150.107
1.35675e+06	150.173
1.36458e+06	150.239
1.37246e+06	150.305
1.38038e+06	150.371
1.38835e+06	150.438
1.39637e+06	150.504
1.40443e+06	150.57
1.41254e+06	150.636
1.42069e+06	150.702
1.42889e+06	150.768
1.43714e+06	150.834
1.44544e+06	150.901
1.45378e+06	150.967
1.46218e+06	151.033
1.47062e+06	151.099
1.47911e+06	151.165
1.48765e+06	151.231
1.49624e+06	151.297
1.50487e+06	151.363
1.51356e+06	151.429
1.5223e+06	151.495
1.53109e+06	151.561
1.53993e+06	151.627
1.54882e+06	151.693
1.55776e+06	151.759
1.56675e+06	151.825
1.5758e+06	151.891
1.58489e+06	151.957
1.59404e+06	152.023
1.60325e+06	152.089
1.6125e+06	152.155
1.62181e+06	152.221
1.63117e+06	152.287
1.64059e+06	152.353
1.65006e+06	152.418
1.65959e+06	152.484
1.66917e+06	152.55
1.6788e+06	152.616
1.6885e+06	152.682
1.69824e+06	152.747
1.70805e+06	152.813
1.71791e+06	152.879
1.72783e+06	152.945
1.7378e+06	153.01
1.74783e+06	153.076
1.75792e+06	153.142
1.76807e+06	153.208
1.77828e+06	153.273
1.78855e+06	153.339
1.79887e+06	153.405
1.80926e+06	153.47
1.8197e+06	153.536
1.83021e+06	153.601
1.84077e+06	153.667
1.8514e+06	153.733
1.86209e+06	153.798
1.87284e+06	153.864
1.88365e+06	153.929
1.89452e+06	153.995
1.90546e+06	154.06
1.91646e+06	154.126
1.92752e+06	154.191
1.93865e+06	154.256
1.94984e+06	154.322
1.9611e+06	154.387
1.97242e+06	154.453
1.98381e+06	154.518
1.99526e+06	154.583
2.00678e+06	154.649
2.01837e+06	154.714
2.03002e+06	154.779
2.04174e+06	154.844
2.05353e+06	154.91
2.06538e+06	154.975
2.0773e+06	155.04
2.0893e+06	155.105
2.10136e+06	155.17
2.11349e+06	155.236
2.12569e+06	155.301
2.13796e+06	155.366
2.1503e+06	155.431
2.16272e+06	155.496
2.1752e+06	155.561
2.18776e+06	155.626
2.20039e+06	155.691
2.21309e+06	155.756
2.22587e+06	155.821
2.23872e+06	155.886
2.25165e+06	155.951
2.26464e+06	156.016
2.27772e+06	156.081
2.29087e+06	156.145
2.30409e+06	156.21
2.31739e+06	156.275
2.33077e+06	156.34
2.34423e+06	156.405
2.35776e+06	156.469
2.37137e+06	156.534
2.38506e+06	156.599
2.39883e+06	156.664
2.41268e+06	156.728
2.42661e+06	156.793
2.44062e+06	156.857
2.45471e+06	156.922
2.46888e+06	156.987
2.48313e+06	157.051
2.49747e+06	157.116
2.51189e+06	157.18
2.52639e+06	157.245
2.54097e+06	157.309
2.55564e+06	157.374
2.5704e+06	157.438
2.58523e+06	157.502
2.60016e+06	157.567
2.61517e+06	157.631
2.63027e+06	157.696
2.64545e+06	157.76
2.66073e+06	157.824
2.67609e+06	157.888
2.69153e+06	157.953
2.70707e+06	158.017
2.7227e+06	158.081
2.73842e+06	158.145
2.75423e+06	158.209
2.77013e+06	158.274
2.78612e+06	158.338
2.80221e+06	158.402
2.81838e+06	158.466
2.83465e+06	158.53
2.85102e+06	158.594
2.86748e+06	158.658
2.88403e+06	158.722
2.90068e+06	158.786
2.91743e+06	158.85
2.93427e+06	158.913
2.95121e+06	158.977
2.96825e+06	159.041
2.98538e+06	159.105
3.00262e+06	159.169
3.01995e+06	159.233
3.03739e+06	159.296
3.05492e+06	159.36
3.07256e+06	159.424
3.0903e+06	159.487
3.10814e+06	159.551
3.12608e+06	159.615
3.14413e+06	159.678
3.16228e+06	159.742
3.18053e+06	159.805
3.1989e+06	159.869
3.21736e+06	159.932
3.23594e+06	159.996
3.25462e+06	160.059
3.27341e+06	160.123
3.2923e+06	160.186
3.31131e+06	160.249
3.33043e+06	160.313
3.34965e+06	160.376
3.36899e+06	160.439
3.38844e+06	160.503
3.408e+06	160.566
3.42768e+06	160.629
3.44747e+06	160.692
3.46737e+06	160.756
3.48739e+06	160.819
3.50752e+06	160.882
3.52777e+06	160.945
3.54813e+06	161.008
3.56862e+06	161.071
3.58922e+06	161.134
3.60994e+06	161.197
3.63078e+06	161.26
3.65174e+06	161.323
3.67282e+06	161.386
3.69403e+06	161.449
3.71535e+06	161.512
3.7368e+06	161.574
3.75837e+06	161.637
3.78007e+06	161.7
3.80189e+06	161.763
3.82384e+06	161.826
3.84592e+06	161.888
3.86812e+06	161.951
3.89045e+06	162.014
3.91291e+06	162.076
3.9355e+06	162.139
3.95822e+06	162.201
3.98107e+06	162.264
4.00405e+06	162.326
4.02717e+06	162.389
4.05042e+06	162.451
4.0738e+06	162.514
4.09732e+06	162.576
4.12098e+06	162.639
4.14477e+06	162.701
4.16869e+06	162.763
4.19276e+06	162.826
4.21697e+06	162.888
4.24131e+06	162.95
4.2658e+06	163.012
4.29042e+06	163.075
4.31519e+06	163.137
4.3401e+06	163.199
4.36516e+06	163.261
4.39036e+06	163.323
4.4157e+06	163.385
4.4412e+06	163.447
4.46684e+06	163.509
4.49262e+06	163.571
4.51856e+06	163.633
4.54465e+06	163.695
4.57088e+06	163.757
4.59727e+06	163.819
4.62381e+06	163.881
4.6505e+06	163.943
4.67735e+06	164.005
4.70435e+06	164.066
4.73151e+06	164.128
4.75883e+06	164.19
4.7863e+06	164.251
4.81393e+06	164.313
4.84172e+06	164.375
4.86968e+06	164.436
4.89779e+06	164.498
4.92606e+06	164.56
4.9545e+06	164.621
4.9831e+06	164.683
5.01187e+06	164.744
5.04081e+06	164.806
5.06991e+06	164.867
5.09918e+06	164.928
5.12861e+06	164.99
5.15822e+06	165.051
5.188e+06	165.112
5.21795e+06	165.174
5.24807e+06	165.235
5.27837e+06	165.296
5.30884e+06	165.357
5.33949e+06	165.418
5.37032e+06	165.48
5.40132e+06	165.541
5.4325e+06	165.602
5.46387e+06	165.663
5.49541e+06	165.724
5.52713e+06	165.785
5.55904e+06	165.846
5.59114e+06	165.907
5.62341e+06	165.968
5.65588e+06	166.029
5.68853e+06	166.09
5.72137e+06	166.15
5.7544e+06	166.211
5.78762e+06	166.272
5.82103e+06	166.333
5.85464e+06	166.394
5.88844e+06	166.454
5.92243e+06	166.515
5.95662e+06	166.576
5.99101e+06	166.636
6.0256e+06	166.697
6.06038e+06	166.757
6.09537e+06	166.818
6.13056e+06	166.878
6.16595e+06	166.939
6.20155e+06	166.999
6.23735e+06	167.06
6.27336e+06	167.12
6.30957e+06	167.181
6.346e+06	167.241
6.38263e+06	167.301
6.41948e+06	167.361
6.45654e+06	167.422
6.49382e+06	167.482
6.53131e+06	167.542
6.56901e+06	167.602
6.60693e+06	167.662
6.64508e+06	167.723
6.68344e+06	167.783
6.72202e+06	167.843
6.76083e+06	167.903
6.79986e+06	167.963
6.83912e+06	168.023
6.8786e+06	168.083
6.91831e+06	168.143
6.95825e+06	168.202
6.99842e+06	168.262
7.03882e+06	168.322
7.07946e+06	168.382
7.12033e+06	168.442
7.16143e+06	168.501
7.20278e+06	168.561
7.24436e+06	168.621
7.28618e+06	168.681
7.32825e+06	168.74
7.37055e+06	168.8
7.4131e+06	168.859
7.4559e+06	168.919
7.49894e+06	168.978
7.54223e+06	169.038
7.58578e+06	169.097
7.62957e+06	169.157
7.67361e+06	169.216
7.71792e+06	169.276
7.76247e+06	169.335
7.80728e+06	169.394
7.85236e+06	169.453
7.89769e+06	169.513
7.94328e+06	169.572
7.98914e+06	169.631
8.03526e+06	169.69
8.08165e+06	169.749
8.12831e+06	169.809
8.17523e+06	169.868
8.22243e+06	169.927
8.2699e+06	169.986
8.31764e+06	170.045
8.36566e+06	170.104
8.41395e+06	170.163
8.46253e+06	170.222
8.51138e+06	170.28
8.56052e+06	170.339
8.60994e+06	170.398
8.65964e+06	170.457
8.70964e+06	170.516
8.75992e+06	170.574
8.81049e+06	170.633
8.86135e+06	170.692
8.91251e+06	170.75
8.96396e+06	170.809
9.01571e+06	170.868
9.06776e+06	170.926
9.12011e+06	170.985
9.17276e+06	171.043
9.22571e+06	171.102
9.27897e+06	171.16
9.33254e+06	171.218
9.38642e+06	171.277
9.44061e+06	171.335
9.49511e+06	171.394
9.54993e+06	171.452
9.60506e+06	171.51
9.66051e+06	171.568
9.71628e+06	171.627
9.77237e+06	171.685
9.82879e+06	171.743
9.88553e+06	171.801
9.9426e+06	171.859
1e+07	171.917
