Stopping power dEdx from Ionisation for Mn55[0.0] Z = 25 in G4_Si, process name: ionIoni
E [MeV]	dEdx [MeV/mm]
0.001	30.3568
0.00100577	30.445
0.00101158	30.5334
0.00101742	30.6221
0.00102329	30.711
0.0010292	30.8002
0.00103514	30.8897
0.00104112	30.9794
0.00104713	31.0693
0.00105317	31.1596
0.00105925	31.25
0.00106537	31.3408
0.00107152	31.4318
0.00107771	31.5231
0.00108393	31.6146
0.00109018	31.7064
0.00109648	31.7985
0.00110281	31.8908
0.00110917	31.9834
0.00111558	32.0763
0.00112202	32.1694
0.0011285	32.2628
0.00113501	32.3565
0.00114156	32.4504
0.00114815	32.5446
0.00115478	32.6391
0.00116145	32.7338
0.00116815	32.8289
0.0011749	32.9242
0.00118168	33.0197
0.0011885	33.1156
0.00119536	33.2117
0.00120226	33.3081
0.00120921	33.4048
0.00121619	33.5018
0.00122321	33.599
0.00123027	33.6965
0.00123737	33.7943
0.00124451	33.8924
0.0012517	33.9908
0.00125893	34.0894
0.00126619	34.1884
0.0012735	34.2876
0.00128086	34.3871
0.00128825	34.4869
0.00129569	34.5869
0.00130317	34.6873
0.00131069	34.788
0.00131826	34.8889
0.00132587	34.9901
0.00133352	35.0917
0.00134122	35.1935
0.00134896	35.2956
0.00135675	35.398
0.00136458	35.5007
0.00137246	35.6037
0.00138038	35.707
0.00138835	35.8106
0.00139637	35.9145
0.00140443	36.0187
0.00141254	36.1232
0.00142069	36.228
0.00142889	36.3331
0.00143714	36.4385
0.00144544	36.5442
0.00145378	36.6502
0.00146218	36.7565
0.00147062	36.8631
0.00147911	36.9701
0.00148765	37.0773
0.00149624	37.1849
0.00150487	37.2927
0.00151356	37.4009
0.0015223	37.5094
0.00153109	37.6181
0.00153993	37.7272
0.00154882	37.8367
0.00155776	37.9464
0.00156675	38.0564
0.0015758	38.1668
0.00158489	38.2775
0.00159404	38.3885
0.00160325	38.4998
0.0016125	38.6115
0.00162181	38.7234
0.00163117	38.8357
0.00164059	38.9483
0.00165006	39.0613
0.00165959	39.1745
0.00166917	39.2881
0.0016788	39.4021
0.0016885	39.5163
0.00169824	39.6309
0.00170805	39.7458
0.00171791	39.861
0.00172783	39.9766
0.0017378	40.0925
0.00174783	40.2087
0.00175792	40.3253
0.00176807	40.4422
0.00177828	40.5594
0.00178855	40.677
0.00179887	40.795
0.00180926	40.9132
0.0018197	41.0318
0.00183021	41.1508
0.00184077	41.27
0.0018514	41.3897
0.00186209	41.5096
0.00187284	41.63
0.00188365	41.7506
0.00189452	41.8717
0.00190546	41.993
0.00191646	42.1147
0.00192752	42.2368
0.00193865	42.3592
0.00194984	42.482
0.0019611	42.6051
0.00197242	42.7286
0.00198381	42.8524
0.00199526	42.9766
0.00200678	43.1012
0.00201837	43.2261
0.00203002	43.3513
0.00204174	43.477
0.00205353	43.603
0.00206538	43.7293
0.0020773	43.856
0.0020893	43.9831
0.00210136	44.1106
0.00211349	44.2384
0.00212569	44.3666
0.00213796	44.4951
0.0021503	44.624
0.00216272	44.7533
0.0021752	44.883
0.00218776	45.0131
0.00220039	45.1435
0.00221309	45.2743
0.00222587	45.4054
0.00223872	45.537
0.00225165	45.6689
0.00226464	45.8012
0.00227772	45.9339
0.00229087	46.067
0.00230409	46.2005
0.00231739	46.3343
0.00233077	46.4685
0.00234423	46.6031
0.00235776	46.7381
0.00237137	46.8735
0.00238506	47.0093
0.00239883	47.1455
0.00241268	47.2821
0.00242661	47.419
0.00244062	47.5564
0.00245471	47.6941
0.00246888	47.8323
0.00248313	47.9708
0.00249747	48.1097
0.00251189	48.2491
0.00252639	48.3888
0.00254097	48.529
0.00255564	48.6695
0.0025704	48.8105
0.00258523	48.9519
0.00260016	49.0936
0.00261517	49.2358
0.00263027	49.3784
0.00264545	49.5214
0.00266073	49.6648
0.00267609	49.8087
0.00269153	49.9529
0.00270707	50.0976
0.0027227	50.2426
0.00273842	50.3881
0.00275423	50.534
0.00277013	50.6804
0.00278612	50.8271
0.00280221	50.9743
0.00281838	51.1219
0.00283465	51.2699
0.00285102	51.4184
0.00286748	51.5673
0.00288403	51.7166
0.00290068	51.8663
0.00291743	52.0165
0.00293427	52.1671
0.00295121	52.3181
0.00296825	52.4696
0.00298538	52.6215
0.00300262	52.7739
0.00301995	52.9267
0.00303739	53.0799
0.00305492	53.2336
0.00307256	53.3877
0.0030903	53.5422
0.00310814	53.6972
0.00312608	53.8527
0.00314413	54.0086
0.00316228	54.1649
0.00318053	54.3217
0.0031989	54.479
0.00321736	54.6367
0.00323594	54.7948
0.00325462	54.9534
0.00327341	55.1125
0.0032923	55.272
0.00331131	55.432
0.00333043	55.5925
0.00334965	55.7534
0.00336899	55.9148
0.00338844	56.0766
0.003408	56.2389
0.00342768	56.4017
0.00344747	56.5649
0.00346737	56.7287
0.00348739	56.8928
0.00350752	57.0575
0.00352777	57.2226
0.00354813	57.3883
0.00356862	57.5543
0.00358922	57.7209
0.00360994	57.888
0.00363078	58.0555
0.00365174	58.2235
0.00367282	58.392
0.00369403	58.561
0.00371535	58.7304
0.0037368	58.9004
0.00375837	59.0709
0.00378007	59.2418
0.00380189	59.4132
0.00382384	59.5852
0.00384592	59.7576
0.00386812	59.9305
0.00389045	60.1039
0.00391291	60.2778
0.0039355	60.4522
0.00395822	60.6272
0.00398107	60.8026
0.00400405	60.9785
0.00402717	61.155
0.00405042	61.3319
0.0040738	61.5094
0.00409732	61.6873
0.00412098	61.8658
0.00414477	62.0448
0.00416869	62.2243
0.00419276	62.4043
0.00421697	62.5849
0.00424131	62.766
0.0042658	62.9475
0.00429042	63.1297
0.00431519	63.3123
0.0043401	63.4955
0.00436516	63.6791
0.00439036	63.8634
0.0044157	64.0481
0.0044412	64.2334
0.00446684	64.4192
0.00449262	64.6056
0.00451856	64.7925
0.00454465	64.9799
0.00457088	65.1679
0.00459727	65.3564
0.00462381	65.5454
0.0046505	65.735
0.00467735	65.9252
0.00470435	66.1159
0.00473151	66.3071
0.00475883	66.4989
0.0047863	66.6913
0.00481393	66.8842
0.00484172	67.0776
0.00486968	67.2717
0.00489779	67.4662
0.00492606	67.6614
0.0049545	67.8571
0.0049831	68.0533
0.00501187	68.2502
0.00504081	68.4476
0.00506991	68.6455
0.00509918	68.8441
0.00512861	69.0432
0.00515822	69.2429
0.005188	69.4431
0.00521795	69.644
0.00524807	69.8454
0.00527837	70.0474
0.00530884	70.2499
0.00533949	70.4531
0.00537032	70.6568
0.00540132	70.8612
0.0054325	71.0661
0.00546387	71.2716
0.00549541	71.4777
0.00552713	71.6844
0.00555904	71.8917
0.00559114	72.0996
0.00562341	72.3081
0.00565588	72.5172
0.00568853	72.7269
0.00572137	72.9372
0.0057544	73.1481
0.00578762	73.3596
0.00582103	73.5717
0.00585464	73.7845
0.00588844	73.9978
0.00592243	74.2118
0.00595662	74.4264
0.00599101	74.6416
0.0060256	74.8574
0.00606038	75.0738
0.00609537	75.2909
0.00613056	75.5086
0.00616595	75.7269
0.00620155	75.9459
0.00623735	76.1654
0.00627336	76.3856
0.00630957	76.6065
0.006346	76.828
0.00638263	77.0501
0.00641948	77.2729
0.00645654	77.4963
0.00649382	77.7203
0.00653131	77.945
0.00656901	78.1703
0.00660693	78.3963
0.00664508	78.623
0.00668344	78.8503
0.00672202	79.0782
0.00676083	79.3068
0.00679986	79.5361
0.00683912	79.766
0.0068786	79.9966
0.00691831	80.2279
0.00695825	80.4598
0.00699842	80.6924
0.00703882	80.9256
0.00707946	81.1596
0.00712033	81.3942
0.00716143	81.6295
0.00720278	81.8654
0.00724436	82.1021
0.00728618	82.3394
0.00732825	82.5774
0.00737055	82.8161
0.0074131	83.0555
0.0074559	83.2955
0.00749894	83.5363
0.00754223	83.7778
0.00758578	84.0199
0.00762957	84.2628
0.00767361	84.5063
0.00771792	84.7506
0.00776247	84.9955
0.00780728	85.2412
0.00785236	85.4876
0.00789769	85.7347
0.00794328	85.9824
0.00798914	86.231
0.00803526	86.4802
0.00808165	86.7301
0.00812831	86.9808
0.00817523	87.2322
0.00822243	87.4843
0.0082699	87.7371
0.00831764	87.9907
0.00836566	88.245
0.00841395	88.5
0.00846253	88.7558
0.00851138	89.0123
0.00856052	89.2695
0.00860994	89.5275
0.00865964	89.7862
0.00870964	90.0457
0.00875992	90.3059
0.00881049	90.5669
0.00886135	90.8286
0.00891251	91.0911
0.00896396	91.3543
0.00901571	91.6183
0.00906776	91.8831
0.00912011	92.1486
0.00917276	92.4149
0.00922571	92.6819
0.00927897	92.9497
0.00933254	93.2183
0.00938642	93.4877
0.00944061	94.2469
0.00949511	94.5185
0.00954993	94.7909
0.00960506	95.064
0.00966051	95.3379
0.00971628	95.6127
0.00977237	95.8882
0.00982879	96.1645
0.00988553	96.4416
0.0099426	96.7195
0.01	96.9982
0.0100577	97.2778
0.0101158	97.5581
0.0101742	97.8392
0.0102329	98.1211
0.010292	98.4039
0.0103514	98.6874
0.0104112	98.9718
0.0104713	99.257
0.0105317	99.543
0.0105925	99.8299
0.0106537	100.118
0.0107152	100.406
0.0107771	100.695
0.0108393	100.986
0.0109018	101.277
0.0109648	101.568
0.0110281	101.861
0.0110917	102.155
0.0111558	102.449
0.0112202	102.744
0.011285	103.04
0.0113501	103.337
0.0114156	103.635
0.0114815	103.934
0.0115478	104.233
0.0116145	104.533
0.0116815	104.835
0.011749	105.137
0.0118168	105.44
0.011885	105.744
0.0119536	106.048
0.0120226	106.354
0.0120921	106.66
0.0121619	106.968
0.0122321	107.276
0.0123027	107.585
0.0123737	107.895
0.0124451	108.206
0.012517	108.518
0.0125893	108.83
0.0126619	109.144
0.012735	109.459
0.0128086	109.774
0.0128825	110.09
0.0129569	110.407
0.0130317	110.726
0.0131069	111.045
0.0131826	111.365
0.0132587	111.686
0.0133352	112.007
0.0134122	112.33
0.0134896	112.654
0.0135675	112.978
0.0136458	113.304
0.0137246	113.63
0.0138038	113.958
0.0138835	114.286
0.0139637	114.616
0.0140443	114.946
0.0141254	115.277
0.0142069	115.609
0.0142889	115.942
0.0143714	116.276
0.0144544	116.611
0.0145378	116.947
0.0146218	117.284
0.0147062	117.622
0.0147911	117.961
0.0148765	118.301
0.0149624	118.642
0.0150487	118.984
0.0151356	119.327
0.015223	119.671
0.0153109	120.015
0.0153993	120.361
0.0154882	120.708
0.0155776	121.056
0.0156675	121.405
0.015758	121.755
0.0158489	122.105
0.0159404	122.457
0.0160325	122.81
0.016125	123.164
0.0162181	123.519
0.0163117	123.875
0.0164059	124.232
0.0165006	124.59
0.0165959	124.949
0.0166917	125.309
0.016788	125.67
0.016885	126.032
0.0169824	126.395
0.0170805	126.759
0.0171791	127.124
0.0172783	127.491
0.017378	127.858
0.0174783	128.227
0.0175792	128.596
0.0176807	128.967
0.0177828	129.338
0.0178855	129.711
0.0179887	130.085
0.0180926	130.459
0.018197	130.835
0.0183021	131.212
0.0184077	131.59
0.018514	131.969
0.0186209	132.35
0.0187284	132.731
0.0188365	133.114
0.0189452	133.497
0.0190546	133.882
0.0191646	134.267
0.0192752	134.654
0.0193865	135.042
0.0194984	135.431
0.019611	135.822
0.0197242	136.213
0.0198381	136.605
0.0199526	136.999
0.0200678	137.394
0.0201837	137.79
0.0203002	138.187
0.0204174	138.585
0.0205353	138.984
0.0206538	139.385
0.020773	139.786
0.020893	140.189
0.0210136	140.593
0.0211349	140.998
0.0212569	141.404
0.0213796	141.812
0.021503	142.22
0.0216272	142.63
0.021752	143.041
0.0218776	143.453
0.0220039	143.867
0.0221309	144.281
0.0222587	144.697
0.0223872	145.114
0.0225165	145.532
0.0226464	145.951
0.0227772	146.372
0.0229087	146.793
0.0230409	147.216
0.0231739	147.64
0.0233077	148.066
0.0234423	148.492
0.0235776	148.92
0.0237137	149.349
0.0238506	149.78
0.0239883	150.211
0.0241268	150.644
0.0242661	151.078
0.0244062	151.513
0.0245471	151.95
0.0246888	152.388
0.0248313	152.827
0.0249747	153.267
0.0251189	153.709
0.0252639	154.152
0.0254097	154.596
0.0255564	155.041
0.025704	155.488
0.0258523	155.936
0.0260016	156.385
0.0261517	156.836
0.0263027	157.288
0.0264545	157.741
0.0266073	158.195
0.0267609	158.651
0.0269153	159.108
0.0270707	159.566
0.027227	160.026
0.0273842	160.487
0.0275423	160.95
0.0277013	161.413
0.0278612	161.878
0.0280221	162.345
0.0281838	162.813
0.0283465	163.282
0.0285102	163.752
0.0286748	164.224
0.0288403	164.697
0.0290068	165.172
0.0291743	165.647
0.0293427	166.125
0.0295121	166.603
0.0296825	167.083
0.0298538	167.565
0.0300262	168.047
0.0301995	168.532
0.0303739	169.017
0.0305492	169.504
0.0307256	169.992
0.030903	170.482
0.0310814	170.973
0.0312608	171.466
0.0314413	171.96
0.0316228	172.455
0.0318053	172.952
0.031989	173.451
0.0321736	173.95
0.0323594	174.451
0.0325462	174.954
0.0327341	175.458
0.032923	175.964
0.0331131	176.471
0.0333043	176.979
0.0334965	177.489
0.0336899	178
0.0338844	178.513
0.03408	179.027
0.0342768	179.543
0.0344747	180.06
0.0346737	180.579
0.0348739	181.099
0.0350752	181.621
0.0352777	182.144
0.0354813	182.669
0.0356862	183.195
0.0358922	183.723
0.0360994	184.252
0.0363078	184.783
0.0365174	185.316
0.0367282	185.85
0.0369403	186.385
0.0371535	186.922
0.037368	187.46
0.0375837	188
0.0378007	188.542
0.0380189	189.085
0.0382384	189.63
0.0384592	190.176
0.0386812	190.724
0.0389045	191.274
0.0391291	191.825
0.039355	192.377
0.0395822	192.932
0.0398107	193.487
0.0400405	194.045
0.0402717	194.604
0.0405042	195.164
0.040738	195.727
0.0409732	196.291
0.0412098	196.856
0.0414477	197.423
0.0416869	197.992
0.0419276	198.562
0.0421697	199.134
0.0424131	199.708
0.042658	200.283
0.0429042	200.86
0.0431519	201.439
0.043401	202.019
0.0436516	202.601
0.0439036	203.185
0.044157	203.77
0.044412	204.357
0.0446684	204.946
0.0449262	205.536
0.0451856	206.129
0.0454465	206.722
0.0457088	207.318
0.0459727	207.915
0.0462381	208.514
0.046505	209.115
0.0467735	209.717
0.0470435	210.321
0.0473151	210.927
0.0475883	211.535
0.047863	212.144
0.0481393	212.755
0.0484172	213.368
0.0486968	213.983
0.0489779	214.599
0.0492606	215.218
0.049545	215.838
0.049831	216.459
0.0501187	217.083
0.0504081	217.708
0.0506991	218.335
0.0509918	218.964
0.0512861	219.595
0.0515822	220.228
0.05188	220.862
0.0521795	221.498
0.0524807	222.136
0.0527837	222.776
0.0530884	223.418
0.0533949	224.062
0.0537032	224.707
0.0540132	225.354
0.054325	226.004
0.0546387	226.655
0.0549541	227.307
0.0552713	227.962
0.0555904	228.619
0.0559114	229.278
0.0562341	229.938
0.0565588	230.6
0.0568853	231.265
0.0572137	231.931
0.057544	232.599
0.0578762	233.269
0.0582103	233.941
0.0585464	234.615
0.0588844	235.291
0.0592243	235.968
0.0595662	236.648
0.0599101	237.33
0.060256	238.013
0.0606038	238.699
0.0609537	239.387
0.0613056	240.076
0.0616595	240.768
0.0620155	241.461
0.0623735	242.157
0.0627336	242.854
0.0630957	243.554
0.06346	244.255
0.0638263	244.959
0.0641948	245.665
0.0645654	246.372
0.0649382	247.082
0.0653131	247.794
0.0656901	248.507
0.0660693	249.223
0.0664508	249.941
0.0668344	250.661
0.0672202	251.383
0.0676083	252.107
0.0679986	252.833
0.0683912	253.562
0.068786	254.292
0.0691831	255.024
0.0695825	255.759
0.0699842	256.496
0.0703882	257.235
0.0707946	257.976
0.0712033	258.719
0.0716143	259.464
0.0720278	260.211
0.0724436	260.961
0.0728618	261.712
0.0732825	262.466
0.0737055	263.222
0.074131	263.98
0.074559	264.741
0.0749894	265.503
0.0754223	266.268
0.0758578	267.035
0.0762957	267.804
0.0767361	268.575
0.0771792	269.349
0.0776247	270.125
0.0780728	270.903
0.0785236	271.683
0.0789769	272.466
0.0794328	273.25
0.0798914	274.038
0.0803526	274.827
0.0808165	275.618
0.0812831	276.412
0.0817523	277.208
0.0822243	278.007
0.082699	278.808
0.0831764	279.611
0.0836566	280.416
0.0841395	281.224
0.0846253	282.034
0.0851138	282.846
0.0856052	283.661
0.0860994	284.478
0.0865964	285.297
0.0870964	286.119
0.0875992	286.943
0.0881049	287.769
0.0886135	288.598
0.0891251	289.429
0.0896396	290.263
0.0901571	291.099
0.0906776	291.937
0.0912011	292.778
0.0917276	293.621
0.0922571	294.467
0.0927897	295.315
0.0933254	296.166
0.0938642	297.019
0.0944061	297.874
0.0949511	298.732
0.0954993	299.592
0.0960506	300.455
0.0966051	301.321
0.0971628	302.188
0.0977237	303.059
0.0982879	303.931
0.0988553	304.807
0.099426	305.685
0.1	306.565
0.100577	307.448
0.101158	308.333
0.101742	309.221
0.102329	310.112
0.10292	311.005
0.103514	311.901
0.104112	312.799
0.104713	313.7
0.105317	314.603
0.105925	315.509
0.106537	316.418
0.107152	317.329
0.107771	318.243
0.108393	319.16
0.109018	320.079
0.109648	321.001
0.110281	321.925
0.110917	322.852
0.111558	323.782
0.112202	324.715
0.11285	325.65
0.113501	326.588
0.114156	327.528
0.114815	328.471
0.115478	329.417
0.116145	330.366
0.116815	331.317
0.11749	332.272
0.118168	333.228
0.11885	334.188
0.119536	335.151
0.120226	336.116
0.120921	337.084
0.121619	338.054
0.122321	339.028
0.123027	340.004
0.123737	340.983
0.124451	341.965
0.12517	342.95
0.125893	343.938
0.126619	344.928
0.12735	345.921
0.128086	346.918
0.128825	347.917
0.129569	348.919
0.130317	349.923
0.131069	350.931
0.131826	351.942
0.132587	352.955
0.133352	353.972
0.134122	354.991
0.134896	356.013
0.135675	357.038
0.136458	358.066
0.137246	359.098
0.138038	360.132
0.138835	361.169
0.139637	362.209
0.140443	363.252
0.141254	364.298
0.142069	365.347
0.142889	366.399
0.143714	367.454
0.144544	368.512
0.145378	369.573
0.146218	370.637
0.147062	371.705
0.147911	372.775
0.148765	373.848
0.149624	374.925
0.150487	376.005
0.151356	377.087
0.15223	378.173
0.153109	379.262
0.153993	380.354
0.154882	381.449
0.155776	382.548
0.156675	383.649
0.15758	384.754
0.158489	385.862
0.159404	386.973
0.160325	388.087
0.16125	389.205
0.162181	390.325
0.163117	391.449
0.164059	392.576
0.165006	393.707
0.165959	394.84
0.166917	395.977
0.16788	397.117
0.16885	398.261
0.169824	399.408
0.170805	400.558
0.171791	401.711
0.172783	402.868
0.17378	404.028
0.174783	405.191
0.175792	406.358
0.176807	407.528
0.177828	408.701
0.178855	409.878
0.179887	411.058
0.180926	412.241
0.18197	413.428
0.183021	414.619
0.184077	415.812
0.18514	417.01
0.186209	418.21
0.187284	419.414
0.188365	420.622
0.189452	421.833
0.190546	423.048
0.191646	424.266
0.192752	425.487
0.193865	426.712
0.194984	427.941
0.19611	429.173
0.197242	430.408
0.198381	431.648
0.199526	432.89
0.200678	434.137
0.201837	435.387
0.203002	436.64
0.204174	437.897
0.205353	439.158
0.206538	440.422
0.20773	441.69
0.20893	442.962
0.210136	444.237
0.211349	445.516
0.212569	446.799
0.213796	448.085
0.21503	449.375
0.216272	450.669
0.21752	451.966
0.218776	453.268
0.220039	454.573
0.221309	455.881
0.222587	457.194
0.223872	458.51
0.225165	459.83
0.226464	461.154
0.227772	462.481
0.229087	463.813
0.230409	465.148
0.231739	466.487
0.233077	467.83
0.234423	469.177
0.235776	470.527
0.237137	471.882
0.238506	473.24
0.239883	474.603
0.241268	475.969
0.242661	477.339
0.244062	478.713
0.245471	480.092
0.246888	481.474
0.248313	482.86
0.249747	484.25
0.251189	485.644
0.252639	487.042
0.254097	488.444
0.255564	489.85
0.25704	491.26
0.258523	492.674
0.260016	494.092
0.261517	495.515
0.263027	496.941
0.264545	498.372
0.266073	499.806
0.267609	501.245
0.269153	502.688
0.270707	504.135
0.27227	505.586
0.273842	507.041
0.275423	508.501
0.277013	509.965
0.278612	511.432
0.280221	512.905
0.281838	514.381
0.283465	515.862
0.285102	517.347
0.286748	518.836
0.288403	520.329
0.290068	521.827
0.291743	523.329
0.293427	524.835
0.295121	526.346
0.296825	527.861
0.298538	529.38
0.300262	530.904
0.301995	532.432
0.303739	533.965
0.305492	535.502
0.307256	537.043
0.30903	538.589
0.310814	540.139
0.312608	541.694
0.314413	543.253
0.316228	544.816
0.318053	546.385
0.31989	547.957
0.321736	549.534
0.323594	551.116
0.325462	552.702
0.327341	554.293
0.32923	555.888
0.331131	557.488
0.333043	559.093
0.334965	560.702
0.336899	562.316
0.338844	563.934
0.3408	565.557
0.342768	567.185
0.344747	568.817
0.346737	570.455
0.348739	572.096
0.350752	573.743
0.352777	575.394
0.354813	577.05
0.356862	578.711
0.358922	580.376
0.360994	582.047
0.363078	583.722
0.365174	585.402
0.367282	587.087
0.369403	588.776
0.371535	590.471
0.37368	592.17
0.375837	593.874
0.378007	595.583
0.380189	597.297
0.382384	599.016
0.384592	600.74
0.386812	602.469
0.389045	604.203
0.391291	605.941
0.39355	607.685
0.395822	609.434
0.398107	611.188
0.400405	612.947
0.402717	614.711
0.405042	616.48
0.40738	618.254
0.409732	620.033
0.412098	621.817
0.414477	623.606
0.416869	625.401
0.419276	627.201
0.421697	629.005
0.424131	630.816
0.42658	632.631
0.429042	634.451
0.431519	636.277
0.43401	638.108
0.436516	639.944
0.439036	641.786
0.44157	643.632
0.44412	645.484
0.446684	647.342
0.449262	649.204
0.451856	651.073
0.454465	652.946
0.457088	654.825
0.459727	656.709
0.462381	658.599
0.46505	660.494
0.467735	662.394
0.470435	664.3
0.473151	666.212
0.475883	668.128
0.47863	670.051
0.481393	671.979
0.484172	673.912
0.486968	675.851
0.489779	677.796
0.492606	679.746
0.49545	681.702
0.49831	683.663
0.501187	685.63
0.504081	687.603
0.506991	689.582
0.509918	691.566
0.512861	693.555
0.515822	695.551
0.5188	697.552
0.521795	699.559
0.524807	701.572
0.527837	703.59
0.530884	705.614
0.533949	707.645
0.537032	709.68
0.540132	711.722
0.54325	713.77
0.546387	715.823
0.549541	717.883
0.552713	719.948
0.555904	722.019
0.559114	724.097
0.562341	726.18
0.565588	728.269
0.568853	730.364
0.572137	732.465
0.57544	734.572
0.578762	736.686
0.582103	738.805
0.585464	740.93
0.588844	743.062
0.592243	745.2
0.595662	747.343
0.599101	749.493
0.60256	751.649
0.606038	753.812
0.609537	755.98
0.613056	758.155
0.616595	760.336
0.620155	762.523
0.623735	764.717
0.627336	766.916
0.630957	769.122
0.6346	771.335
0.638263	773.554
0.641948	775.779
0.645654	778.01
0.649382	780.248
0.653131	782.493
0.656901	784.744
0.660693	787.001
0.664508	789.265
0.668344	791.535
0.672202	793.812
0.676083	796.095
0.679986	798.385
0.683912	800.682
0.68786	802.985
0.691831	805.294
0.695825	807.611
0.699842	809.933
0.703882	812.263
0.707946	814.599
0.712033	816.942
0.716143	819.292
0.720278	821.649
0.724436	824.012
0.728618	826.382
0.732825	828.759
0.737055	831.142
0.74131	833.533
0.74559	835.93
0.749894	838.334
0.754223	840.745
0.758578	843.163
0.762957	845.588
0.767361	848.02
0.771792	850.459
0.776247	852.905
0.780728	855.358
0.785236	857.818
0.789769	860.285
0.794328	862.759
0.798914	865.241
0.803526	867.729
0.808165	870.224
0.812831	872.727
0.817523	875.237
0.822243	877.754
0.82699	880.278
0.831764	882.81
0.836566	885.348
0.841395	887.894
0.846253	890.448
0.851138	893.008
0.856052	895.576
0.860994	898.152
0.865964	900.735
0.870964	903.325
0.875992	905.922
0.881049	908.527
0.886135	911.14
0.891251	913.76
0.896396	916.388
0.901571	919.023
0.906776	921.665
0.912011	924.316
0.917276	926.973
0.922571	929.639
0.927897	932.312
0.933254	934.993
0.938642	937.681
0.944061	940.377
0.949511	943.081
0.954993	945.793
0.960506	948.512
0.966051	951.24
0.971628	953.975
0.977237	956.718
0.982879	959.468
0.988553	962.227
0.99426	964.994
1	967.768
1.00577	970.551
1.01158	973.341
1.01742	976.14
1.02329	978.946
1.0292	981.761
1.03514	984.583
1.04112	987.414
1.04713	990.253
1.05317	993.1
1.05925	995.955
1.06537	998.818
1.07152	1001.69
1.07771	1004.57
1.08393	1007.46
1.09018	1010.35
1.09648	1013.26
1.10281	1016.17
1.10917	1019.09
1.11558	1022.02
1.12202	1024.96
1.1285	1027.91
1.13501	1030.86
1.14156	1033.83
1.14815	1036.8
1.15478	1039.78
1.16145	1042.77
1.16815	1045.76
1.1749	1048.77
1.18168	1051.78
1.1885	1054.81
1.19536	1057.84
1.20226	1060.88
1.20921	1063.93
1.21619	1066.99
1.22321	1070.06
1.23027	1073.13
1.23737	1076.22
1.24451	1079.31
1.2517	1082.41
1.25893	1085.52
1.26619	1088.64
1.2735	1091.77
1.28086	1094.91
1.28825	1098.06
1.29569	1101.21
1.30317	1104.38
1.31069	1107.55
1.31826	1110.74
1.32587	1113.93
1.33352	1117.13
1.34122	1120.34
1.34896	1123.56
1.35675	1126.79
1.36458	1130.03
1.37246	1133.28
1.38038	1136.95
1.38835	1140.85
1.39637	1144.77
1.40443	1148.7
1.41254	1152.67
1.42069	1156.65
1.42889	1160.65
1.43714	1164.67
1.44544	1168.72
1.45378	1172.79
1.46218	1176.88
1.47062	1180.99
1.47911	1185.12
1.48765	1189.27
1.49624	1193.45
1.50487	1197.64
1.51356	1201.86
1.5223	1206.1
1.53109	1210.36
1.53993	1214.65
1.54882	1218.95
1.55776	1223.28
1.56675	1227.63
1.5758	1232
1.58489	1236.39
1.59404	1240.81
1.60325	1245.25
1.6125	1249.7
1.62181	1254.19
1.63117	1258.69
1.64059	1263.21
1.65006	1267.76
1.65959	1272.12
1.66917	1276.49
1.6788	1280.89
1.6885	1285.31
1.69824	1289.75
1.70805	1294.21
1.71791	1298.69
1.72783	1303.19
1.7378	1307.71
1.74783	1312.25
1.75792	1316.82
1.76807	1321.4
1.77828	1326
1.78855	1330.63
1.79887	1335.27
1.80926	1339.94
1.8197	1344.62
1.83021	1349.33
1.84077	1354.05
1.8514	1358.8
1.86209	1363.56
1.87284	1368.35
1.88365	1373.16
1.89452	1377.98
1.90546	1382.83
1.91646	1387.69
1.92752	1392.57
1.93865	1397.48
1.94984	1402.4
1.9611	1407.34
1.97242	1412.3
1.98381	1417.28
1.99526	1422.28
2.00678	1427.3
2.01837	1432.33
2.03002	1437.39
2.04174	1442.46
2.05353	1447.55
2.06538	1452.65
2.0773	1457.78
2.0893	1462.92
2.10136	1468.08
2.11349	1473.25
2.12569	1478.45
2.13796	1483.65
2.1503	1488.88
2.16272	1494.12
2.1752	1499.38
2.18776	1504.65
2.20039	1509.94
2.21309	1515.18
2.22587	1520.44
2.23872	1525.72
2.25165	1531
2.26464	1536.31
2.27772	1541.63
2.29087	1546.96
2.30409	1552.31
2.31739	1557.67
2.33077	1563.05
2.34423	1568.44
2.35776	1573.84
2.37137	1579.26
2.38506	1584.7
2.39883	1590.15
2.41268	1595.61
2.42661	1601.09
2.44062	1606.58
2.45471	1612.09
2.46888	1617.61
2.48313	1623.15
2.49747	1628.7
2.51189	1634.27
2.52639	1639.85
2.54097	1645.44
2.55564	1651.05
2.5704	1656.68
2.58523	1662.31
2.60016	1667.97
2.61517	1673.63
2.63027	1679.32
2.64545	1685.01
2.66073	1690.73
2.67609	1696.45
2.69153	1702.19
2.70707	1707.95
2.7227	1713.72
2.73842	1719.51
2.75423	1725.3
2.77013	1731.12
2.78612	1736.94
2.80221	1742.79
2.81838	1748.64
2.83465	1754.51
2.85102	1760.4
2.86748	1766.3
2.88403	1772.22
2.90068	1778.14
2.91743	1784.09
2.93427	1790.05
2.95121	1796.02
2.96825	1802.01
2.98538	1808.01
3.00262	1814.02
3.01995	1820.06
3.03739	1826.1
3.05492	1832.16
3.07256	1838.23
3.0903	1844.32
3.10814	1850.42
3.12608	1856.53
3.14413	1862.66
3.16228	1868.81
3.18053	1874.96
3.1989	1881.13
3.21736	1887.32
3.23594	1893.52
3.25462	1899.73
3.27341	1905.96
3.2923	1912.2
3.31131	1918.45
3.33043	1924.72
3.34965	1931
3.36899	1937.3
3.38844	1943.61
3.408	1949.93
3.42768	1956.27
3.44747	1962.62
3.46737	1968.99
3.48739	1975.37
3.50752	1981.77
3.52777	1988.18
3.54813	1994.61
3.56862	2001.05
3.58922	2007.51
3.60994	2013.98
3.63078	2020.47
3.65174	2026.97
3.67282	2033.49
3.69403	2040.02
3.71535	2046.57
3.7368	2053.14
3.75837	2059.73
3.78007	2066.33
3.80189	2072.95
3.82384	2079.58
3.84592	2086.24
3.86812	2092.91
3.89045	2099.6
3.91291	2106.3
3.9355	2113.03
3.95822	2119.78
3.98107	2126.54
4.00405	2133.33
4.02717	2140.13
4.05042	2146.96
4.0738	2153.81
4.09732	2160.67
4.12098	2167.57
4.14477	2174.48
4.16869	2181.42
4.19276	2188.38
4.21697	2195.36
4.24131	2202.38
4.2658	2209.41
4.29042	2216.47
4.31519	2223.56
4.3401	2230.68
4.36516	2237.82
4.39036	2244.99
4.4157	2252.19
4.4412	2259.43
4.46684	2266.69
4.49262	2273.98
4.51856	2281.3
4.54465	2288.66
4.57088	2296.05
4.59727	2303.47
4.62381	2310.93
4.6505	2318.42
4.67735	2325.94
4.70435	2333.5
4.73151	2341.1
4.75883	2348.73
4.7863	2356.4
4.81393	2364.11
4.84172	2371.86
4.86968	2379.65
4.89779	2387.48
4.92606	2395.35
4.9545	2403.26
4.9831	2411.22
5.01187	2419.21
5.04081	2427.26
5.06991	2435.34
5.09918	2443.47
5.12861	2451.64
5.15822	2459.85
5.188	2468.11
5.21795	2476.41
5.24807	2484.76
5.27837	2493.14
5.30884	2501.57
5.33949	2510.05
5.37032	2518.57
5.40132	2527.13
5.4325	2535.73
5.46387	2544.38
5.49541	2553.07
5.52713	2561.8
5.55904	2570.58
5.59114	2579.4
5.62341	2588.27
5.65588	2597.17
5.68853	2606.12
5.72137	2615.12
5.7544	2624.15
5.78762	2633.23
5.82103	2642.35
5.85464	2651.51
5.88844	2660.72
5.92243	2669.97
5.95662	2679.26
5.99101	2688.59
6.0256	2697.97
6.06038	2707.38
6.09537	2716.84
6.13056	2726.34
6.16595	2735.88
6.20155	2745.46
6.23735	2755.09
6.27336	2764.75
6.30957	2774.45
6.346	2784.2
6.38263	2793.98
6.41948	2803.8
6.45654	2813.67
6.49382	2823.57
6.53131	2833.51
6.56901	2843.49
6.60693	2853.51
6.64508	2863.56
6.68344	2873.65
6.72202	2883.78
6.76083	2893.95
6.79986	2904.15
6.83912	2914.39
6.8786	2924.66
6.91831	2934.97
6.95825	2945.31
6.99842	2955.69
7.03882	2966.1
7.07946	2976.55
7.12033	2987.02
7.16143	2997.53
7.20278	3008.07
7.24436	3018.64
7.28618	3029.24
7.32825	3039.87
7.37055	3050.52
7.4131	3061.21
7.4559	3071.92
7.49894	3082.66
7.54223	3093.43
7.58578	3104.22
7.62957	3115.04
7.67361	3125.88
7.71792	3136.74
7.76247	3147.62
7.80728	3158.52
7.85236	3169.45
7.89769	3180.39
7.94328	3191.35
7.98914	3202.33
8.03526	3213.32
8.08165	3224.33
8.12831	3235.36
8.17523	3246.39
8.22243	3257.44
8.2699	3268.48
8.31764	3279.51
8.36566	3290.55
8.41395	3301.6
8.46253	3312.66
8.51138	3323.73
8.56052	3334.8
8.60994	3345.88
8.65964	3356.97
8.70964	3368.06
8.75992	3379.17
8.81049	3390.27
8.86135	3401.39
8.91251	3412.51
8.96396	3423.63
9.01571	3434.76
9.06776	3445.89
9.12011	3457.03
9.17276	3468.17
9.22571	3479.32
9.27897	3490.46
9.33254	3501.61
9.38642	3512.77
9.44061	3523.92
9.49511	3535.08
9.54993	3546.24
9.60506	3557.4
9.66051	3568.56
9.71628	3579.73
9.77237	3590.89
9.82879	3602.05
9.88553	3613.22
9.9426	3624.38
10	3635.54
10.0577	3646.7
10.1158	3657.86
10.1742	3669.01
10.2329	3680.17
10.292	3691.32
10.3514	3702.47
10.4112	3713.62
10.4713	3724.76
10.5317	3735.9
10.5925	3747.04
10.6537	3758.17
10.7152	3769.3
10.7771	3780.43
10.8393	3791.54
10.9018	3802.66
10.9648	3813.77
11.0281	3824.89
11.0917	3836.02
11.1558	3847.14
11.2202	3858.26
11.285	3869.37
11.3501	3880.48
11.4156	3891.57
11.4815	3902.67
11.5478	3913.75
11.6145	3924.82
11.6815	3935.89
11.749	3946.94
11.8168	3957.99
11.885	3969.03
11.9536	3980.06
12.0226	3991.08
12.0921	4002.09
12.1619	4013.09
12.2321	4024.07
12.3027	4035.05
12.3737	4046.01
12.4451	4056.97
12.517	4067.91
12.5893	4078.84
12.6619	4089.76
12.735	4100.66
12.8086	4111.56
12.8825	4122.44
12.9569	4133.3
13.0317	4144.16
13.1069	4155
13.1826	4165.83
13.2587	4176.64
13.3352	4187.44
13.4122	4198.23
13.4896	4209
13.5675	4219.76
13.6458	4230.51
13.7246	4241.24
13.8038	4251.96
13.8835	4262.67
13.9637	4273.36
14.0443	4284.03
14.1254	4294.7
14.2069	4305.34
14.2889	4315.98
14.3714	4326.59
14.4544	4337.19
14.5378	4347.77
14.6218	4358.34
14.7062	4368.89
14.7911	4379.43
14.8765	4389.94
14.9624	4400.44
15.0487	4410.93
15.1356	4421.39
15.223	4431.84
15.3109	4442.27
15.3993	4452.68
15.4882	4463.07
15.5776	4473.45
15.6675	4483.81
15.758	4494.15
15.8489	4504.47
15.9404	4514.77
16.0325	4525.06
16.125	4535.33
16.2181	4545.58
16.3117	4555.81
16.4059	4566.02
16.5006	4576.22
16.5959	4586.41
16.6917	4596.59
16.788	4606.74
16.885	4616.88
16.9824	4627
17.0805	4637.1
17.1791	4647.18
17.2783	4657.25
17.378	4667.29
17.4783	4677.31
17.5792	4687.31
17.6807	4697.29
17.7828	4707.25
17.8855	4717.19
17.9887	4727.11
18.0926	4737.01
18.197	4746.89
18.3021	4756.74
18.4077	4766.58
18.514	4776.39
18.6209	4786.18
18.7284	4795.95
18.8365	4805.69
18.9452	4815.42
19.0546	4825.12
19.1646	4834.8
19.2752	4844.46
19.3865	4854.1
19.4984	4863.71
19.611	4873.3
19.7242	4882.88
19.8381	4892.43
19.9526	4901.95
20.0678	4911.46
20.1837	4920.95
20.3002	4930.41
20.4174	4939.86
20.5353	4949.28
20.6538	4958.69
20.773	4968.07
20.893	4977.44
21.0136	4986.78
21.1349	4996.11
21.2569	5005.42
21.3796	5014.71
21.503	5023.99
21.6272	5033.25
21.752	5042.49
21.8776	5051.72
22.0039	5060.93
22.1309	5070.07
22.2587	5079.2
22.3872	5088.32
22.5165	5097.42
22.6464	5106.5
22.7772	5115.57
22.9087	5124.62
23.0409	5133.66
23.1739	5142.67
23.3077	5151.67
23.4423	5160.66
23.5776	5169.62
23.7137	5178.57
23.8506	5187.49
23.9883	5196.4
24.1268	5205.29
24.2661	5214.16
24.4062	5223.01
24.5471	5231.84
24.6888	5240.64
24.8313	5249.43
24.9747	5258.2
25.1189	5266.94
25.2639	5275.66
25.4097	5284.37
25.5564	5293.04
25.704	5301.7
25.8523	5310.33
26.0016	5318.95
26.1517	5327.53
26.3027	5336.1
26.4545	5344.64
26.6073	5353.16
26.7609	5361.65
26.9153	5370.12
27.0707	5378.57
27.227	5387
27.3842	5395.4
27.5423	5403.77
27.7013	5412.14
27.8612	5420.48
28.0221	5428.8
28.1838	5437.09
28.3465	5445.36
28.5102	5453.59
28.6748	5461.81
28.8403	5469.99
29.0068	5478.15
29.1743	5486.28
29.3427	5494.38
29.5121	5502.46
29.6825	5510.5
29.8538	5518.51
30.0262	5526.5
30.1995	5534.46
30.3739	5542.38
30.5492	5550.27
30.7256	5558.14
30.903	5565.97
31.0814	5573.77
31.2608	5581.53
31.4413	5589.27
31.6228	5596.97
31.8053	5604.64
31.989	5612.28
32.1736	5619.88
32.3594	5627.45
32.5462	5634.98
32.7341	5642.48
32.923	5649.95
33.1131	5657.38
33.3043	5664.78
33.4965	5672.14
33.6899	5679.46
33.8844	5686.75
34.08	5694
34.2768	5701.22
34.4747	5708.39
34.6737	5715.53
34.8739	5722.63
35.0752	5729.69
35.2777	5736.71
35.4813	5743.69
35.6862	5750.62
35.8922	5757.52
36.0994	5764.37
36.3078	5771.18
36.5174	5777.95
36.7282	5784.67
36.9403	5791.35
37.1535	5797.99
37.368	5804.58
37.5837	5811.13
37.8007	5817.63
38.0189	5824.08
38.2384	5830.49
38.4592	5836.85
38.6812	5843.16
38.9045	5849.43
39.1291	5855.65
39.355	5861.82
39.5822	5867.94
39.8107	5874.01
40.0405	5880.03
40.2717	5886
40.5042	5891.92
40.738	5897.79
40.9732	5903.61
41.2098	5909.37
41.4477	5915.08
41.6869	5920.74
41.9276	5926.34
42.1697	5931.89
42.4131	5937.39
42.658	5942.83
42.9042	5948.21
43.1519	5953.54
43.401	5958.81
43.6516	5964.03
43.9036	5969.19
44.157	5974.3
44.412	5979.34
44.6684	5984.33
44.9262	5989.26
45.1856	5994.13
45.4465	5998.94
45.7088	6003.7
45.9727	6008.39
46.2381	6013.02
46.505	6017.59
46.7735	6022.1
47.0435	6026.55
47.3151	6030.93
47.5883	6035.25
47.863	6039.51
48.1393	6043.71
48.4172	6047.84
48.6968	6051.9
48.9779	6055.91
49.2606	6059.85
49.545	6063.72
49.831	6067.53
50.1187	6071.27
50.4081	6074.95
50.6991	6078.56
50.9918	6082.1
51.2861	6085.58
51.5822	6089
51.88	6092.35
52.1795	6095.63
52.4807	6098.85
52.7837	6102.01
53.0884	6105.09
53.3949	6108.12
53.7032	6111.08
54.0132	6113.97
54.325	6116.8
54.6387	6119.57
54.9541	6122.28
55.2713	6124.93
55.5904	6127.53
55.9114	6130.06
56.2341	6132.53
56.5588	6134.93
56.8853	6137.27
57.2137	6139.54
57.544	6141.75
57.8762	6143.89
58.2103	6145.96
58.5464	6147.97
58.8844	6149.9
59.2243	6151.77
59.5662	6153.58
59.9101	6155.31
60.256	6156.97
60.6038	6158.56
60.9537	6160.09
61.3056	6161.54
61.6595	6162.92
62.0155	6164.23
62.3735	6165.47
62.7336	6166.64
63.0957	6167.74
63.46	6168.76
63.8263	6169.71
64.1948	6170.59
64.5654	6171.4
64.9382	6172.13
65.3131	6172.8
65.6901	6173.39
66.0693	6173.9
66.4508	6174.34
66.8344	6174.71
67.2202	6175.01
67.6083	6175.24
67.9986	6175.39
68.3912	6175.46
68.786	6175.47
69.1831	6175.4
69.5825	6175.26
69.9842	6175.05
70.3882	6174.77
70.7946	6174.42
71.2033	6173.99
71.6143	6173.49
72.0278	6172.93
72.4436	6172.29
72.8618	6171.58
73.2825	6170.81
73.7055	6169.97
74.131	6169.06
74.559	6168.08
74.9894	6167.03
75.4223	6165.92
75.8578	6164.75
76.2957	6163.51
76.7361	6162.21
77.1792	6160.84
77.6247	6159.42
78.0728	6157.93
78.5236	6156.39
78.9769	6154.79
79.4328	6153.13
79.8914	6151.42
80.3526	6149.65
80.8165	6147.83
81.2831	6145.96
81.7523	6144.04
82.2243	6142.07
82.699	6139.99
83.1764	6137.76
83.6566	6135.48
84.1395	6133.16
84.6253	6130.78
85.1138	6128.37
85.6052	6125.9
86.0994	6123.39
86.5964	6120.83
87.0964	6118.22
87.5992	6115.57
88.1049	6112.86
88.6135	6110.11
89.1251	6107.31
89.6396	6104.46
90.1571	6101.56
90.6776	6098.61
91.2011	6095.61
91.7276	6092.56
92.2571	6089.47
92.7897	6086.32
93.3254	6083.12
93.8642	6079.87
94.4061	6076.58
94.9511	6073.23
95.4993	6069.83
96.0506	6066.38
96.6051	6062.88
97.1628	6059.33
97.7237	6055.73
98.2879	6052.08
98.8553	6048.38
99.426	6044.62
100	6040.82
100.577	6036.97
101.158	6033.06
101.742	6029.11
102.329	6025.1
102.92	6021.04
103.514	6016.94
104.112	6012.78
104.713	6008.57
105.317	6004.32
105.925	6000.01
106.537	5995.65
107.152	5991.25
107.771	5986.8
108.393	5982.29
109.018	5977.74
109.648	5973.14
110.281	5968.5
110.917	5963.83
111.558	5959.1
112.202	5954.33
112.85	5949.52
113.501	5944.65
114.156	5939.74
114.815	5934.78
115.478	5929.77
116.145	5924.72
116.815	5919.62
117.49	5914.47
118.168	5909.28
118.85	5904.04
119.536	5898.75
120.226	5893.42
120.921	5888.05
121.619	5882.62
122.321	5877.15
123.027	5871.64
123.737	5866.09
124.451	5860.48
125.17	5854.84
125.893	5849.15
126.619	5843.42
127.35	5837.65
128.086	5831.83
128.825	5825.97
129.569	5820.07
130.317	5814.13
131.069	5808.15
131.826	5802.14
132.587	5796.08
133.352	5789.98
134.122	5783.85
134.896	5777.68
135.675	5771.47
136.458	5765.23
137.246	5758.96
138.038	5752.65
138.835	5746.3
139.637	5739.93
140.443	5733.52
141.254	5727.08
142.069	5720.6
142.889	5714.09
143.714	5707.55
144.544	5700.97
145.378	5694.37
146.218	5687.73
147.062	5681.05
147.911	5674.35
148.765	5667.61
149.624	5660.84
150.487	5654.03
151.356	5647.2
152.23	5640.33
153.109	5633.43
153.993	5626.5
154.882	5619.54
155.776	5612.54
156.675	5605.52
157.58	5598.46
158.489	5591.38
159.404	5584.26
160.325	5577.11
161.25	5569.93
162.181	5562.73
163.117	5555.49
164.059	5548.22
165.006	5540.93
165.959	5533.6
166.917	5526.25
167.88	5518.87
168.85	5511.46
169.824	5504.02
170.805	5496.56
171.791	5489.06
172.783	5481.54
173.78	5473.99
174.783	5466.41
175.792	5458.8
176.807	5451.17
177.828	5443.51
178.855	5435.82
179.887	5428.1
180.926	5420.35
181.97	5412.58
183.021	5404.78
184.077	5396.95
185.14	5389.1
186.209	5381.22
187.284	5373.31
188.365	5365.37
189.452	5357.41
190.546	5349.43
191.646	5341.41
192.752	5333.37
193.865	5325.31
194.984	5317.22
196.11	5309.1
197.242	5300.96
198.381	5292.79
199.526	5284.6
200.678	5276.39
201.837	5268.15
203.002	5259.88
204.174	5251.59
205.353	5243.28
206.538	5234.95
207.73	5226.59
208.93	5218.21
210.136	5209.8
211.349	5201.38
212.569	5192.93
213.796	5184.46
215.03	5175.97
216.272	5167.46
217.52	5158.92
218.776	5150.37
220.039	5141.8
221.309	5133.21
222.587	5124.61
223.872	5115.99
225.165	5107.35
226.464	5098.69
227.772	5090.01
229.087	5081.31
230.409	5072.6
231.739	5063.86
233.077	5055.11
234.423	5046.34
235.776	5037.55
237.137	5028.74
238.506	5019.91
239.883	5011.07
241.268	5002.21
242.661	4993.33
244.062	4984.43
245.471	4975.52
246.888	4966.59
248.313	4957.64
249.747	4948.67
251.189	4939.69
252.639	4930.7
254.097	4921.68
255.564	4912.65
257.04	4903.61
258.523	4894.54
260.016	4885.47
261.517	4876.37
263.027	4867.26
264.545	4858.14
266.073	4849
267.609	4839.85
269.153	4830.68
270.707	4821.49
272.27	4812.3
273.842	4803.08
275.423	4793.86
277.013	4784.61
278.612	4775.35
280.221	4766.08
281.838	4756.79
283.465	4747.49
285.102	4738.17
286.748	4728.85
288.403	4719.51
290.068	4710.16
291.743	4700.79
293.427	4691.41
295.121	4682.02
296.825	4672.62
298.538	4663.21
300.262	4653.78
301.995	4644.34
303.739	4634.89
305.492	4625.43
307.256	4615.96
309.03	4606.48
310.814	4596.98
312.608	4587.48
314.413	4577.96
316.228	4568.43
318.053	4558.9
319.89	4549.35
321.736	4539.79
323.594	4530.22
325.462	4520.65
327.341	4511.06
329.23	4501.46
331.131	4491.85
333.043	4482.24
334.965	4472.61
336.899	4462.98
338.844	4453.33
340.8	4443.68
342.768	4434.02
344.747	4424.35
346.737	4414.67
348.739	4404.98
350.752	4395.29
352.777	4385.58
354.813	4375.87
356.862	4366.16
358.922	4356.43
360.994	4346.7
363.078	4336.96
365.174	4327.22
367.282	4317.46
369.403	4307.7
371.535	4297.94
373.68	4288.17
375.837	4278.39
378.007	4268.6
380.189	4258.81
382.384	4249.01
384.592	4239.21
386.812	4229.4
389.045	4219.59
391.291	4209.77
393.55	4199.95
395.822	4190.12
398.107	4180.29
400.405	4170.45
402.717	4160.61
405.042	4150.76
407.38	4140.91
409.732	4131.05
412.098	4121.19
414.477	4111.33
416.869	4101.46
419.276	4091.59
421.697	4081.72
424.131	4071.85
426.58	4061.97
429.042	4052.09
431.519	4042.2
434.01	4032.31
436.516	4022.42
439.036	4012.53
441.57	4002.64
444.12	3992.74
446.684	3982.84
449.262	3972.94
451.856	3963.04
454.465	3953.13
457.088	3943.23
459.727	3933.32
462.381	3923.41
465.05	3913.5
467.735	3903.59
470.435	3893.68
473.151	3883.77
475.883	3873.86
478.63	3863.95
481.393	3854.04
484.172	3844.13
486.968	3834.23
489.779	3824.32
492.606	3814.41
495.45	3804.5
498.31	3794.59
501.187	3784.69
504.081	3774.78
506.991	3764.88
509.918	3754.98
512.861	3745.08
515.822	3735.18
518.8	3725.28
521.795	3715.39
524.807	3705.49
527.837	3695.6
530.884	3685.71
533.949	3675.83
537.032	3665.94
540.132	3656.06
543.25	3646.18
546.387	3636.3
549.541	3626.42
552.713	3616.54
555.904	3606.66
559.114	3596.78
562.341	3586.9
565.588	3577.03
568.853	3567.16
572.137	3557.3
575.44	3547.43
578.762	3537.58
582.103	3527.73
585.464	3517.88
588.844	3508.04
592.243	3498.2
595.662	3488.37
599.101	3478.54
602.56	3468.73
606.038	3458.91
609.537	3449.11
613.056	3439.31
616.595	3429.52
620.155	3419.73
623.735	3409.96
627.336	3400.19
630.957	3390.43
634.6	3380.67
638.263	3370.93
641.948	3361.19
645.654	3351.47
649.382	3341.75
653.131	3332.04
656.901	3322.34
660.693	3312.65
664.508	3302.97
668.344	3293.3
672.202	3283.64
676.083	3273.98
679.986	3264.34
683.912	3254.71
687.86	3245.09
691.831	3235.48
695.825	3225.88
699.842	3216.28
703.882	3206.7
707.946	3197.13
712.033	3187.57
716.143	3178.02
720.278	3168.48
724.436	3158.95
728.618	3149.43
732.825	3139.92
737.055	3130.42
741.31	3120.93
745.59	3111.45
749.894	3101.97
754.223	3092.51
758.578	3083.06
762.957	3073.61
767.361	3064.18
771.792	3054.75
776.247	3045.33
780.728	3035.92
785.236	3026.52
789.769	3017.12
794.328	3007.73
798.914	2998.34
803.526	2988.97
808.165	2979.59
812.831	2970.23
817.523	2960.86
822.243	2951.5
826.99	2942.2
831.764	2932.99
836.566	2923.77
841.395	2914.57
846.253	2905.37
851.138	2896.17
856.052	2886.98
860.994	2877.79
865.964	2868.61
870.964	2859.44
875.992	2850.27
881.049	2841.12
886.135	2831.97
891.251	2822.82
896.396	2813.69
901.571	2804.56
906.776	2795.45
912.011	2786.34
917.276	2777.24
922.571	2768.16
927.897	2759.08
933.254	2750.01
938.642	2740.96
944.061	2731.92
949.511	2722.88
954.993	2713.86
960.506	2704.86
966.051	2695.86
971.628	2686.88
977.237	2677.91
982.879	2668.96
988.553	2660.02
994.26	2651.09
1000	2642.18
1005.77	2633.28
1011.58	2624.4
1017.42	2615.53
1023.29	2606.68
1029.2	2597.85
1035.14	2589.03
1041.12	2580.22
1047.13	2571.44
1053.17	2562.67
1059.25	2553.92
1065.37	2545.18
1071.52	2536.46
1077.71	2527.76
1083.93	2519.08
1090.18	2510.42
1096.48	2501.78
1102.81	2493.13
1109.17	2484.49
1115.58	2475.87
1122.02	2467.27
1128.5	2458.68
1135.01	2450.12
1141.56	2441.57
1148.15	2433.05
1154.78	2424.54
1161.45	2416.06
1168.15	2407.59
1174.9	2399.14
1181.68	2390.72
1188.5	2382.31
1195.36	2373.93
1202.26	2365.57
1209.21	2357.22
1216.19	2348.9
1223.21	2340.6
1230.27	2332.32
1237.37	2324.06
1244.51	2315.82
1251.7	2307.6
1258.93	2299.4
1266.19	2291.22
1273.5	2283.06
1280.86	2274.92
1288.25	2266.8
1295.69	2258.7
1303.17	2250.63
1310.69	2242.57
1318.26	2234.53
1325.87	2226.51
1333.52	2218.5
1341.22	2210.52
1348.96	2202.55
1356.75	2194.61
1364.58	2186.67
1372.46	2178.76
1380.38	2170.86
1388.35	2162.98
1396.37	2155.11
1404.43	2147.26
1412.54	2139.43
1420.69	2131.62
1428.89	2123.82
1437.14	2116.04
1445.44	2108.28
1453.78	2100.54
1462.18	2092.81
1470.62	2085.11
1479.11	2077.42
1487.65	2069.75
1496.24	2062.1
1504.87	2054.47
1513.56	2046.86
1522.3	2039.27
1531.09	2031.69
1539.93	2024.14
1548.82	2016.61
1557.76	2009.09
1566.75	2001.6
1575.8	1994.12
1584.89	1986.67
1594.04	1979.23
1603.25	1971.81
1612.5	1964.42
1621.81	1957.04
1631.17	1949.68
1640.59	1942.34
1650.06	1935.02
1659.59	1927.71
1669.17	1920.42
1678.8	1913.15
1688.5	1905.89
1698.24	1898.66
1708.05	1891.45
1717.91	1884.26
1727.83	1877.08
1737.8	1869.93
1747.83	1862.8
1757.92	1855.69
1768.07	1848.61
1778.28	1841.54
1788.55	1834.5
1798.87	1827.47
1809.26	1820.47
1819.7	1813.5
1830.21	1806.54
1840.77	1799.61
1851.4	1792.7
1862.09	1785.81
1872.84	1778.94
1883.65	1772.1
1894.52	1765.27
1905.46	1758.47
1916.46	1751.7
1927.52	1744.94
1938.65	1738.21
1949.84	1731.5
1961.1	1724.82
1972.42	1718.15
1983.81	1711.51
1995.26	1704.89
2006.78	1698.29
2018.37	1691.71
2030.02	1685.16
2041.74	1678.62
2053.53	1672.11
2065.38	1665.62
2077.3	1659.15
2089.3	1652.69
2101.36	1646.26
2113.49	1639.85
2125.69	1633.46
2137.96	1627.08
2150.3	1620.73
2162.72	1614.39
2175.2	1608.07
2187.76	1601.76
2200.39	1595.48
2213.09	1589.25
2225.87	1583.03
2238.72	1576.83
2251.65	1570.65
2264.64	1564.49
2277.72	1558.34
2290.87	1552.21
2304.09	1546.1
2317.39	1540
2330.77	1533.93
2344.23	1527.87
2357.76	1521.83
2371.37	1515.81
2385.06	1509.81
2398.83	1503.82
2412.68	1497.86
2426.61	1491.91
2440.62	1485.99
2454.71	1480.08
2468.88	1474.19
2483.13	1468.33
2497.47	1462.48
2511.89	1456.66
2526.39	1450.85
2540.97	1445.06
2555.64	1439.3
2570.4	1433.56
2585.23	1427.83
2600.16	1422.13
2615.17	1416.45
2630.27	1410.78
2645.45	1405.14
2660.73	1399.52
2676.09	1393.92
2691.53	1388.34
2707.07	1382.78
2722.7	1377.25
2738.42	1371.73
2754.23	1366.23
2770.13	1360.74
2786.12	1355.27
2802.21	1349.83
2818.38	1344.4
2834.65	1339
2851.02	1333.61
2867.48	1328.25
2884.03	1322.91
2900.68	1317.59
2917.43	1312.29
2934.27	1307.01
2951.21	1301.75
2968.25	1296.51
2985.38	1291.29
3002.62	1286.1
3019.95	1280.92
3037.39	1275.77
3054.92	1270.64
3072.56	1265.53
3090.3	1260.43
3108.14	1255.36
3126.08	1250.31
3144.13	1245.28
3162.28	1240.27
3180.53	1235.28
3198.9	1230.31
3217.36	1225.35
3235.94	1220.42
3254.62	1215.51
3273.41	1210.61
3292.3	1205.73
3311.31	1200.87
3330.43	1196.03
3349.65	1191.2
3368.99	1186.39
3388.44	1181.6
3408	1176.83
3427.68	1172.08
3447.47	1167.34
3467.37	1162.63
3487.39	1157.93
3507.52	1153.25
3527.77	1148.58
3548.13	1143.94
3568.62	1139.32
3589.22	1134.71
3609.94	1130.12
3630.78	1125.55
3651.74	1121
3672.82	1116.47
3694.03	1111.96
3715.35	1107.46
3736.8	1102.99
3758.37	1098.53
3780.07	1094.09
3801.89	1089.67
3823.84	1085.26
3845.92	1080.88
3868.12	1076.51
3890.45	1072.16
3912.91	1067.82
3935.5	1063.51
3958.22	1059.21
3981.07	1054.93
4004.05	1050.67
4027.17	1046.42
4050.42	1042.2
4073.8	1037.99
4097.32	1033.8
4120.98	1029.63
4144.77	1025.47
4168.69	1021.33
4192.76	1017.21
4216.97	1013.11
4241.31	1009.03
4265.8	1004.96
4290.42	1000.91
4315.19	996.878
4340.1	992.862
4365.16	988.863
4390.36	984.88
4415.7	980.914
4441.2	976.964
4466.84	973.031
4492.62	969.114
4518.56	965.213
4544.65	961.329
4570.88	957.462
4597.27	953.612
4623.81	949.778
4650.5	945.961
4677.35	942.16
4704.35	938.377
4731.51	934.61
4758.83	930.86
4786.3	927.126
4813.93	923.409
4841.72	919.709
4869.68	916.025
4897.79	912.357
4926.06	908.706
4954.5	905.071
4983.1	901.453
5011.87	897.85
5040.81	894.263
5069.91	890.692
5099.18	887.137
5128.61	883.597
5158.22	880.073
5188	876.565
5217.95	873.071
5248.07	869.593
5278.37	866.129
5308.84	862.68
5339.49	859.245
5370.32	855.825
5401.32	852.418
5432.5	849.025
5463.87	845.645
5495.41	842.278
5527.13	838.917
5559.04	835.569
5591.14	832.233
5623.41	828.91
5655.88	825.6
5688.53	822.304
5721.37	819.021
5754.4	815.751
5787.62	812.496
5821.03	809.254
5854.64	806.027
5888.44	802.813
5922.43	799.614
5956.62	796.43
5991.01	793.26
6025.6	790.104
6060.38	786.964
6095.37	783.838
6130.56	780.727
6165.95	777.632
6201.55	774.552
6237.35	771.487
6273.36	768.437
6309.57	765.403
6346	762.385
6382.63	759.382
6419.48	756.394
6456.54	753.423
6493.82	750.467
6531.31	747.527
6569.01	744.602
6606.93	741.694
6645.08	738.801
6683.44	735.924
6722.02	733.063
6760.83	730.218
6799.86	727.388
6839.12	724.574
6878.6	721.776
6918.31	718.993
6958.25	716.226
6998.42	713.474
7038.82	710.738
7079.46	708.017
7120.33	705.311
7161.43	702.619
7202.78	699.943
7244.36	697.281
7286.18	694.634
7328.25	692.001
7370.55	689.382
7413.1	686.777
7455.9	684.186
7498.94	681.608
7542.23	679.043
7585.78	676.491
7629.57	673.951
7673.61	671.424
7717.92	668.908
7762.47	666.404
7807.28	663.911
7852.36	661.429
7897.69	658.769
7943.28	656.102
7989.14	653.447
8035.26	650.802
8081.65	648.168
8128.31	645.543
8175.23	642.928
8222.43	640.321
8269.9	637.752
8317.64	635.234
8365.66	632.724
8413.95	630.222
8462.53	627.729
8511.38	625.244
8560.52	622.768
8609.94	620.3
8659.64	617.842
8709.64	615.392
8759.92	612.951
8810.49	610.52
8861.35	608.098
8912.51	605.685
8963.96	603.282
9015.71	600.888
9067.76	598.504
9120.11	596.13
9172.76	593.766
9225.71	591.411
9278.97	589.067
9332.54	586.734
9386.42	584.41
9440.61	582.097
9495.11	579.794
9549.93	577.502
9605.06	575.221
9660.51	572.95
9716.28	570.69
9772.37	568.441
9828.79	566.204
9885.53	563.977
9942.6	561.761
10000	559.557
10057.7	557.364
10115.8	555.182
10174.2	553.012
10232.9	550.853
10292	548.706
10351.4	546.57
10411.2	544.446
10471.3	542.334
10531.7	540.234
10592.5	538.145
10653.7	536.068
10715.2	534.003
10777.1	531.949
10839.3	529.908
10901.8	527.879
10964.8	525.861
11028.1	523.85
11091.7	521.845
11155.8	519.851
11220.2	517.869
11285	515.899
11350.1	513.941
11415.6	511.995
11481.5	510.061
11547.8	508.139
11614.5	506.229
11681.5	504.33
11749	502.444
11816.8	500.569
11885	498.706
11953.6	496.855
12022.6	495.016
12092.1	493.188
12161.9	491.371
12232.1	489.567
12302.7	487.773
12373.7	485.991
12445.1	484.22
12517	482.46
12589.3	480.712
12661.9	478.974
12735	477.247
12808.6	475.53
12882.5	473.824
12956.9	472.128
13031.7	470.443
13106.9	468.767
13182.6	467.101
13258.7	465.444
13335.2	463.797
13412.2	462.158
13489.6	460.529
13567.5	458.908
13645.8	457.295
13724.6	455.691
13803.8	454.093
13883.5	452.503
13963.7	450.921
14044.3	449.346
14125.4	447.779
14206.9	446.219
14288.9	444.668
14371.4	443.124
14454.4	441.588
14537.8	440.06
14621.8	438.54
14706.2	437.028
14791.1	435.524
14876.5	434.027
14962.4	432.539
15048.7	431.059
15135.6	429.586
15223	428.122
15310.9	426.665
15399.3	425.216
15488.2	423.775
15577.6	422.343
15667.5	420.918
15758	419.5
15848.9	418.091
15940.4	416.689
16032.5	415.295
16125	413.909
16218.1	412.53
16311.7	411.159
16405.9	409.796
16500.6	408.439
16595.9	407.087
16691.7	405.743
16788	404.405
16885	403.076
16982.4	401.753
17080.5	400.438
17179.1	399.131
17278.3	397.831
17378	396.539
17478.3	395.255
17579.2	393.978
17680.7	392.708
17782.8	391.447
17885.5	390.193
17988.7	388.947
18092.6	387.708
18197	386.477
18302.1	385.254
18407.7	384.039
18514	382.831
18620.9	381.631
18728.4	380.439
18836.5	379.254
18945.2	378.077
19054.6	376.907
19164.6	375.745
19275.2	374.591
19386.5	373.444
19498.4	372.304
19611	371.172
19724.2	370.047
19838.1	368.929
19952.6	367.818
20067.8	366.715
20183.7	365.618
20300.2	364.528
20417.4	363.446
20535.3	362.369
20653.8	361.3
20773	360.237
20893	359.18
21013.6	358.129
21134.9	357.084
21256.9	356.046
21379.6	355.013
21503	353.985
21627.2	352.963
21752	351.946
21877.6	350.934
22003.9	349.927
22130.9	348.934
22258.7	347.946
22387.2	346.963
22516.5	345.985
22646.4	345.011
22777.2	344.042
22908.7	343.078
23040.9	342.119
23173.9	341.165
23307.7	340.216
23442.3	339.271
23577.6	338.332
23713.7	337.399
23850.6	336.47
23988.3	335.546
24126.8	334.628
24266.1	333.714
24406.2	332.806
24547.1	331.904
24688.8	331.006
24831.3	330.114
24974.7	329.227
25118.9	328.345
25263.9	327.469
25409.7	326.598
25556.4	325.732
25704	324.872
25852.3	324.017
26001.6	323.167
26151.7	322.323
26302.7	321.484
26454.5	320.65
26607.3	319.822
26760.9	318.999
26915.3	318.181
27070.7	317.368
27227	316.561
27384.2	315.758
27542.3	314.96
27701.3	314.166
27861.2	313.377
28022.1	312.593
28183.8	311.814
28346.5	311.04
28510.2	310.271
28674.8	309.508
28840.3	308.749
29006.8	307.996
29174.3	307.247
29342.7	306.504
29512.1	305.766
29682.5	305.033
29853.8	304.304
30026.2	303.581
30199.5	302.863
30373.9	302.15
30549.2	301.441
30725.6	300.738
30903	300.039
31081.4	299.345
31260.8	298.656
31441.3	297.972
31622.8	297.292
31805.3	296.616
31989	295.945
32173.6	295.279
32359.4	294.617
32546.2	293.959
32734.1	293.305
32923	292.655
33113.1	292.009
33304.3	291.367
33496.5	290.729
33689.9	290.095
33884.4	289.465
34080	288.839
34276.8	288.217
34474.7	287.599
34673.7	286.985
34873.9	286.374
35075.2	285.768
35277.7	285.166
35481.3	284.568
35686.2	283.974
35892.2	283.384
36099.4	282.797
36307.8	282.215
36517.4	281.637
36728.2	281.063
36940.3	280.492
37153.5	279.926
37368	279.363
37583.7	278.804
37800.7	278.249
38018.9	277.698
38238.4	277.151
38459.2	276.607
38681.2	276.067
38904.5	275.531
39129.1	274.998
39355	274.469
39582.2	273.944
39810.7	273.422
40040.5	272.904
40271.7	272.39
40504.2	271.879
40738	271.372
40973.2	270.868
41209.8	270.369
41447.7	269.872
41686.9	269.38
41927.6	268.891
42169.7	268.405
42413.1	267.923
42658	267.445
42904.2	266.97
43151.9	266.499
43401	266.03
43651.6	265.566
43903.6	265.104
44157	264.646
44412	264.191
44668.4	263.739
44926.2	263.291
45185.6	262.846
45446.5	262.404
45708.8	261.965
45972.7	261.529
46238.1	261.097
46505	260.668
46773.5	260.242
47043.5	259.819
47315.1	259.399
47588.3	258.983
47863	258.569
48139.3	258.159
48417.2	257.751
48696.8	257.347
48977.9	256.946
49260.6	256.547
49545	256.151
49831	255.758
50118.7	255.368
50408.1	254.981
50699.1	254.596
50991.8	254.214
51286.1	253.835
51582.2	253.458
51880	253.083
52179.5	252.711
52480.7	252.341
52783.7	251.973
53088.4	251.608
53394.9	251.244
53703.2	250.883
54013.2	250.523
54325	250.165
54638.7	249.808
54954.1	249.453
55271.3	249.082
55590.4	248.711
55911.4	248.342
56234.1	247.976
56558.8	247.613
56885.3	247.252
57213.7	246.895
57544	246.54
57876.2	246.188
58210.3	245.838
58546.4	245.492
58884.4	245.148
59224.3	244.807
59566.2	244.468
59910.1	244.132
60256	243.799
60603.8	243.468
60953.7	243.14
61305.6	242.815
61659.5	242.492
62015.5	242.171
62373.5	241.854
62733.6	241.539
63095.7	241.226
63460	240.916
63826.3	240.608
64194.8	240.303
64565.4	240
64938.2	239.7
65313.1	239.402
65690.1	239.107
66069.3	238.814
66450.8	238.523
66834.4	238.235
67220.2	237.949
67608.3	237.666
67998.6	237.384
68391.2	237.106
68786	236.829
69183.1	236.555
69582.5	236.283
69984.2	236.013
70388.2	235.746
70794.6	235.481
71203.3	235.218
71614.3	234.958
72027.8	234.699
72443.6	234.443
72861.8	234.189
73282.5	233.937
73705.5	233.687
74131	233.44
74559	233.194
74989.4	232.951
75422.3	232.71
75857.8	232.471
76295.7	232.234
76736.1	231.999
77179.2	231.766
77624.7	231.535
78072.8	231.307
78523.6	231.08
78976.9	230.855
79432.8	230.633
79891.4	230.412
80352.6	230.193
80816.5	229.976
81283.1	229.762
81752.3	229.549
82224.3	229.338
82699	229.129
83176.4	228.922
83656.6	228.716
84139.5	228.513
84625.3	228.312
85113.8	228.112
85605.2	227.914
86099.4	227.718
86596.4	227.524
87096.4	227.332
87599.2	227.142
88104.9	226.953
88613.5	226.766
89125.1	226.581
89639.6	226.398
90157.1	226.216
90677.6	226.037
91201.1	225.859
91727.6	225.682
92257.1	225.508
92789.7	225.335
93325.4	225.163
93864.2	224.994
94406.1	224.826
94951.1	224.66
95499.3	224.495
96050.6	224.332
96605.1	224.171
97162.8	224.011
97723.7	223.853
98287.9	223.697
98855.3	223.542
99426	223.388
100000	223.237
100577	223.086
101158	222.938
101742	222.791
102329	222.645
102920	222.501
103514	222.359
104112	222.217
104713	222.078
105317	221.94
105925	221.803
106537	221.668
107152	221.534
107771	221.402
108393	221.271
109018	221.142
109648	221.014
110281	220.887
110917	220.762
111558	220.638
112202	220.516
112850	220.395
113501	220.275
114156	220.157
114815	220.04
115478	219.924
116145	219.81
116815	219.697
117490	219.585
118168	219.475
118850	219.366
119536	219.258
120226	219.151
120921	219.046
121619	218.942
122321	218.839
123027	218.737
123737	218.637
124451	218.538
125170	218.44
125893	218.343
126619	218.248
127350	218.154
128086	218.06
128825	217.968
129569	217.878
130317	217.788
131069	217.699
131826	217.612
132587	217.526
133352	217.441
134122	217.357
134896	217.274
135675	217.192
136458	217.111
137246	217.032
138038	216.953
138835	216.876
139637	216.799
140443	216.724
141254	216.65
142069	216.576
142889	216.504
143714	216.433
144544	216.363
145378	216.294
146218	216.225
147062	216.158
147911	216.092
148765	216.027
149624	215.963
150487	215.899
151356	215.837
152230	215.776
153109	215.715
153993	215.656
154882	215.597
155776	215.539
156675	215.483
157580	215.427
158489	215.372
159404	215.318
160325	215.265
161250	215.213
162181	215.161
163117	215.111
164059	215.061
165006	215.012
165959	214.964
166917	214.917
167880	214.871
168850	214.825
169824	214.781
170805	214.737
171791	214.694
172783	214.652
173780	214.61
174783	214.57
175792	214.53
176807	214.491
177828	214.453
178855	214.415
179887	214.378
180926	214.342
181970	214.307
183021	214.273
184077	214.239
185140	214.206
186209	214.173
187284	214.142
188365	214.111
189452	214.081
190546	214.051
191646	214.022
192752	213.994
193865	213.967
194984	213.94
196110	213.914
197242	213.889
198381	213.864
199526	213.84
200678	213.816
201837	213.793
203002	213.771
204174	213.75
205353	213.729
206538	213.708
207730	213.689
208930	213.67
210136	213.651
211349	213.633
212569	213.616
213796	213.599
215030	213.583
216272	213.568
217520	213.553
218776	213.538
220039	213.525
221309	213.511
222587	213.499
223872	213.486
225165	213.475
226464	213.464
227772	213.453
229087	213.443
230409	213.434
231739	213.425
233077	213.416
234423	213.408
235776	213.401
237137	213.394
238506	213.387
239883	213.381
241268	213.376
242661	213.371
244062	213.366
245471	213.362
246888	213.359
248313	213.355
249747	213.353
251189	213.351
252639	213.349
254097	213.348
255564	213.347
257040	213.346
258523	213.346
260016	213.347
261517	213.347
263027	213.349
264545	213.35
266073	213.352
267609	213.355
269153	213.358
270707	213.361
272270	213.365
273842	213.369
275423	213.373
277013	213.378
278612	213.383
280221	213.389
281838	213.395
283465	213.401
285102	213.408
286748	213.415
288403	213.422
290068	213.43
291743	213.438
293427	213.447
295121	213.456
296825	213.465
298538	213.474
300262	213.484
301995	213.494
303739	213.505
305492	213.515
307256	213.526
309030	213.538
310814	213.549
312608	213.561
314413	213.574
316228	213.586
318053	213.599
319890	213.612
321736	213.626
323594	213.64
325462	213.654
327341	213.668
329230	213.682
331131	213.697
333043	213.712
334965	213.728
336899	213.743
338844	213.759
340800	213.776
342768	213.792
344747	213.809
346737	213.825
348739	213.843
350752	213.86
352777	213.878
354813	213.895
356862	213.914
358922	213.932
360994	213.95
363078	213.969
365174	213.988
367282	214.007
369403	214.027
371535	214.046
373680	214.066
375837	214.086
378007	214.106
380189	214.127
382384	214.147
384592	214.168
386812	214.189
389045	214.21
391291	214.232
393550	214.253
395822	214.275
398107	214.297
400405	214.319
402717	214.341
405042	214.364
407380	214.386
409732	214.409
412098	214.432
414477	214.455
416869	214.478
419276	214.502
421697	214.525
424131	214.549
426580	214.573
429042	214.597
431519	214.621
434010	214.645
436516	214.67
439036	214.694
441570	214.719
444120	214.744
446684	214.769
449262	214.794
451856	214.819
454465	214.845
457088	214.87
459727	214.896
462381	214.921
465050	214.947
467735	214.973
470435	214.999
473151	215.025
475883	215.052
478630	215.078
481393	215.104
484172	215.131
486968	215.158
489779	215.184
492606	215.211
495450	215.238
498310	215.265
501187	215.292
504081	215.32
506991	215.347
509918	215.374
512861	215.402
515822	215.429
518800	215.457
521795	215.485
524807	215.512
527837	215.54
530884	215.568
533949	215.596
537032	215.624
540132	215.652
543250	215.681
546387	215.709
549541	215.737
552713	215.765
555904	215.794
559114	215.822
562341	215.851
565588	215.88
568853	215.908
572137	215.937
575440	215.966
578762	215.995
582103	216.023
585464	216.052
588844	216.081
592243	216.11
595662	216.139
599101	216.168
602560	216.197
606038	216.227
609537	216.256
613056	216.285
616595	216.314
620155	216.343
623735	216.373
627336	216.402
630957	216.431
634600	216.461
638263	216.49
641948	216.52
645654	216.549
649382	216.578
653131	216.608
656901	216.637
660693	216.667
664508	216.696
668344	216.726
672202	216.756
676083	216.785
679986	216.815
683912	216.844
687860	216.874
691831	216.904
695825	216.933
699842	216.963
703882	216.992
707946	217.022
712033	217.052
716143	217.081
720278	217.111
724436	217.141
728618	217.17
732825	217.2
737055	217.229
741310	217.259
745590	217.289
749894	217.318
754223	217.348
758578	217.377
762957	217.407
767361	217.436
771792	217.466
776247	217.496
780728	217.525
785236	217.555
789769	217.584
794328	217.614
798914	217.643
803526	217.672
808165	217.702
812831	217.731
817523	217.761
822243	217.79
826990	217.819
831764	217.849
836566	217.878
841395	217.907
846253	217.936
851138	217.966
856052	217.995
860994	218.024
865964	218.053
870964	218.082
875992	218.111
881049	218.14
886135	218.169
891251	218.198
896396	218.227
901571	218.256
906776	218.285
912011	218.314
917276	218.343
922571	218.371
927897	218.4
933254	218.429
938642	218.457
944061	218.486
949511	218.515
954993	218.543
960506	218.572
966051	218.6
971628	218.629
977237	218.657
982879	218.685
988553	218.713
994260	218.742
1e+06	218.77
1.00577e+06	218.798
1.01158e+06	218.826
1.01742e+06	218.854
1.02329e+06	218.882
1.0292e+06	218.91
1.03514e+06	218.938
1.04112e+06	218.966
1.04713e+06	218.994
1.05317e+06	219.022
1.05925e+06	219.049
1.06537e+06	219.077
1.07152e+06	219.105
1.07771e+06	219.132
1.08393e+06	219.16
1.09018e+06	219.187
1.09648e+06	219.214
1.10281e+06	219.242
1.10917e+06	219.269
1.11558e+06	219.296
1.12202e+06	219.324
1.1285e+06	219.351
1.13501e+06	219.378
1.14156e+06	219.405
1.14815e+06	219.432
1.15478e+06	219.459
1.16145e+06	219.486
1.16815e+06	219.512
1.1749e+06	219.539
1.18168e+06	219.566
1.1885e+06	219.592
1.19536e+06	219.619
1.20226e+06	219.645
1.20921e+06	219.672
1.21619e+06	219.698
1.22321e+06	219.725
1.23027e+06	219.751
1.23737e+06	219.777
1.24451e+06	219.803
1.2517e+06	219.829
1.25893e+06	219.855
1.26619e+06	219.881
1.2735e+06	219.907
1.28086e+06	219.933
1.28825e+06	219.959
1.29569e+06	219.984
1.30317e+06	220.01
1.31069e+06	220.036
1.31826e+06	220.061
1.32587e+06	220.087
1.33352e+06	220.112
1.34122e+06	220.137
1.34896e+06	220.163
1.35675e+06	220.188
1.36458e+06	220.213
1.37246e+06	220.238
1.38038e+06	220.263
1.38835e+06	220.288
1.39637e+06	220.313
1.40443e+06	220.338
1.41254e+06	220.362
1.42069e+06	220.387
1.42889e+06	220.412
1.43714e+06	220.436
1.44544e+06	220.461
1.45378e+06	220.485
1.46218e+06	220.509
1.47062e+06	220.534
1.47911e+06	220.558
1.48765e+06	220.582
1.49624e+06	220.606
1.50487e+06	220.63
1.51356e+06	220.654
1.5223e+06	220.678
1.53109e+06	220.701
1.53993e+06	220.725
1.54882e+06	220.749
1.55776e+06	220.772
1.56675e+06	220.796
1.5758e+06	220.819
1.58489e+06	220.842
1.59404e+06	220.866
1.60325e+06	220.889
1.6125e+06	220.912
1.62181e+06	220.935
1.63117e+06	220.958
1.64059e+06	220.981
1.65006e+06	221.004
1.65959e+06	221.027
1.66917e+06	221.049
1.6788e+06	221.072
1.6885e+06	221.095
1.69824e+06	221.117
1.70805e+06	221.139
1.71791e+06	221.162
1.72783e+06	221.184
1.7378e+06	221.206
1.74783e+06	221.228
1.75792e+06	221.25
1.76807e+06	221.272
1.77828e+06	221.294
1.78855e+06	221.316
1.79887e+06	221.338
1.80926e+06	221.36
1.8197e+06	221.381
1.83021e+06	221.403
1.84077e+06	221.424
1.8514e+06	221.446
1.86209e+06	221.467
1.87284e+06	221.488
1.88365e+06	221.509
1.89452e+06	221.53
1.90546e+06	221.551
1.91646e+06	221.572
1.92752e+06	221.593
1.93865e+06	221.614
1.94984e+06	221.635
1.9611e+06	221.655
1.97242e+06	221.676
1.98381e+06	221.697
1.99526e+06	221.717
2.00678e+06	221.737
2.01837e+06	221.758
2.03002e+06	221.778
2.04174e+06	221.798
2.05353e+06	221.818
2.06538e+06	221.838
2.0773e+06	221.858
2.0893e+06	221.878
2.10136e+06	221.898
2.11349e+06	221.917
2.12569e+06	221.937
2.13796e+06	221.956
2.1503e+06	221.976
2.16272e+06	221.995
2.1752e+06	222.015
2.18776e+06	222.034
2.20039e+06	222.053
2.21309e+06	222.072
2.22587e+06	222.091
2.23872e+06	222.11
2.25165e+06	222.129
2.26464e+06	222.148
2.27772e+06	222.166
2.29087e+06	222.185
2.30409e+06	222.204
2.31739e+06	222.222
2.33077e+06	222.241
2.34423e+06	222.259
2.35776e+06	222.277
2.37137e+06	222.296
2.38506e+06	222.314
2.39883e+06	222.332
2.41268e+06	222.35
2.42661e+06	222.368
2.44062e+06	222.385
2.45471e+06	222.403
2.46888e+06	222.421
2.48313e+06	222.439
2.49747e+06	222.456
2.51189e+06	222.474
2.52639e+06	222.491
2.54097e+06	222.508
2.55564e+06	222.526
2.5704e+06	222.543
2.58523e+06	222.56
2.60016e+06	222.577
2.61517e+06	222.594
2.63027e+06	222.611
2.64545e+06	222.628
2.66073e+06	222.644
2.67609e+06	222.661
2.69153e+06	222.678
2.70707e+06	222.694
2.7227e+06	222.711
2.73842e+06	222.727
2.75423e+06	222.743
2.77013e+06	222.759
2.78612e+06	222.776
2.80221e+06	222.792
2.81838e+06	222.808
2.83465e+06	222.824
2.85102e+06	222.84
2.86748e+06	222.855
2.88403e+06	222.871
2.90068e+06	222.887
2.91743e+06	222.902
2.93427e+06	222.918
2.95121e+06	222.933
2.96825e+06	222.949
2.98538e+06	222.964
3.00262e+06	222.979
3.01995e+06	222.994
3.03739e+06	223.01
3.05492e+06	223.025
3.07256e+06	223.039
3.0903e+06	223.054
3.10814e+06	223.069
3.12608e+06	223.084
3.14413e+06	223.099
3.16228e+06	223.113
3.18053e+06	223.128
3.1989e+06	223.142
3.21736e+06	223.157
3.23594e+06	223.171
3.25462e+06	223.185
3.27341e+06	223.199
3.2923e+06	223.213
3.31131e+06	223.228
3.33043e+06	223.242
3.34965e+06	223.255
3.36899e+06	223.269
3.38844e+06	223.283
3.408e+06	223.297
3.42768e+06	223.31
3.44747e+06	223.324
3.46737e+06	223.337
3.48739e+06	223.351
3.50752e+06	223.364
3.52777e+06	223.378
3.54813e+06	223.391
3.56862e+06	223.404
3.58922e+06	223.417
3.60994e+06	223.43
3.63078e+06	223.443
3.65174e+06	223.456
3.67282e+06	223.469
3.69403e+06	223.481
3.71535e+06	223.494
3.7368e+06	223.507
3.75837e+06	223.519
3.78007e+06	223.532
3.80189e+06	223.544
3.82384e+06	223.557
3.84592e+06	223.569
3.86812e+06	223.581
3.89045e+06	223.593
3.91291e+06	223.605
3.9355e+06	223.617
3.95822e+06	223.629
3.98107e+06	223.641
4.00405e+06	223.653
4.02717e+06	223.665
4.05042e+06	223.677
4.0738e+06	223.688
4.09732e+06	223.7
4.12098e+06	223.711
4.14477e+06	223.723
4.16869e+06	223.734
4.19276e+06	223.746
4.21697e+06	223.757
4.24131e+06	223.768
4.2658e+06	223.779
4.29042e+06	223.79
4.31519e+06	223.801
4.3401e+06	223.812
4.36516e+06	223.823
4.39036e+06	223.834
4.4157e+06	223.845
4.4412e+06	223.855
4.46684e+06	223.866
4.49262e+06	223.877
4.51856e+06	223.887
4.54465e+06	223.898
4.57088e+06	223.908
4.59727e+06	223.918
4.62381e+06	223.929
4.6505e+06	223.939
4.67735e+06	223.949
4.70435e+06	223.959
4.73151e+06	223.969
4.75883e+06	223.979
4.7863e+06	223.989
4.81393e+06	223.999
4.84172e+06	224.009
4.86968e+06	224.018
4.89779e+06	224.028
4.92606e+06	224.038
4.9545e+06	224.047
4.9831e+06	224.057
5.01187e+06	224.066
5.04081e+06	224.076
5.06991e+06	224.085
5.09918e+06	224.094
5.12861e+06	224.103
5.15822e+06	224.113
5.188e+06	224.122
5.21795e+06	224.131
5.24807e+06	224.14
5.27837e+06	224.149
5.30884e+06	224.157
5.33949e+06	224.166
5.37032e+06	224.175
5.40132e+06	224.184
5.4325e+06	224.192
5.46387e+06	224.201
5.49541e+06	224.209
5.52713e+06	224.218
5.55904e+06	224.226
5.59114e+06	224.235
5.62341e+06	224.243
5.65588e+06	224.251
5.68853e+06	224.259
5.72137e+06	224.268
5.7544e+06	224.276
5.78762e+06	224.284
5.82103e+06	224.292
5.85464e+06	224.3
5.88844e+06	224.308
5.92243e+06	224.315
5.95662e+06	224.323
5.99101e+06	224.331
6.0256e+06	224.339
6.06038e+06	224.346
6.09537e+06	224.354
6.13056e+06	224.361
6.16595e+06	224.369
6.20155e+06	224.376
6.23735e+06	224.383
6.27336e+06	224.391
6.30957e+06	224.398
6.346e+06	224.405
6.38263e+06	224.412
6.41948e+06	224.419
6.45654e+06	224.426
6.49382e+06	224.433
6.53131e+06	224.44
6.56901e+06	224.447
6.60693e+06	224.454
6.64508e+06	224.461
6.68344e+06	224.468
6.72202e+06	224.474
6.76083e+06	224.481
6.79986e+06	224.488
6.83912e+06	224.494
6.8786e+06	224.501
6.91831e+06	224.507
6.95825e+06	224.513
6.99842e+06	224.52
7.03882e+06	224.526
7.07946e+06	224.532
7.12033e+06	224.539
7.16143e+06	224.545
7.20278e+06	224.551
7.24436e+06	224.557
7.28618e+06	224.563
7.32825e+06	224.569
7.37055e+06	224.575
7.4131e+06	224.581
7.4559e+06	224.587
7.49894e+06	224.592
7.54223e+06	224.598
7.58578e+06	224.604
7.62957e+06	224.609
7.67361e+06	224.615
7.71792e+06	224.621
7.76247e+06	224.626
7.80728e+06	224.632
7.85236e+06	224.637
7.89769e+06	224.642
7.94328e+06	224.648
7.98914e+06	224.653
8.03526e+06	224.658
8.08165e+06	224.663
8.12831e+06	224.669
8.17523e+06	224.674
8.22243e+06	224.679
8.2699e+06	224.684
8.31764e+06	224.689
8.36566e+06	224.694
8.41395e+06	224.699
8.46253e+06	224.704
8.51138e+06	224.708
8.56052e+06	224.713
8.60994e+06	224.718
8.65964e+06	224.723
8.70964e+06	224.727
8.75992e+06	224.732
8.81049e+06	224.737
8.86135e+06	224.741
8.91251e+06	224.746
8.96396e+06	224.75
9.01571e+06	224.754
9.06776e+06	224.759
9.12011e+06	224.763
9.17276e+06	224.767
9.22571e+06	224.772
9.27897e+06	224.776
9.33254e+06	224.78
9.38642e+06	224.784
9.44061e+06	224.788
9.49511e+06	224.792
9.54993e+06	224.796
9.60506e+06	224.8
9.66051e+06	224.804
9.71628e+06	224.808
9.77237e+06	224.812
9.82879e+06	224.816
9.88553e+06	224.82
9.9426e+06	224.824
1e+07	224.827
