Stopping power dEdx from Ionisation for N14[0.0] Z = 7 in G4_Si, process name: ionIoni
E [MeV]	dEdx [MeV/mm]
0.001	32.2566
0.00100577	32.3503
0.00101158	32.4443
0.00101742	32.5386
0.00102329	32.6331
0.0010292	32.728
0.00103514	32.8231
0.00104112	32.9184
0.00104713	33.0141
0.00105317	33.11
0.00105925	33.2062
0.00106537	33.3027
0.00107152	33.3994
0.00107771	33.4964
0.00108393	33.5938
0.00109018	33.6913
0.00109648	33.7892
0.00110281	33.8874
0.00110917	33.9858
0.00111558	34.0845
0.00112202	34.1835
0.0011285	34.2828
0.00113501	34.3824
0.00114156	34.4823
0.00114815	34.5824
0.00115478	34.6829
0.00116145	34.7836
0.00116815	34.8846
0.0011749	34.9859
0.00118168	35.0875
0.0011885	35.1894
0.00119536	35.2916
0.00120226	35.3941
0.00120921	35.4969
0.00121619	35.6
0.00122321	35.7034
0.00123027	35.807
0.00123737	35.911
0.00124451	36.0153
0.0012517	36.1198
0.00125893	36.2247
0.00126619	36.3299
0.0012735	36.4354
0.00128086	36.5412
0.00128825	36.6472
0.00129569	36.7536
0.00130317	36.8603
0.00131069	36.9673
0.00131826	37.0747
0.00132587	37.1823
0.00133352	37.2902
0.00134122	37.3985
0.00134896	37.507
0.00135675	37.6159
0.00136458	37.7251
0.00137246	37.8346
0.00138038	37.9444
0.00138835	38.0545
0.00139637	38.165
0.00140443	38.2757
0.00141254	38.3868
0.00142069	38.4982
0.00142889	38.61
0.00143714	38.722
0.00144544	38.8344
0.00145378	38.9471
0.00146218	39.0601
0.00147062	39.1735
0.00147911	39.2871
0.00148765	39.4011
0.00149624	39.5155
0.00150487	39.6301
0.00151356	39.7451
0.0015223	39.8604
0.00153109	39.9761
0.00153993	40.0921
0.00154882	40.2084
0.00155776	40.3251
0.00156675	40.4421
0.0015758	40.5594
0.00158489	40.6771
0.00159404	40.7951
0.00160325	40.9134
0.0016125	41.0321
0.00162181	41.1511
0.00163117	41.2705
0.00164059	41.3902
0.00165006	41.5103
0.00165959	41.6307
0.00166917	41.7515
0.0016788	41.8726
0.0016885	41.994
0.00169824	42.1158
0.00170805	42.238
0.00171791	42.3605
0.00172783	42.4834
0.0017378	42.6066
0.00174783	42.7301
0.00175792	42.8541
0.00176807	42.9784
0.00177828	43.103
0.00178855	43.228
0.00179887	43.3534
0.00180926	43.4791
0.0018197	43.6052
0.00183021	43.7316
0.00184077	43.8584
0.0018514	43.9856
0.00186209	44.1132
0.00187284	44.2411
0.00188365	44.3693
0.00189452	44.498
0.00190546	44.627
0.00191646	44.7564
0.00192752	44.8862
0.00193865	45.0163
0.00194984	45.1468
0.0019611	45.2777
0.00197242	45.409
0.00198381	45.5406
0.00199526	45.6727
0.00200678	45.8051
0.00201837	45.9379
0.00203002	46.071
0.00204174	46.2046
0.00205353	46.3385
0.00206538	46.4729
0.0020773	46.6076
0.0020893	46.7427
0.00210136	46.8782
0.00211349	47.0141
0.00212569	47.1503
0.00213796	47.287
0.0021503	47.4241
0.00216272	47.5615
0.0021752	47.6994
0.00218776	47.8376
0.00220039	47.9763
0.00221309	48.1153
0.00222587	48.2548
0.00223872	48.3946
0.00225165	48.5349
0.00226464	48.6755
0.00227772	48.8166
0.00229087	48.9581
0.00230409	49.0999
0.00231739	49.2422
0.00233077	49.3849
0.00234423	49.528
0.00235776	49.6716
0.00237137	49.8155
0.00238506	49.9598
0.00239883	50.1046
0.00241268	50.2498
0.00242661	50.3954
0.00244062	50.5414
0.00245471	50.6878
0.00246888	50.8347
0.00248313	50.982
0.00249747	51.1297
0.00251189	51.2778
0.00252639	51.4264
0.00254097	51.5754
0.00255564	51.7248
0.0025704	51.8747
0.00258523	52.025
0.00260016	52.1757
0.00261517	52.3268
0.00263027	52.4784
0.00264545	52.6304
0.00266073	52.7829
0.00267609	52.9358
0.00269153	53.0892
0.00270707	53.2429
0.0027227	53.3972
0.00273842	53.5518
0.00275423	53.707
0.00277013	53.8625
0.00278612	54.0185
0.00280221	54.175
0.00281838	54.3319
0.00283465	54.4893
0.00285102	54.6471
0.00286748	54.8054
0.00288403	54.9641
0.00290068	55.1233
0.00291743	55.2829
0.00293427	55.4431
0.00295121	55.6036
0.00296825	55.7647
0.00298538	55.9262
0.00300262	56.0881
0.00301995	56.2505
0.00303739	56.4134
0.00305492	56.5768
0.00307256	56.7407
0.0030903	56.905
0.00310814	57.0697
0.00312608	57.235
0.00314413	57.4007
0.00316228	57.567
0.00318053	57.7336
0.0031989	57.9008
0.00321736	58.0685
0.00323594	58.2366
0.00325462	58.4052
0.00327341	58.5743
0.0032923	58.7439
0.00331131	58.914
0.00333043	59.0846
0.00334965	59.2557
0.00336899	59.4272
0.00338844	59.5993
0.003408	59.7718
0.00342768	59.9449
0.00344747	60.1184
0.00346737	60.2925
0.00348739	60.467
0.00350752	60.6421
0.00352777	60.8176
0.00354813	60.9937
0.00356862	61.1702
0.00358922	61.3473
0.00360994	61.5249
0.00363078	61.703
0.00365174	61.8816
0.00367282	62.0608
0.00369403	62.2404
0.00371535	62.4206
0.0037368	62.6012
0.00375837	62.7824
0.00378007	62.9642
0.00380189	63.1464
0.00382384	63.3292
0.00384592	63.5125
0.00386812	63.6963
0.00389045	63.8807
0.00391291	64.0656
0.0039355	64.251
0.00395822	64.437
0.00398107	64.6234
0.00400405	64.8105
0.00402717	64.998
0.00405042	65.1862
0.0040738	65.3748
0.00409732	65.564
0.00412098	65.7537
0.00414477	65.944
0.00416869	66.1349
0.00419276	66.3263
0.00421697	66.5182
0.00424131	66.7107
0.0042658	66.9037
0.00429042	67.0973
0.00431519	67.2915
0.0043401	67.4862
0.00436516	67.6815
0.00439036	67.8774
0.0044157	68.0738
0.0044412	68.2707
0.00446684	68.4683
0.00449262	68.6664
0.00451856	68.8651
0.00454465	69.0643
0.00457088	69.2642
0.00459727	69.4646
0.00462381	69.6656
0.0046505	69.8671
0.00467735	70.0693
0.00470435	70.272
0.00473151	70.4753
0.00475883	70.6792
0.0047863	70.8837
0.00481393	71.0888
0.00484172	71.2944
0.00486968	71.5007
0.00489779	71.7076
0.00492606	71.915
0.0049545	72.1231
0.0049831	72.3317
0.00501187	72.541
0.00504081	72.7508
0.00506991	72.9613
0.00509918	73.1723
0.00512861	73.384
0.00515822	73.5963
0.005188	73.8092
0.00521795	74.0227
0.00524807	74.2368
0.00527837	74.4516
0.00530884	74.6669
0.00533949	74.8829
0.00537032	75.0995
0.00540132	75.3167
0.0054325	75.5346
0.00546387	75.7531
0.00549541	75.9722
0.00552713	76.1919
0.00555904	76.4123
0.00559114	76.6333
0.00562341	76.8549
0.00565588	77.0772
0.00568853	77.3002
0.00572137	77.5237
0.0057544	77.7479
0.00578762	77.9728
0.00582103	78.1983
0.00585464	78.4245
0.00588844	78.6513
0.00592243	78.8788
0.00595662	79.1069
0.00599101	79.3357
0.0060256	79.5651
0.00606038	79.7952
0.00609537	80.0259
0.00613056	80.2574
0.00616595	80.4895
0.00620155	80.7222
0.00623735	80.9557
0.00627336	81.1898
0.00630957	81.4246
0.006346	81.66
0.00638263	81.8962
0.00641948	82.133
0.00645654	82.3705
0.00649382	82.6087
0.00653131	82.8475
0.00656901	83.0871
0.00660693	83.3273
0.00664508	83.5683
0.00668344	83.8099
0.00672202	84.0523
0.00676083	84.2953
0.00679986	84.539
0.00683912	84.7835
0.0068786	85.0286
0.00691831	85.2744
0.00695825	85.521
0.00699842	85.7683
0.00703882	86.0162
0.00707946	86.2649
0.00712033	86.5143
0.00716143	86.7645
0.00720278	87.0153
0.00724436	87.2669
0.00728618	87.5192
0.00732825	87.7722
0.00737055	88.026
0.0074131	88.2805
0.0074559	88.5357
0.00749894	88.7916
0.00754223	89.0483
0.00758578	89.3058
0.00762957	89.5639
0.00767361	89.8229
0.00771792	90.0825
0.00776247	90.3429
0.00780728	90.6041
0.00785236	90.866
0.00789769	91.1287
0.00794328	91.3921
0.00798914	91.6563
0.00803526	91.9213
0.00808165	92.187
0.00812831	92.4534
0.00817523	92.7207
0.00822243	92.9887
0.0082699	93.2575
0.00831764	93.5271
0.00836566	93.7974
0.00841395	94.0685
0.00846253	94.3404
0.00851138	94.6131
0.00856052	94.8866
0.00860994	95.1609
0.00865964	95.4359
0.00870964	95.7118
0.00875992	95.9884
0.00881049	96.2658
0.00886135	96.5441
0.00891251	96.8231
0.00896396	97.103
0.00901571	97.3836
0.00906776	97.6651
0.00912011	97.9473
0.00917276	98.2304
0.00922571	98.5143
0.00927897	98.799
0.00933254	99.0846
0.00938642	99.3709
0.00944061	99.6581
0.00949511	99.9461
0.00954993	100.235
0.00960506	100.525
0.00966051	100.815
0.00971628	101.107
0.00977237	101.399
0.00982879	101.692
0.00988553	101.986
0.0099426	102.28
0.01	102.576
0.0100577	102.872
0.0101158	103.17
0.0101742	103.468
0.0102329	103.767
0.010292	104.067
0.0103514	104.367
0.0104112	104.669
0.0104713	104.971
0.0105317	105.275
0.0105925	105.843
0.0106537	106.148
0.0107152	106.454
0.0107771	106.761
0.0108393	107.069
0.0109018	107.378
0.0109648	107.687
0.0110281	107.997
0.0110917	108.309
0.0111558	108.621
0.0112202	108.934
0.011285	109.248
0.0113501	109.563
0.0114156	109.879
0.0114815	110.195
0.0115478	110.513
0.0116145	110.832
0.0116815	111.151
0.011749	111.471
0.0118168	111.793
0.011885	112.115
0.0119536	112.438
0.0120226	112.762
0.0120921	113.087
0.0121619	113.413
0.0122321	113.74
0.0123027	114.068
0.0123737	114.397
0.0124451	114.726
0.012517	115.057
0.0125893	115.389
0.0126619	115.721
0.012735	116.055
0.0128086	116.389
0.0128825	116.725
0.0129569	117.061
0.0130317	117.399
0.0131069	117.737
0.0131826	118.076
0.0132587	118.417
0.0133352	118.758
0.0134122	119.1
0.0134896	119.444
0.0135675	119.788
0.0136458	120.133
0.0137246	120.48
0.0138038	120.827
0.0138835	121.175
0.0139637	121.524
0.0140443	121.875
0.0141254	122.226
0.0142069	122.578
0.0142889	122.932
0.0143714	123.286
0.0144544	123.641
0.0145378	123.998
0.0146218	124.355
0.0147062	124.713
0.0147911	125.073
0.0148765	125.433
0.0149624	125.795
0.0150487	126.158
0.0151356	126.521
0.015223	126.886
0.0153109	127.252
0.0153993	127.618
0.0154882	127.986
0.0155776	128.355
0.0156675	128.725
0.015758	129.096
0.0158489	129.468
0.0159404	129.841
0.0160325	130.216
0.016125	130.591
0.0162181	130.967
0.0163117	131.345
0.0164059	131.724
0.0165006	132.103
0.0165959	132.484
0.0166917	132.866
0.016788	133.249
0.016885	133.633
0.0169824	134.018
0.0170805	134.404
0.0171791	134.792
0.0172783	135.18
0.017378	135.57
0.0174783	135.961
0.0175792	136.353
0.0176807	136.746
0.0177828	137.14
0.0178855	137.535
0.0179887	137.931
0.0180926	138.329
0.018197	138.728
0.0183021	139.128
0.0184077	139.529
0.018514	139.931
0.0186209	140.334
0.0187284	140.739
0.0188365	141.144
0.0189452	141.551
0.0190546	141.959
0.0191646	142.368
0.0192752	142.779
0.0193865	143.19
0.0194984	143.603
0.019611	144.017
0.0197242	144.432
0.0198381	144.848
0.0199526	145.266
0.0200678	145.685
0.0201837	146.104
0.0203002	146.526
0.0204174	146.948
0.0205353	147.371
0.0206538	147.796
0.020773	148.222
0.020893	148.649
0.0210136	149.078
0.0211349	149.508
0.0212569	149.939
0.0213796	150.371
0.021503	150.804
0.0216272	151.239
0.021752	151.675
0.0218776	152.112
0.0220039	152.55
0.0221309	152.99
0.0222587	153.431
0.0223872	153.873
0.0225165	154.317
0.0226464	154.762
0.0227772	155.208
0.0229087	155.655
0.0230409	156.104
0.0231739	156.554
0.0233077	157.005
0.0234423	157.458
0.0235776	157.911
0.0237137	158.367
0.0238506	158.823
0.0239883	159.281
0.0241268	159.74
0.0242661	160.2
0.0244062	160.662
0.0245471	161.125
0.0246888	161.59
0.0248313	162.055
0.0249747	162.522
0.0251189	162.991
0.0252639	163.461
0.0254097	163.932
0.0255564	164.404
0.025704	164.878
0.0258523	165.353
0.0260016	165.83
0.0261517	166.308
0.0263027	166.787
0.0264545	167.268
0.0266073	167.75
0.0267609	168.234
0.0269153	168.719
0.0270707	169.205
0.027227	169.693
0.0273842	170.182
0.0275423	170.672
0.0277013	171.164
0.0278612	171.658
0.0280221	172.153
0.0281838	172.649
0.0283465	173.146
0.0285102	173.645
0.0286748	174.146
0.0288403	174.648
0.0290068	175.151
0.0291743	175.656
0.0293427	176.162
0.0295121	176.67
0.0296825	177.179
0.0298538	177.69
0.0300262	178.202
0.0301995	178.716
0.0303739	179.231
0.0305492	179.748
0.0307256	180.266
0.030903	180.785
0.0310814	181.306
0.0312608	181.829
0.0314413	182.353
0.0316228	182.879
0.0318053	183.406
0.031989	183.935
0.0321736	184.465
0.0323594	184.996
0.0325462	185.53
0.0327341	186.064
0.032923	186.601
0.0331131	187.139
0.0333043	187.678
0.0334965	188.219
0.0336899	188.761
0.0338844	189.306
0.03408	189.851
0.0342768	190.398
0.0344747	190.947
0.0346737	191.498
0.0348739	192.05
0.0350752	192.603
0.0352777	193.158
0.0354813	193.715
0.0356862	194.273
0.0358922	194.833
0.0360994	195.395
0.0363078	195.958
0.0365174	196.523
0.0367282	197.089
0.0369403	197.658
0.0371535	198.227
0.037368	198.799
0.0375837	199.372
0.0378007	199.946
0.0380189	200.523
0.0382384	201.101
0.0384592	201.68
0.0386812	202.262
0.0389045	202.845
0.0391291	203.429
0.039355	204.016
0.0395822	204.604
0.0398107	205.193
0.0400405	205.785
0.0402717	206.378
0.0405042	206.973
0.040738	207.569
0.0409732	208.168
0.0412098	208.768
0.0414477	209.369
0.0416869	209.973
0.0419276	210.578
0.0421697	211.185
0.0424131	211.794
0.042658	212.404
0.0429042	213.017
0.0431519	213.631
0.043401	214.246
0.0436516	214.864
0.0439036	215.483
0.044157	216.104
0.044412	216.727
0.0446684	217.352
0.0449262	217.978
0.0451856	218.607
0.0454465	219.237
0.0457088	219.869
0.0459727	220.502
0.0462381	221.138
0.046505	221.775
0.0467735	222.415
0.0470435	223.056
0.0473151	223.699
0.0475883	224.343
0.047863	224.99
0.0481393	225.639
0.0484172	226.289
0.0486968	226.941
0.0489779	227.595
0.0492606	228.251
0.049545	228.909
0.049831	229.569
0.0501187	230.231
0.0504081	230.894
0.0506991	231.56
0.0509918	232.227
0.0512861	232.897
0.0515822	233.568
0.05188	234.241
0.0521795	234.916
0.0524807	235.594
0.0527837	236.273
0.0530884	236.954
0.0533949	237.637
0.0537032	238.322
0.0540132	239.009
0.054325	239.697
0.0546387	240.388
0.0549541	241.081
0.0552713	241.776
0.0555904	242.473
0.0559114	243.172
0.0562341	243.873
0.0565588	244.576
0.0568853	245.281
0.0572137	245.988
0.057544	246.697
0.0578762	247.408
0.0582103	248.121
0.0585464	248.836
0.0588844	249.553
0.0592243	250.273
0.0595662	250.994
0.0599101	251.717
0.060256	252.443
0.0606038	253.171
0.0609537	253.9
0.0613056	254.632
0.0616595	255.366
0.0620155	256.102
0.0623735	256.84
0.0627336	257.581
0.0630957	258.323
0.06346	259.068
0.0638263	259.814
0.0641948	260.563
0.0645654	261.314
0.0649382	262.068
0.0653131	262.823
0.0656901	263.581
0.0660693	264.34
0.0664508	265.102
0.0668344	265.866
0.0672202	266.633
0.0676083	267.401
0.0679986	268.172
0.0683912	268.945
0.068786	269.72
0.0691831	270.498
0.0695825	271.277
0.0699842	272.059
0.0703882	272.843
0.0707946	273.63
0.0712033	274.418
0.0716143	275.209
0.0720278	276.003
0.0724436	276.798
0.0728618	277.596
0.0732825	278.396
0.0737055	279.199
0.074131	280.003
0.074559	280.811
0.0749894	281.62
0.0754223	282.432
0.0758578	283.246
0.0762957	284.062
0.0767361	284.881
0.0771792	285.702
0.0776247	286.526
0.0780728	287.351
0.0785236	288.18
0.0789769	289.01
0.0794328	289.843
0.0798914	290.679
0.0803526	291.517
0.0808165	292.357
0.0812831	293.2
0.0817523	294.045
0.0822243	294.892
0.082699	295.742
0.0831764	296.595
0.0836566	297.45
0.0841395	298.307
0.0846253	299.167
0.0851138	300.029
0.0856052	300.894
0.0860994	301.761
0.0865964	302.631
0.0870964	303.503
0.0875992	304.378
0.0881049	305.255
0.0886135	306.135
0.0891251	307.018
0.0896396	307.903
0.0901571	308.79
0.0906776	309.68
0.0912011	310.573
0.0917276	311.468
0.0922571	312.366
0.0927897	313.266
0.0933254	314.169
0.0938642	315.075
0.0944061	315.983
0.0949511	316.894
0.0954993	317.807
0.0960506	318.723
0.0966051	319.642
0.0971628	320.563
0.0977237	321.487
0.0982879	322.414
0.0988553	323.343
0.099426	324.275
0.1	325.21
0.100577	326.147
0.101158	327.087
0.101742	328.03
0.102329	328.975
0.10292	329.924
0.103514	330.875
0.104112	331.828
0.104713	332.785
0.105317	333.744
0.105925	334.706
0.106537	335.671
0.107152	336.638
0.107771	337.608
0.108393	338.582
0.109018	339.558
0.109648	340.536
0.110281	341.518
0.110917	342.502
0.111558	343.489
0.112202	344.479
0.11285	345.472
0.113501	346.468
0.114156	347.467
0.114815	348.468
0.115478	349.473
0.116145	350.48
0.116815	351.49
0.11749	352.503
0.118168	353.519
0.11885	354.538
0.119536	355.56
0.120226	356.585
0.120921	357.613
0.121619	358.644
0.122321	359.678
0.123027	360.714
0.123737	361.754
0.124451	362.797
0.12517	363.842
0.125893	364.891
0.126619	365.943
0.12735	366.998
0.128086	368.056
0.128825	369.116
0.129569	370.18
0.130317	371.247
0.131069	372.317
0.131826	373.391
0.132587	374.467
0.133352	375.546
0.134122	376.629
0.134896	377.714
0.135675	378.803
0.136458	379.895
0.137246	380.99
0.138038	382.088
0.138835	383.189
0.139637	384.294
0.140443	385.401
0.141254	386.512
0.142069	387.626
0.142889	388.744
0.143714	389.864
0.144544	390.988
0.145378	392.115
0.146218	393.245
0.147062	394.379
0.147911	395.515
0.148765	396.655
0.149624	397.799
0.150487	398.945
0.151356	400.095
0.15223	401.248
0.153109	402.405
0.153993	403.565
0.154882	404.728
0.155776	405.895
0.156675	407.065
0.15758	408.238
0.158489	409.415
0.159404	410.595
0.160325	411.778
0.16125	412.965
0.162181	414.155
0.163117	415.349
0.164059	416.546
0.165006	417.747
0.165959	418.951
0.166917	420.159
0.16788	421.37
0.16885	422.584
0.169824	423.802
0.170805	425.024
0.171791	426.249
0.172783	427.478
0.17378	428.71
0.174783	429.945
0.175792	431.185
0.176807	432.428
0.177828	433.674
0.178855	434.924
0.179887	436.178
0.180926	437.435
0.18197	438.696
0.183021	439.96
0.184077	441.228
0.18514	442.5
0.186209	443.776
0.187284	445.055
0.188365	446.337
0.189452	447.624
0.190546	448.914
0.191646	450.208
0.192752	451.506
0.193865	452.807
0.194984	454.112
0.19611	455.421
0.197242	456.734
0.198381	458.051
0.199526	459.371
0.200678	460.695
0.201837	462.023
0.203002	463.354
0.204174	464.69
0.205353	466.029
0.206538	467.373
0.20773	468.72
0.20893	470.071
0.210136	471.426
0.211349	472.785
0.212569	474.147
0.213796	475.514
0.21503	476.885
0.216272	478.259
0.21752	479.638
0.218776	481.02
0.220039	482.407
0.221309	483.797
0.222587	485.192
0.223872	486.59
0.225165	487.993
0.226464	489.399
0.227772	490.81
0.229087	492.225
0.230409	493.643
0.231739	495.066
0.233077	496.493
0.234423	497.924
0.235776	499.36
0.237137	500.799
0.238506	502.242
0.239883	503.69
0.241268	505.142
0.242661	506.598
0.244062	508.058
0.245471	509.522
0.246888	510.991
0.248313	512.464
0.249747	513.941
0.251189	515.422
0.252639	516.908
0.254097	518.398
0.255564	519.892
0.25704	521.391
0.258523	522.894
0.260016	524.401
0.261517	525.912
0.263027	527.428
0.264545	528.948
0.266073	530.473
0.267609	532.002
0.269153	533.536
0.270707	535.073
0.27227	536.616
0.273842	538.162
0.275423	539.714
0.277013	541.269
0.278612	542.829
0.280221	544.394
0.281838	545.963
0.283465	547.537
0.285102	549.115
0.286748	550.698
0.288403	552.285
0.290068	553.877
0.291743	555.474
0.293427	557.075
0.295121	558.68
0.296825	560.291
0.298538	561.906
0.300262	563.525
0.301995	565.15
0.303739	566.778
0.305492	568.412
0.307256	570.051
0.30903	571.694
0.310814	573.341
0.312608	574.994
0.314413	576.651
0.316228	578.314
0.318053	579.98
0.31989	581.652
0.321736	583.329
0.323594	585.01
0.325462	586.696
0.327341	588.387
0.32923	590.083
0.331131	591.784
0.333043	593.49
0.334965	595.201
0.336899	596.916
0.338844	598.637
0.3408	600.362
0.342768	602.093
0.344747	603.828
0.346737	605.569
0.348739	607.314
0.350752	609.174
0.352777	611.227
0.354813	613.293
0.356862	615.371
0.358922	617.463
0.360994	619.567
0.363078	621.683
0.365174	623.813
0.367282	625.955
0.369403	628.11
0.371535	630.278
0.37368	632.458
0.375837	634.652
0.378007	636.858
0.380189	639.078
0.382384	641.31
0.384592	643.555
0.386812	645.814
0.389045	648.085
0.391291	650.369
0.39355	652.666
0.395822	654.977
0.398107	657.3
0.400405	659.636
0.402717	661.985
0.405042	664.348
0.40738	666.723
0.409732	669.111
0.412098	671.512
0.414477	673.927
0.416869	676.354
0.419276	678.794
0.421697	681.188
0.424131	683.568
0.42658	685.961
0.429042	688.367
0.431519	690.785
0.43401	693.215
0.436516	695.657
0.439036	698.111
0.44157	700.578
0.44412	703.057
0.446684	705.548
0.449262	708.051
0.451856	710.566
0.454465	713.093
0.457088	715.632
0.459727	718.182
0.462381	720.745
0.46505	723.319
0.467735	725.904
0.470435	728.501
0.473151	731.11
0.475883	733.729
0.47863	736.36
0.481393	739.002
0.484172	741.655
0.486968	744.319
0.489779	746.994
0.492606	749.679
0.49545	752.375
0.49831	755.082
0.501187	757.798
0.504081	760.525
0.506991	763.262
0.509918	766.008
0.512861	768.765
0.515822	771.53
0.5188	774.306
0.521795	777.09
0.524807	779.883
0.527837	782.686
0.530884	785.496
0.533949	788.316
0.537032	791.143
0.540132	793.978
0.54325	796.822
0.546387	799.672
0.549541	802.531
0.552713	805.396
0.555904	808.268
0.559114	811.146
0.562341	814.015
0.565588	816.883
0.568853	819.756
0.572137	822.636
0.57544	825.521
0.578762	828.412
0.582103	831.308
0.585464	834.209
0.588844	837.115
0.592243	840.026
0.595662	842.941
0.599101	845.861
0.60256	848.786
0.606038	851.714
0.609537	854.647
0.613056	857.583
0.616595	860.523
0.620155	863.466
0.623735	866.412
0.627336	869.362
0.630957	872.314
0.6346	875.269
0.638263	878.226
0.641948	881.185
0.645654	884.146
0.649382	887.109
0.653131	890.073
0.656901	893.039
0.660693	896.005
0.664508	898.972
0.668344	901.94
0.672202	904.908
0.676083	907.875
0.679986	910.843
0.683912	913.809
0.68786	916.775
0.691831	919.739
0.695825	922.702
0.699842	925.663
0.703882	928.62
0.707946	931.574
0.712033	934.526
0.716143	937.475
0.720278	940.421
0.724436	943.365
0.728618	946.305
0.732825	949.242
0.737055	952.176
0.74131	955.106
0.74559	958.033
0.749894	960.956
0.754223	963.874
0.758578	966.789
0.762957	969.699
0.767361	972.605
0.771792	975.507
0.776247	978.403
0.780728	981.295
0.785236	984.182
0.789769	987.063
0.794328	989.939
0.798914	992.81
0.803526	995.675
0.808165	998.534
0.812831	1001.39
0.817523	1004.23
0.822243	1007.07
0.82699	1009.91
0.831764	1012.74
0.836566	1015.56
0.841395	1018.37
0.846253	1021.18
0.851138	1023.98
0.856052	1026.77
0.860994	1029.56
0.865964	1032.33
0.870964	1035.11
0.875992	1037.87
0.881049	1040.62
0.886135	1043.37
0.891251	1046.11
0.896396	1048.84
0.901571	1051.57
0.906776	1054.28
0.912011	1056.99
0.917276	1059.69
0.922571	1062.38
0.927897	1065.07
0.933254	1067.74
0.938642	1070.41
0.944061	1073.07
0.949511	1075.72
0.954993	1078.36
0.960506	1080.99
0.966051	1083.62
0.971628	1086.23
0.977237	1088.84
0.982879	1091.44
0.988553	1094.03
0.99426	1096.62
1	1099.19
1.00577	1101.76
1.01158	1104.31
1.01742	1106.86
1.02329	1109.4
1.0292	1111.93
1.03514	1114.45
1.04112	1116.97
1.04713	1119.47
1.05317	1121.97
1.05925	1124.45
1.06537	1126.93
1.07152	1129.4
1.07771	1131.86
1.08393	1134.31
1.09018	1136.75
1.09648	1139.18
1.10281	1141.61
1.10917	1144.02
1.11558	1146.43
1.12202	1148.83
1.1285	1151.22
1.13501	1153.6
1.14156	1155.97
1.14815	1158.34
1.15478	1160.69
1.16145	1163.04
1.16815	1165.38
1.1749	1167.7
1.18168	1170.02
1.1885	1172.33
1.19536	1174.63
1.20226	1176.93
1.20921	1179.21
1.21619	1181.49
1.22321	1183.75
1.23027	1186.01
1.23737	1188.25
1.24451	1190.49
1.2517	1192.72
1.25893	1194.94
1.26619	1197.16
1.2735	1199.36
1.28086	1201.55
1.28825	1203.74
1.29569	1205.91
1.30317	1208.08
1.31069	1210.24
1.31826	1212.39
1.32587	1214.53
1.33352	1216.67
1.34122	1218.79
1.34896	1220.91
1.35675	1223.02
1.36458	1225.12
1.37246	1227.21
1.38038	1229.29
1.38835	1231.37
1.39637	1233.44
1.40443	1235.5
1.41254	1237.56
1.42069	1239.6
1.42889	1241.65
1.43714	1243.68
1.44544	1245.7
1.45378	1247.72
1.46218	1249.73
1.47062	1251.73
1.47911	1253.72
1.48765	1255.71
1.49624	1257.68
1.50487	1259.65
1.51356	1261.6
1.5223	1263.55
1.53109	1265.49
1.53993	1267.42
1.54882	1269.34
1.55776	1271.25
1.56675	1273.16
1.5758	1275.05
1.58489	1276.93
1.59404	1278.81
1.60325	1280.67
1.6125	1282.53
1.62181	1284.37
1.63117	1286.21
1.64059	1288.03
1.65006	1289.85
1.65959	1291.65
1.66917	1293.45
1.6788	1295.24
1.6885	1297.01
1.69824	1298.78
1.70805	1300.53
1.71791	1302.28
1.72783	1304.02
1.7378	1305.74
1.74783	1307.46
1.75792	1309.16
1.76807	1310.86
1.77828	1312.55
1.78855	1314.22
1.79887	1315.89
1.80926	1317.54
1.8197	1319.19
1.83021	1320.83
1.84077	1322.46
1.8514	1324.07
1.86209	1325.68
1.87284	1327.28
1.88365	1328.87
1.89452	1330.45
1.90546	1332.02
1.91646	1333.59
1.92752	1335.14
1.93865	1336.69
1.94984	1338.22
1.9611	1339.75
1.97242	1341.27
1.98381	1342.78
1.99526	1344.29
2.00678	1345.79
2.01837	1347.28
2.03002	1348.76
2.04174	1350.24
2.05353	1351.71
2.06538	1353.17
2.0773	1354.63
2.0893	1356.08
2.10136	1357.52
2.11349	1358.92
2.12569	1360.31
2.13796	1361.7
2.1503	1363.08
2.16272	1364.45
2.1752	1365.82
2.18776	1367.19
2.20039	1368.55
2.21309	1369.9
2.22587	1371.24
2.23872	1372.58
2.25165	1373.92
2.26464	1375.24
2.27772	1376.56
2.29087	1377.88
2.30409	1379.18
2.31739	1380.48
2.33077	1381.78
2.34423	1383.06
2.35776	1384.34
2.37137	1385.61
2.38506	1386.88
2.39883	1388.14
2.41268	1389.39
2.42661	1390.63
2.44062	1391.87
2.45471	1393.09
2.46888	1394.31
2.48313	1395.53
2.49747	1396.73
2.51189	1397.93
2.52639	1399.12
2.54097	1400.3
2.55564	1401.47
2.5704	1402.63
2.58523	1403.79
2.60016	1404.94
2.61517	1406.08
2.63027	1407.21
2.64545	1408.33
2.66073	1409.44
2.67609	1410.55
2.69153	1411.65
2.70707	1412.73
2.7227	1413.81
2.73842	1414.88
2.75423	1415.94
2.77013	1417
2.78612	1418.04
2.80221	1419.08
2.81838	1420.11
2.83465	1421.13
2.85102	1422.15
2.86748	1423.16
2.88403	1424.16
2.90068	1425.14
2.91743	1426.12
2.93427	1427.09
2.95121	1428.05
2.96825	1429.01
2.98538	1429.95
3.00262	1430.88
3.01995	1431.81
3.03739	1432.72
3.05492	1433.62
3.07256	1434.52
3.0903	1435.41
3.10814	1436.28
3.12608	1437.15
3.14413	1438.01
3.16228	1438.86
3.18053	1439.69
3.1989	1440.52
3.21736	1441.34
3.23594	1442.16
3.25462	1442.96
3.27341	1443.75
3.2923	1444.53
3.31131	1445.31
3.33043	1446.07
3.34965	1446.83
3.36899	1447.58
3.38844	1448.31
3.408	1449.04
3.42768	1449.76
3.44747	1450.48
3.46737	1451.18
3.48739	1451.88
3.50752	1452.56
3.52777	1453.24
3.54813	1453.91
3.56862	1454.58
3.58922	1455.23
3.60994	1455.88
3.63078	1456.52
3.65174	1457.15
3.67282	1457.77
3.69403	1458.38
3.71535	1458.98
3.7368	1459.57
3.75837	1460.16
3.78007	1460.73
3.80189	1461.3
3.82384	1461.86
3.84592	1462.41
3.86812	1462.95
3.89045	1463.48
3.91291	1464
3.9355	1464.51
3.95822	1465.01
3.98107	1465.5
4.00405	1465.98
4.02717	1466.45
4.05042	1466.92
4.0738	1467.37
4.09732	1467.81
4.12098	1468.25
4.14477	1468.67
4.16869	1469.09
4.19276	1469.49
4.21697	1469.88
4.24131	1470.27
4.2658	1470.65
4.29042	1471.01
4.31519	1471.37
4.3401	1471.72
4.36516	1472.05
4.39036	1472.38
4.4157	1472.69
4.4412	1472.99
4.46684	1473.29
4.49262	1473.57
4.51856	1473.84
4.54465	1474.1
4.57088	1474.35
4.59727	1474.59
4.62381	1474.82
4.6505	1475.03
4.67735	1475.24
4.70435	1475.43
4.73151	1475.62
4.75883	1475.79
4.7863	1475.95
4.81393	1476.1
4.84172	1476.23
4.86968	1476.36
4.89779	1476.47
4.92606	1476.58
4.9545	1476.67
4.9831	1476.75
5.01187	1476.81
5.04081	1476.87
5.06991	1476.91
5.09918	1476.95
5.12861	1476.97
5.15822	1476.98
5.188	1476.97
5.21795	1476.96
5.24807	1476.93
5.27837	1476.9
5.30884	1476.85
5.33949	1476.79
5.37032	1476.71
5.40132	1476.63
5.4325	1476.53
5.46387	1476.43
5.49541	1476.31
5.52713	1476.18
5.55904	1476.04
5.59114	1475.88
5.62341	1475.71
5.65588	1475.53
5.68853	1475.34
5.72137	1475.13
5.7544	1474.91
5.78762	1474.68
5.82103	1474.44
5.85464	1474.19
5.88844	1473.92
5.92243	1473.65
5.95662	1473.36
5.99101	1473.06
6.0256	1472.75
6.06038	1472.42
6.09537	1472.09
6.13056	1471.74
6.16595	1471.38
6.20155	1471
6.23735	1470.62
6.27336	1470.22
6.30957	1469.81
6.346	1469.38
6.38263	1468.95
6.41948	1468.5
6.45654	1468.04
6.49382	1467.56
6.53131	1467.07
6.56901	1466.57
6.60693	1466.06
6.64508	1465.53
6.68344	1464.99
6.72202	1464.44
6.76083	1463.88
6.79986	1463.3
6.83912	1462.71
6.8786	1462.1
6.91831	1461.49
6.95825	1460.85
6.99842	1460.21
7.03882	1459.56
7.07946	1458.89
7.12033	1458.21
7.16143	1457.52
7.20278	1456.81
7.24436	1456.09
7.28618	1455.36
7.32825	1454.61
7.37055	1453.85
7.4131	1453.08
7.4559	1452.29
7.49894	1451.49
7.54223	1450.68
7.58578	1449.85
7.62957	1449.02
7.67361	1448.16
7.71792	1447.3
7.76247	1446.42
7.80728	1445.53
7.85236	1444.62
7.89769	1443.7
7.94328	1442.77
7.98914	1441.83
8.03526	1440.87
8.08165	1439.9
8.12831	1438.91
8.17523	1437.92
8.22243	1436.91
8.2699	1435.89
8.31764	1434.85
8.36566	1433.81
8.41395	1432.75
8.46253	1431.67
8.51138	1430.59
8.56052	1429.49
8.60994	1428.38
8.65964	1427.26
8.70964	1426.13
8.75992	1424.98
8.81049	1423.82
8.86135	1422.65
8.91251	1421.47
8.96396	1420.27
9.01571	1419.06
9.06776	1417.84
9.12011	1416.61
9.17276	1415.36
9.22571	1414.1
9.27897	1412.83
9.33254	1411.55
9.38642	1410.26
9.44061	1408.95
9.49511	1407.63
9.54993	1406.3
9.60506	1404.96
9.66051	1403.6
9.71628	1402.24
9.77237	1400.86
9.82879	1399.47
9.88553	1398.07
9.9426	1396.65
10	1395.23
10.0577	1393.79
10.1158	1392.35
10.1742	1390.89
10.2329	1389.42
10.292	1387.94
10.3514	1386.44
10.4112	1384.94
10.4713	1383.42
10.5317	1381.9
10.5925	1380.36
10.6537	1378.81
10.7152	1377.25
10.7771	1375.68
10.8393	1374.1
10.9018	1372.5
10.9648	1370.9
11.0281	1369.29
11.0917	1367.66
11.1558	1366.03
11.2202	1364.38
11.285	1362.73
11.3501	1361.06
11.4156	1359.38
11.4815	1357.7
11.5478	1356
11.6145	1354.3
11.6815	1352.58
11.749	1350.85
11.8168	1349.12
11.885	1347.37
11.9536	1345.61
12.0226	1343.85
12.0921	1342.07
12.1619	1340.29
12.2321	1338.49
12.3027	1336.68
12.3737	1334.87
12.4451	1333.05
12.517	1331.21
12.5893	1329.37
12.6619	1327.52
12.735	1325.66
12.8086	1323.79
12.8825	1321.91
12.9569	1320.02
13.0317	1318.12
13.1069	1316.22
13.1826	1314.3
13.2587	1312.38
13.3352	1310.45
13.4122	1308.51
13.4896	1306.56
13.5675	1304.6
13.6458	1302.64
13.7246	1300.67
13.8038	1298.69
13.8835	1296.7
13.9637	1294.71
14.0443	1292.71
14.1254	1290.7
14.2069	1288.68
14.2889	1286.66
14.3714	1284.63
14.4544	1282.59
14.5378	1280.54
14.6218	1278.49
14.7062	1276.43
14.7911	1274.37
14.8765	1272.29
14.9624	1270.21
15.0487	1268.12
15.1356	1266.03
15.223	1263.93
15.3109	1261.82
15.3993	1259.7
15.4882	1257.58
15.5776	1255.45
15.6675	1253.32
15.758	1251.17
15.8489	1249.02
15.9404	1246.87
16.0325	1244.7
16.125	1242.53
16.2181	1240.36
16.3117	1238.17
16.4059	1235.98
16.5006	1233.79
16.5959	1231.58
16.6917	1229.37
16.788	1227.16
16.885	1224.93
16.9824	1222.7
17.0805	1220.47
17.1791	1218.23
17.2783	1215.98
17.378	1213.72
17.4783	1211.46
17.5792	1209.2
17.6807	1206.92
17.7828	1204.64
17.8855	1202.36
17.9887	1200.07
18.0926	1197.77
18.197	1195.47
18.3021	1193.16
18.4077	1190.85
18.514	1188.53
18.6209	1186.2
18.7284	1183.87
18.8365	1181.54
18.9452	1179.19
19.0546	1176.85
19.1646	1174.49
19.2752	1172.14
19.3865	1169.77
19.4984	1167.41
19.611	1165.03
19.7242	1162.66
19.8381	1160.27
19.9526	1157.89
20.0678	1155.5
20.1837	1153.1
20.3002	1150.7
20.4174	1148.29
20.5353	1145.88
20.6538	1143.47
20.773	1141.05
20.893	1138.63
21.0136	1136.21
21.1349	1133.79
21.2569	1131.37
21.3796	1128.95
21.503	1126.52
21.6272	1124.09
21.752	1121.65
21.8776	1119.22
22.0039	1116.77
22.1309	1114.33
22.2587	1111.88
22.3872	1109.43
22.5165	1106.98
22.6464	1104.52
22.7772	1102.06
22.9087	1099.6
23.0409	1097.13
23.1739	1094.66
23.3077	1092.19
23.4423	1089.71
23.5776	1087.24
23.7137	1084.76
23.8506	1082.27
23.9883	1079.79
24.1268	1077.3
24.2661	1074.81
24.4062	1072.32
24.5471	1069.82
24.6888	1067.33
24.8313	1064.83
24.9747	1062.32
25.1189	1059.82
25.2639	1057.31
25.4097	1054.81
25.5564	1052.3
25.704	1049.79
25.8523	1047.27
26.0016	1044.76
26.1517	1042.24
26.3027	1039.72
26.4545	1037.2
26.6073	1034.68
26.7609	1032.16
26.9153	1029.63
27.0707	1027.1
27.227	1024.58
27.3842	1022.05
27.5423	1019.52
27.7013	1016.98
27.8612	1014.45
28.0221	1011.92
28.1838	1009.37
28.3465	1006.83
28.5102	1004.29
28.6748	1001.74
28.8403	999.198
29.0068	996.652
29.1743	994.104
29.3427	991.556
29.5121	989.008
29.6825	986.458
29.8538	983.908
30.0262	981.358
30.1995	978.807
30.3739	976.255
30.5492	973.703
30.7256	971.151
30.903	968.598
31.0814	966.045
31.2608	963.492
31.4413	960.939
31.6228	958.385
31.8053	955.832
31.989	953.278
32.1736	950.725
32.3594	948.171
32.5462	945.617
32.7341	943.064
32.923	940.51
33.1131	937.957
33.3043	935.404
33.4965	932.851
33.6899	930.298
33.8844	927.745
34.08	925.193
34.2768	922.64
34.4747	920.089
34.6737	917.537
34.8739	914.985
35.0752	912.434
35.2777	909.883
35.4813	907.332
35.6862	904.781
35.8922	902.231
36.0994	899.681
36.3078	897.132
36.5174	894.584
36.7282	892.036
36.9403	889.489
37.1535	886.943
37.368	884.398
37.5837	881.854
37.8007	879.311
38.0189	876.769
38.2384	874.228
38.4592	871.688
38.6812	869.149
38.9045	866.611
39.1291	864.075
39.355	861.54
39.5822	859.007
39.8107	856.475
40.0405	853.944
40.2717	851.415
40.5042	848.887
40.738	846.361
40.9732	843.836
41.2098	841.313
41.4477	838.791
41.6869	836.271
41.9276	833.753
42.1697	831.235
42.4131	828.717
42.658	826.201
42.9042	823.686
43.1519	821.174
43.401	818.663
43.6516	816.155
43.9036	813.648
44.157	811.144
44.412	808.642
44.6684	806.142
44.9262	803.645
45.1856	801.15
45.4465	798.657
45.7088	796.167
45.9727	793.679
46.2381	791.194
46.505	788.712
46.7735	786.232
47.0435	783.755
47.3151	781.281
47.5883	778.809
47.863	776.34
48.1393	773.874
48.4172	771.411
48.6968	768.951
48.9779	766.494
49.2606	764.04
49.545	761.589
49.831	759.14
50.1187	756.695
50.4081	754.253
50.6991	751.813
50.9918	749.377
51.2861	746.944
51.5822	744.513
51.88	742.086
52.1795	739.661
52.4807	737.24
52.7837	734.821
53.0884	732.405
53.3949	729.992
53.7032	727.582
54.0132	725.174
54.325	722.769
54.6387	720.367
54.9541	717.967
55.2713	715.57
55.5904	713.175
55.9114	710.782
56.2341	708.4
56.5588	706.023
56.8853	703.649
57.2137	701.277
57.544	698.908
57.8762	696.542
58.2103	694.178
58.5464	691.817
58.8844	689.459
59.2243	687.104
59.5662	684.751
59.9101	682.402
60.256	680.057
60.6038	677.714
60.9537	675.375
61.3056	673.039
61.6595	670.707
62.0155	668.378
62.3735	666.053
62.7336	663.731
63.0957	661.414
63.46	659.1
63.8263	656.79
64.1948	654.484
64.5654	652.181
64.9382	649.883
65.3131	647.589
65.6901	645.299
66.0693	643.014
66.4508	640.732
66.8344	638.455
67.2202	636.182
67.6083	633.914
67.9986	631.65
68.3912	629.39
68.786	627.134
69.1831	624.883
69.5825	622.637
69.9842	620.395
70.3882	618.154
70.7946	615.918
71.2033	613.686
71.6143	611.459
72.0278	609.237
72.4436	607.019
72.8618	604.806
73.2825	602.598
73.7055	600.394
74.131	598.196
74.559	596.002
74.9894	593.814
75.4223	591.63
75.8578	589.452
76.2957	587.278
76.7361	585.11
77.1792	582.946
77.6247	580.788
78.0728	578.634
78.5236	576.486
78.9769	574.342
79.4328	572.204
79.8914	570.071
80.3526	567.942
80.8165	565.819
81.2831	563.701
81.7523	561.587
82.2243	559.478
82.699	557.374
83.1764	555.275
83.6566	553.181
84.1395	551.091
84.6253	549.005
85.1138	546.924
85.6052	544.848
86.0994	542.777
86.5964	540.71
87.0964	538.648
87.5992	536.591
88.1049	534.539
88.6135	532.492
89.1251	530.45
89.6396	528.414
90.1571	526.382
90.6776	524.355
91.2011	522.334
91.7276	520.317
92.2571	518.306
92.7897	516.301
93.3254	514.3
93.8642	512.305
94.4061	510.314
94.9511	508.329
95.4993	506.35
96.0506	504.375
96.6051	502.406
97.1628	500.442
97.7237	498.484
98.2879	496.53
98.8553	494.582
99.426	492.638
100	490.701
100.577	488.768
101.158	486.841
101.742	484.919
102.329	483.002
102.92	481.091
103.514	479.185
104.112	477.285
104.713	475.39
105.317	473.501
105.925	471.617
106.537	469.738
107.152	467.865
107.771	465.998
108.393	464.135
109.018	462.279
109.648	460.427
110.281	458.581
110.917	456.741
111.558	454.905
112.202	453.075
112.85	451.251
113.501	449.431
114.156	447.617
114.815	445.808
115.478	444.004
116.145	442.206
116.815	440.414
117.49	438.627
118.168	436.845
118.85	435.069
119.536	433.298
120.226	431.533
120.921	429.774
121.619	428.02
122.321	426.272
123.027	424.53
123.737	422.793
124.451	421.061
125.17	419.335
125.893	417.615
126.619	415.9
127.35	414.191
128.086	412.487
128.825	410.789
129.569	409.096
130.317	407.409
131.069	405.727
131.826	404.051
132.587	402.379
133.352	400.713
134.122	399.053
134.896	397.397
135.675	395.747
136.458	394.102
137.246	392.461
138.038	390.826
138.835	389.195
139.637	387.569
140.443	385.946
141.254	384.326
142.069	382.711
142.889	381.101
143.714	379.495
144.544	377.895
145.378	376.299
146.218	374.708
147.062	373.123
147.911	371.542
148.765	369.967
149.624	368.397
150.487	366.832
151.356	365.273
152.23	363.719
153.109	362.17
153.993	360.628
154.882	359.09
155.776	357.559
156.675	356.033
157.58	354.513
158.489	352.999
159.404	351.49
160.325	349.988
161.25	348.491
162.181	347.001
163.117	345.516
164.059	344.037
165.006	342.565
165.959	341.098
166.917	339.638
167.88	338.183
168.85	336.735
169.824	335.293
170.805	333.857
171.791	332.427
172.783	331.004
173.78	329.586
174.783	328.174
175.792	326.769
176.807	325.37
177.828	323.976
178.855	322.589
179.887	321.208
180.926	319.833
181.97	318.463
183.021	317.1
184.077	315.742
185.14	314.39
186.209	313.043
187.284	311.703
188.365	310.368
189.452	309.038
190.546	307.713
191.646	306.394
192.752	305.08
193.865	303.771
194.984	302.467
196.11	301.168
197.242	299.874
198.381	298.584
199.526	297.298
200.678	296.016
201.837	294.739
203.002	293.466
204.174	292.196
205.353	290.929
206.538	289.666
207.73	288.406
208.93	287.149
210.136	285.898
211.349	284.678
212.569	283.461
213.796	282.247
215.03	281.035
216.272	279.826
217.52	278.62
218.776	277.417
220.039	276.217
221.309	275.02
222.587	273.827
223.872	272.636
225.165	271.449
226.464	270.265
227.772	269.084
229.087	267.907
230.409	266.734
231.739	265.564
233.077	264.397
234.423	263.234
235.776	262.075
237.137	260.92
238.506	259.769
239.883	258.621
241.268	257.477
242.661	256.338
244.062	255.202
245.471	254.071
246.888	252.943
248.313	251.82
249.747	250.701
251.189	249.586
252.639	248.476
254.097	247.37
255.564	246.268
257.04	245.171
258.523	244.078
260.016	242.989
261.517	241.906
263.027	240.826
264.545	239.752
266.073	238.682
267.609	237.616
269.153	236.555
270.707	235.499
272.27	234.448
273.842	233.401
275.423	232.359
277.013	231.322
278.612	230.289
280.221	229.261
281.838	228.232
283.465	227.208
285.102	226.189
286.748	225.174
288.403	224.164
290.068	223.159
291.743	222.159
293.427	221.164
295.121	220.174
296.825	219.188
298.538	218.208
300.262	217.232
301.995	216.261
303.739	215.294
305.492	214.333
307.256	213.376
309.03	212.425
310.814	211.478
312.608	210.535
314.413	209.598
316.228	208.665
318.053	207.736
319.89	206.812
321.736	205.893
323.594	204.978
325.462	204.068
327.341	203.162
329.23	202.261
331.131	201.363
333.043	200.47
334.965	199.581
336.899	198.696
338.844	197.815
340.8	196.937
342.768	196.064
344.747	195.194
346.737	194.327
348.739	193.464
350.752	192.604
352.777	191.747
354.813	190.893
356.862	190.042
358.922	189.195
360.994	188.351
363.078	187.51
365.174	186.673
367.282	185.838
369.403	185.008
371.535	184.18
373.68	183.356
375.837	182.536
378.007	181.718
380.189	180.905
382.384	180.094
384.592	179.287
386.812	178.484
389.045	177.684
391.291	176.887
393.55	176.094
395.822	175.304
398.107	174.518
400.405	173.735
402.717	172.955
405.042	172.179
407.38	171.406
409.732	170.637
412.098	169.871
414.477	169.108
416.869	168.348
419.276	167.592
421.697	166.838
424.131	166.086
426.58	165.338
429.042	164.593
431.519	163.851
434.01	163.112
436.516	162.377
439.036	161.645
441.57	160.917
444.12	160.192
446.684	159.47
449.262	158.752
451.856	158.037
454.465	157.325
457.088	156.617
459.727	155.913
462.381	155.211
465.05	154.514
467.735	153.819
470.435	153.129
473.151	152.441
475.883	151.757
478.63	151.077
481.393	150.4
484.172	149.727
486.968	149.056
489.779	148.39
492.606	147.726
495.45	147.066
498.31	146.41
501.187	145.757
504.081	145.107
506.991	144.46
509.918	143.816
512.861	143.176
515.822	142.539
518.8	141.905
521.795	141.274
524.807	140.646
527.837	140.021
530.884	139.398
533.949	138.779
537.032	138.162
540.132	137.548
543.25	136.937
546.387	136.328
549.541	135.722
552.713	135.118
555.904	134.516
559.114	133.917
562.341	133.323
565.588	132.733
568.853	132.145
572.137	131.559
575.44	130.975
578.762	130.393
582.103	129.814
585.464	129.236
588.844	128.662
592.243	128.089
595.662	127.518
599.101	126.95
602.56	126.385
606.038	125.821
609.537	125.26
613.056	124.702
616.595	124.145
620.155	123.592
623.735	123.04
627.336	122.491
630.957	121.945
634.6	121.401
638.263	120.859
641.948	120.32
645.654	119.784
649.382	119.25
653.131	118.718
656.901	118.189
660.693	117.662
664.508	117.138
668.344	116.617
672.202	116.098
676.083	115.581
679.986	115.067
683.912	114.555
687.86	114.046
691.831	113.54
695.825	113.035
699.842	112.534
703.882	112.033
707.946	111.535
712.033	111.039
716.143	110.546
720.278	110.055
724.436	109.566
728.618	109.08
732.825	108.597
737.055	108.115
741.31	107.637
745.59	107.16
749.894	106.686
754.223	106.215
758.578	105.746
762.957	105.279
767.361	104.815
771.792	104.353
776.247	103.893
780.728	103.436
785.236	102.981
789.769	102.528
794.328	102.078
798.914	101.63
803.526	101.184
808.165	100.74
812.831	100.298
817.523	99.8587
822.243	99.4213
826.99	98.986
831.764	98.5526
836.566	98.1212
841.395	97.6917
846.253	97.264
851.138	96.8382
856.052	96.4142
860.994	95.9922
865.964	95.5721
870.964	95.1539
875.992	94.7376
881.049	94.3232
886.135	93.9108
891.251	93.5003
896.396	93.0917
901.571	92.6851
906.776	92.2804
912.011	91.8776
917.276	91.4768
922.571	91.0779
927.897	90.681
933.254	90.286
938.642	89.8928
944.061	89.5016
949.511	89.1123
954.993	88.7249
960.506	88.3393
966.051	87.9556
971.628	87.5738
977.237	87.1937
982.879	86.8155
988.553	86.439
994.26	86.0643
1000	85.6915
1005.77	85.3204
1011.58	84.9511
1017.42	84.5837
1023.29	84.218
1029.2	83.8542
1035.14	83.4921
1041.12	83.1318
1047.13	82.7733
1053.17	82.4166
1059.25	82.0616
1065.37	81.7084
1071.52	81.357
1077.71	81.0073
1083.93	80.6593
1090.18	80.313
1096.48	79.9683
1102.81	79.6254
1109.17	79.2841
1115.58	78.9444
1122.02	78.6063
1128.5	78.2698
1135.01	77.9349
1141.56	77.6015
1148.15	77.2698
1154.78	76.9397
1161.45	76.6111
1168.15	76.2842
1174.9	75.9589
1181.68	75.6352
1188.5	75.3131
1195.36	74.9926
1202.26	74.6737
1209.21	74.3564
1216.19	74.0407
1223.21	73.7265
1230.27	73.414
1237.37	73.103
1244.51	72.7936
1251.7	72.4857
1258.93	72.1793
1266.19	71.8745
1273.5	71.5712
1280.86	71.2694
1288.25	70.9691
1295.69	70.6703
1303.17	70.3729
1310.69	70.077
1318.26	69.7825
1325.87	69.4895
1333.52	69.1979
1341.22	68.9076
1348.96	68.6187
1356.75	68.3311
1364.58	68.0449
1372.46	67.7599
1380.38	67.4762
1388.35	67.1937
1396.37	66.9124
1404.43	66.632
1412.54	66.3524
1420.69	66.0739
1428.89	65.7967
1437.14	65.5206
1445.44	65.2458
1453.78	64.9721
1462.18	64.6997
1470.62	64.4286
1479.11	64.1587
1487.65	63.89
1496.24	63.6227
1504.87	63.3566
1513.56	63.0919
1522.3	62.8284
1531.09	62.5663
1539.93	62.3056
1548.82	62.0461
1557.76	61.7881
1566.75	61.5314
1575.8	61.276
1584.89	61.0221
1594.04	60.7695
1603.25	60.5183
1612.5	60.2685
1621.81	60.0201
1631.17	59.7731
1640.59	59.5275
1650.06	59.2833
1659.59	59.0406
1669.17	58.7992
1678.8	58.5593
1688.5	58.3208
1698.24	58.0837
1708.05	57.848
1717.91	57.6138
1727.83	57.3809
1737.8	57.1494
1747.83	56.9194
1757.92	56.6907
1768.07	56.4634
1778.28	56.2375
1788.55	56.013
1798.87	55.7898
1809.26	55.5679
1819.7	55.3474
1830.21	55.1282
1840.77	54.9104
1851.4	54.6938
1862.09	54.4784
1872.84	54.2644
1883.65	54.0515
1894.52	53.8399
1905.46	53.6294
1916.46	53.4201
1927.52	53.212
1938.65	53.0049
1949.84	52.7989
1961.1	52.594
1972.42	52.3901
1983.81	52.1871
1995.26	51.9851
2006.78	51.7781
2018.37	51.5618
2030.02	51.3463
2041.74	51.1319
2053.53	50.9183
2065.38	50.7055
2077.3	50.4935
2089.3	50.2823
2101.36	50.0724
2113.49	49.8688
2125.69	49.6658
2137.96	49.4635
2150.3	49.2619
2162.72	49.0609
2175.2	48.8607
2187.76	48.6612
2200.39	48.4624
2213.09	48.2644
2225.87	48.0671
2238.72	47.8705
2251.65	47.6747
2264.64	47.4797
2277.72	47.2855
2290.87	47.092
2304.09	46.8994
2317.39	46.7075
2330.77	46.5165
2344.23	46.3263
2357.76	46.1369
2371.37	45.9484
2385.06	45.7607
2398.83	45.5738
2412.68	45.3879
2426.61	45.2028
2440.62	45.0186
2454.71	44.8353
2468.88	44.6528
2483.13	44.4713
2497.47	44.2907
2511.89	44.111
2526.39	43.9323
2540.97	43.7544
2555.64	43.5775
2570.4	43.4016
2585.23	43.2265
2600.16	43.0525
2615.17	42.8794
2630.27	42.7073
2645.45	42.5361
2660.73	42.3659
2676.09	42.1967
2691.53	42.0284
2707.07	41.8612
2722.7	41.6949
2738.42	41.5296
2754.23	41.3653
2770.13	41.2021
2786.12	41.0398
2802.21	40.8783
2818.38	40.7171
2834.65	40.5568
2851.02	40.3975
2867.48	40.2392
2884.03	40.0819
2900.68	39.9257
2917.43	39.7704
2934.27	39.6161
2951.21	39.4628
2968.25	39.3105
2985.38	39.1591
3002.62	39.0088
3019.95	38.8594
3037.39	38.7111
3054.92	38.5637
3072.56	38.4173
3090.3	38.2718
3108.14	38.1273
3126.08	37.9837
3144.13	37.8411
3162.28	37.6994
3180.53	37.5587
3198.9	37.4188
3217.36	37.2799
3235.94	37.1419
3254.62	37.0047
3273.41	36.8684
3292.3	36.733
3311.31	36.5984
3330.43	36.4646
3349.65	36.3316
3368.99	36.1994
3388.44	36.068
3408	35.9373
3427.68	35.8073
3447.47	35.6781
3467.37	35.5495
3487.39	35.4216
3507.52	35.2943
3527.77	35.1675
3548.13	35.0414
3568.62	34.9159
3589.22	34.7911
3609.94	34.6668
3630.78	34.5432
3651.74	34.4202
3672.82	34.2979
3694.03	34.1762
3715.35	34.0551
3736.8	33.9347
3758.37	33.8149
3780.07	33.6957
3801.89	33.5772
3823.84	33.4594
3845.92	33.3422
3868.12	33.2256
3890.45	33.1097
3912.91	32.9944
3935.5	32.8798
3958.22	32.7658
3981.07	32.6524
4004.05	32.5397
4027.17	32.4276
4050.42	32.3161
4073.8	32.2053
4097.32	32.0951
4120.98	31.9855
4144.77	31.8765
4168.69	31.7682
4192.76	31.6604
4216.97	31.5531
4241.31	31.4463
4265.8	31.34
4290.42	31.2344
4315.19	31.1294
4340.1	31.025
4365.16	30.9212
4390.36	30.8181
4415.7	30.7155
4441.2	30.6136
4466.84	30.5122
4492.62	30.4115
4518.56	30.3115
4544.65	30.212
4570.88	30.1132
4597.27	30.015
4623.81	29.9174
4650.5	29.8204
4677.35	29.7241
4704.35	29.6284
4731.51	29.5333
4758.83	29.4388
4786.3	29.345
4813.93	29.2517
4841.72	29.1591
4869.68	29.0671
4897.79	28.9757
4926.06	28.8849
4954.5	28.7947
4983.1	28.7051
5011.87	28.6161
5040.81	28.5276
5069.91	28.4398
5099.18	28.3525
5128.61	28.2658
5158.22	28.1796
5188	28.094
5217.95	28.0089
5248.07	27.9244
5278.37	27.8404
5308.84	27.7568
5339.49	27.6738
5370.32	27.5913
5401.32	27.5093
5432.5	27.4277
5463.87	27.3465
5495.41	27.2658
5527.13	27.1855
5559.04	27.1056
5591.14	27.0261
5623.41	26.9476
5655.88	26.8696
5688.53	26.792
5721.37	26.7148
5754.4	26.6379
5787.62	26.5615
5821.03	26.4854
5854.64	26.4097
5888.44	26.3344
5922.43	26.2595
5956.62	26.185
5991.01	26.1109
6025.6	26.0372
6060.38	25.9639
6095.37	25.891
6130.56	25.8186
6165.95	25.7465
6201.55	25.6749
6237.35	25.6036
6273.36	25.5328
6309.57	25.4624
6346	25.3925
6382.63	25.3229
6419.48	25.2538
6456.54	25.1851
6493.82	25.1168
6531.31	25.049
6569.01	24.9815
6606.93	24.9145
6645.08	24.848
6683.44	24.7818
6722.02	24.7161
6760.83	24.6507
6799.86	24.5858
6839.12	24.5214
6878.6	24.4573
6918.31	24.3937
6958.25	24.3304
6998.42	24.2676
7038.82	24.205
7079.46	24.1428
7120.33	24.0811
7161.43	24.0197
7202.78	23.9587
7244.36	23.8982
7286.18	23.838
7328.25	23.7783
7370.55	23.719
7413.1	23.66
7455.9	23.6015
7498.94	23.5434
7542.23	23.4857
7585.78	23.4284
7629.57	23.3714
7673.61	23.3149
7717.92	23.2588
7762.47	23.2031
7807.28	23.1477
7852.36	23.0928
7897.69	23.0382
7943.28	22.984
7989.14	22.9301
8035.26	22.8767
8081.65	22.8236
8128.31	22.7708
8175.23	22.7184
8222.43	22.6664
8269.9	22.6147
8317.64	22.5633
8365.66	22.5123
8413.95	22.4615
8462.53	22.4111
8511.38	22.361
8560.52	22.3112
8609.94	22.2617
8659.64	22.2125
8709.64	22.1636
8759.92	22.1151
8810.49	22.0669
8861.35	22.019
8912.51	21.9714
8963.96	21.9241
9015.71	21.8771
9067.76	21.8305
9120.11	21.7842
9172.76	21.7382
9225.71	21.6925
9278.97	21.6471
9332.54	21.602
9386.42	21.5573
9440.61	21.5128
9495.11	21.4687
9549.93	21.4249
9605.06	21.3813
9660.51	21.3381
9716.28	21.2952
9772.37	21.2526
9828.79	21.2102
9885.53	21.1682
9942.6	21.1264
10000	21.0849
10057.7	21.0437
10115.8	21.0029
10174.2	20.9623
10232.9	20.9219
10292	20.8819
10351.4	20.8422
10411.2	20.8027
10471.3	20.7636
10531.7	20.7247
10592.5	20.6861
10653.7	20.6478
10715.2	20.6098
10777.1	20.572
10839.3	20.5346
10901.8	20.4974
10964.8	20.4605
11028.1	20.4238
11091.7	20.3874
11155.8	20.3513
11220.2	20.3154
11285	20.2798
11350.1	20.2444
11415.6	20.2093
11481.5	20.1745
11547.8	20.1399
11614.5	20.1055
11681.5	20.0714
11749	20.0376
11816.8	20.004
11885	19.9706
11953.6	19.9375
12022.6	19.9047
12092.1	19.8721
12161.9	19.8397
12232.1	19.8076
12302.7	19.7757
12373.7	19.7441
12445.1	19.7127
12517	19.6815
12589.3	19.6505
12661.9	19.6198
12735	19.5893
12808.6	19.559
12882.5	19.5289
12956.9	19.499
13031.7	19.4693
13106.9	19.4398
13182.6	19.4105
13258.7	19.3814
13335.2	19.3525
13412.2	19.3237
13489.6	19.2951
13567.5	19.2667
13645.8	19.2384
13724.6	19.2103
13803.8	19.1823
13883.5	19.1544
13963.7	19.1267
14044.3	19.0986
14125.4	19.0702
14206.9	19.0422
14288.9	19.0143
14371.4	18.9866
14454.4	18.9592
14537.8	18.932
14621.8	18.9049
14706.2	18.8781
14791.1	18.8515
14876.5	18.8251
14962.4	18.7989
15048.7	18.773
15135.6	18.7472
15223	18.7216
15310.9	18.6962
15399.3	18.671
15488.2	18.6461
15577.6	18.6213
15667.5	18.5967
15758	18.5723
15848.9	18.5481
15940.4	18.5241
16032.5	18.5003
16125	18.4767
16218.1	18.4533
16311.7	18.43
16405.9	18.407
16500.6	18.3841
16595.9	18.3615
16691.7	18.339
16788	18.3167
16885	18.2946
16982.4	18.2726
17080.5	18.2509
17179.1	18.2293
17278.3	18.2079
17378	18.1867
17478.3	18.1656
17579.2	18.1448
17680.7	18.1241
17782.8	18.1036
17885.5	18.0832
17988.7	18.063
18092.6	18.043
18197	18.0232
18302.1	18.0035
18407.7	17.9841
18514	17.9647
18620.9	17.9456
18728.4	17.9266
18836.5	17.9077
18945.2	17.8891
19054.6	17.8706
19164.6	17.8522
19275.2	17.834
19386.5	17.816
19498.4	17.7982
19611	17.7805
19724.2	17.7629
19838.1	17.7455
19952.6	17.7283
20067.8	17.7112
20183.7	17.6943
20300.2	17.6775
20417.4	17.6608
20535.3	17.6444
20653.8	17.628
20773	17.6119
20893	17.5958
21013.6	17.58
21134.9	17.5642
21256.9	17.5486
21379.6	17.5332
21503	17.5179
21627.2	17.5027
21752	17.4877
21877.6	17.4728
22003.9	17.4581
22130.9	17.4435
22258.7	17.429
22387.2	17.4147
22516.5	17.4005
22646.4	17.3865
22777.2	17.3725
22908.7	17.3588
23040.9	17.3451
23173.9	17.3316
23307.7	17.3182
23442.3	17.305
23577.6	17.2918
23713.7	17.2789
23850.6	17.266
23988.3	17.2533
24126.8	17.2406
24266.1	17.2282
24406.2	17.2158
24547.1	17.2036
24688.8	17.1915
24831.3	17.1795
24974.7	17.1676
25118.9	17.1559
25263.9	17.1443
25409.7	17.1328
25556.4	17.1214
25704	17.1101
25852.3	17.099
26001.6	17.088
26151.7	17.0771
26302.7	17.0663
26454.5	17.0556
26607.3	17.045
26760.9	17.0346
26915.3	17.0242
27070.7	17.014
27227	17.0039
27384.2	16.9939
27542.3	16.984
27701.3	16.9742
27861.2	16.9645
28022.1	16.955
28183.8	16.9455
28346.5	16.9361
28510.2	16.9269
28674.8	16.9177
28840.3	16.9087
29006.8	16.8998
29174.3	16.8909
29342.7	16.8822
29512.1	16.8736
29682.5	16.865
29853.8	16.8566
30026.2	16.8483
30199.5	16.84
30373.9	16.8319
30549.2	16.8239
30725.6	16.8159
30903	16.8081
31081.4	16.8004
31260.8	16.7927
31441.3	16.7851
31622.8	16.7777
31805.3	16.7703
31989	16.763
32173.6	16.7558
32359.4	16.7488
32546.2	16.7417
32734.1	16.7348
32923	16.728
33113.1	16.7213
33304.3	16.7146
33496.5	16.7081
33689.9	16.7016
33884.4	16.6952
34080	16.6889
34276.8	16.6827
34474.7	16.6765
34673.7	16.6705
34873.9	16.6645
35075.2	16.6586
35277.7	16.6528
35481.3	16.6471
35686.2	16.6415
35892.2	16.6359
36099.4	16.6304
36307.8	16.625
36517.4	16.6197
36728.2	16.6145
36940.3	16.6093
37153.5	16.6042
37368	16.5992
37583.7	16.5943
37800.7	16.5894
38018.9	16.5846
38238.4	16.5799
38459.2	16.5753
38681.2	16.5707
38904.5	16.5662
39129.1	16.5618
39355	16.5574
39582.2	16.5531
39810.7	16.5489
40040.5	16.5448
40271.7	16.5407
40504.2	16.5367
40738	16.5328
40973.2	16.5289
41209.8	16.5251
41447.7	16.5214
41686.9	16.5177
41927.6	16.5141
42169.7	16.5106
42413.1	16.5071
42658	16.5037
42904.2	16.5003
43151.9	16.497
43401	16.4938
43651.6	16.4907
43903.6	16.4876
44157	16.4845
44412	16.4816
44668.4	16.4787
44926.2	16.4758
45185.6	16.473
45446.5	16.4703
45708.8	16.4676
45972.7	16.465
46238.1	16.4624
46505	16.4599
46773.5	16.4574
47043.5	16.4551
47315.1	16.4527
47588.3	16.4504
47863	16.4482
48139.3	16.446
48417.2	16.4439
48696.8	16.4418
48977.9	16.4398
49260.6	16.4379
49545	16.4359
49831	16.4341
50118.7	16.4323
50408.1	16.4305
50699.1	16.4288
50991.8	16.4271
51286.1	16.4255
51582.2	16.424
51880	16.4225
52179.5	16.421
52480.7	16.4196
52783.7	16.4182
53088.4	16.4169
53394.9	16.4156
53703.2	16.4144
54013.2	16.4132
54325	16.4121
54638.7	16.411
54954.1	16.4099
55271.3	16.4089
55590.4	16.4079
55911.4	16.407
56234.1	16.4061
56558.8	16.4053
56885.3	16.4045
57213.7	16.4038
57544	16.4031
57876.2	16.4024
58210.3	16.4018
58546.4	16.4012
58884.4	16.4006
59224.3	16.4001
59566.2	16.3996
59910.1	16.3992
60256	16.3988
60603.8	16.3985
60953.7	16.3981
61305.6	16.3979
61659.5	16.3976
62015.5	16.3974
62373.5	16.3972
62733.6	16.3971
63095.7	16.397
63460	16.3969
63826.3	16.3969
64194.8	16.3969
64565.4	16.3969
64938.2	16.397
65313.1	16.3971
65690.1	16.3973
66069.3	16.3974
66450.8	16.3976
66834.4	16.3979
67220.2	16.3981
67608.3	16.3984
67998.6	16.3988
68391.2	16.3991
68786	16.3995
69183.1	16.3999
69582.5	16.4004
69984.2	16.4009
70388.2	16.4014
70794.6	16.4019
71203.3	16.4025
71614.3	16.4031
72027.8	16.4037
72443.6	16.4043
72861.8	16.405
73282.5	16.4057
73705.5	16.4065
74131	16.4072
74559	16.408
74989.4	16.4088
75422.3	16.4096
75857.8	16.4105
76295.7	16.4114
76736.1	16.4123
77179.2	16.4132
77624.7	16.4142
78072.8	16.4152
78523.6	16.4162
78976.9	16.4172
79432.8	16.4183
79891.4	16.4194
80352.6	16.4205
80816.5	16.4216
81283.1	16.4227
81752.3	16.4239
82224.3	16.4251
82699	16.4263
83176.4	16.4275
83656.6	16.4288
84139.5	16.4301
84625.3	16.4313
85113.8	16.4327
85605.2	16.434
86099.4	16.4353
86596.4	16.4367
87096.4	16.4381
87599.2	16.4395
88104.9	16.4409
88613.5	16.4424
89125.1	16.4439
89639.6	16.4453
90157.1	16.4468
90677.6	16.4484
91201.1	16.4499
91727.6	16.4515
92257.1	16.453
92789.7	16.4546
93325.4	16.4562
93864.2	16.4578
94406.1	16.4595
94951.1	16.4611
95499.3	16.4628
96050.6	16.4645
96605.1	16.4662
97162.8	16.4679
97723.7	16.4696
98287.9	16.4713
98855.3	16.4731
99426	16.4749
100000	16.4766
100577	16.4784
101158	16.4802
101742	16.4821
102329	16.4839
102920	16.4858
103514	16.4876
104112	16.4895
104713	16.4914
105317	16.4933
105925	16.4952
106537	16.4971
107152	16.499
107771	16.501
108393	16.5029
109018	16.5049
109648	16.5069
110281	16.5089
110917	16.5109
111558	16.5129
112202	16.5149
112850	16.5169
113501	16.519
114156	16.521
114815	16.5231
115478	16.5251
116145	16.5272
116815	16.5293
117490	16.5314
118168	16.5335
118850	16.5356
119536	16.5377
120226	16.5399
120921	16.542
121619	16.5441
122321	16.5463
123027	16.5484
123737	16.5506
124451	16.5528
125170	16.555
125893	16.5572
126619	16.5593
127350	16.5615
128086	16.5638
128825	16.566
129569	16.5682
130317	16.5704
131069	16.5726
131826	16.5749
132587	16.5771
133352	16.5794
134122	16.5816
134896	16.5839
135675	16.5861
136458	16.5884
137246	16.5907
138038	16.593
138835	16.5953
139637	16.5975
140443	16.5998
141254	16.6021
142069	16.6044
142889	16.6067
143714	16.609
144544	16.6114
145378	16.6137
146218	16.616
147062	16.6183
147911	16.6206
148765	16.623
149624	16.6253
150487	16.6276
151356	16.63
152230	16.6323
153109	16.6347
153993	16.637
154882	16.6394
155776	16.6417
156675	16.6441
157580	16.6464
158489	16.6488
159404	16.6511
160325	16.6535
161250	16.6559
162181	16.6582
163117	16.6606
164059	16.663
165006	16.6653
165959	16.6677
166917	16.6701
167880	16.6724
168850	16.6748
169824	16.6772
170805	16.6796
171791	16.6819
172783	16.6843
173780	16.6867
174783	16.6891
175792	16.6914
176807	16.6938
177828	16.6962
178855	16.6986
179887	16.7009
180926	16.7033
181970	16.7057
183021	16.7081
184077	16.7104
185140	16.7128
186209	16.7152
187284	16.7176
188365	16.7199
189452	16.7223
190546	16.7247
191646	16.7271
192752	16.7294
193865	16.7318
194984	16.7342
196110	16.7365
197242	16.7389
198381	16.7413
199526	16.7436
200678	16.746
201837	16.7483
203002	16.7507
204174	16.7531
205353	16.7554
206538	16.7578
207730	16.7601
208930	16.7625
210136	16.7648
211349	16.7672
212569	16.7695
213796	16.7718
215030	16.7742
216272	16.7765
217520	16.7788
218776	16.7812
220039	16.7835
221309	16.7858
222587	16.7882
223872	16.7905
225165	16.7928
226464	16.7951
227772	16.7974
229087	16.7997
230409	16.802
231739	16.8043
233077	16.8066
234423	16.8089
235776	16.8112
237137	16.8135
238506	16.8158
239883	16.8181
241268	16.8204
242661	16.8227
244062	16.8249
245471	16.8272
246888	16.8295
248313	16.8317
249747	16.834
251189	16.8363
252639	16.8385
254097	16.8408
255564	16.843
257040	16.8453
258523	16.8475
260016	16.8497
261517	16.852
263027	16.8542
264545	16.8564
266073	16.8586
267609	16.8608
269153	16.8631
270707	16.8653
272270	16.8675
273842	16.8697
275423	16.8719
277013	16.874
278612	16.8762
280221	16.8784
281838	16.8806
283465	16.8828
285102	16.8849
286748	16.8871
288403	16.8892
290068	16.8914
291743	16.8936
293427	16.8957
295121	16.8978
296825	16.9
298538	16.9021
300262	16.9042
301995	16.9064
303739	16.9085
305492	16.9106
307256	16.9127
309030	16.9148
310814	16.9169
312608	16.919
314413	16.9211
316228	16.9232
318053	16.9252
319890	16.9273
321736	16.9294
323594	16.9314
325462	16.9335
327341	16.9355
329230	16.9376
331131	16.9396
333043	16.9417
334965	16.9437
336899	16.9457
338844	16.9478
340800	16.9498
342768	16.9518
344747	16.9538
346737	16.9558
348739	16.9578
350752	16.9598
352777	16.9618
354813	16.9637
356862	16.9657
358922	16.9677
360994	16.9696
363078	16.9716
365174	16.9736
367282	16.9755
369403	16.9774
371535	16.9794
373680	16.9813
375837	16.9832
378007	16.9851
380189	16.9871
382384	16.989
384592	16.9909
386812	16.9928
389045	16.9947
391291	16.9965
393550	16.9984
395822	17.0003
398107	17.0022
400405	17.004
402717	17.0059
405042	17.0077
407380	17.0096
409732	17.0114
412098	17.0133
414477	17.0151
416869	17.0169
419276	17.0187
421697	17.0205
424131	17.0223
426580	17.0241
429042	17.0259
431519	17.0277
434010	17.0295
436516	17.0313
439036	17.0331
441570	17.0348
444120	17.0366
446684	17.0383
449262	17.0401
451856	17.0418
454465	17.0436
457088	17.0453
459727	17.047
462381	17.0487
465050	17.0504
467735	17.0522
470435	17.0539
473151	17.0555
475883	17.0572
478630	17.0589
481393	17.0606
484172	17.0623
486968	17.0639
489779	17.0656
492606	17.0672
495450	17.0689
498310	17.0705
501187	17.0722
504081	17.0738
506991	17.0754
509918	17.077
512861	17.0787
515822	17.0803
518800	17.0819
521795	17.0835
524807	17.085
527837	17.0866
530884	17.0882
533949	17.0898
537032	17.0913
540132	17.0929
543250	17.0945
546387	17.096
549541	17.0975
552713	17.0991
555904	17.1006
559114	17.1021
562341	17.1036
565588	17.1052
568853	17.1067
572137	17.1082
575440	17.1097
578762	17.1111
582103	17.1126
585464	17.1141
588844	17.1156
592243	17.117
595662	17.1185
599101	17.1199
602560	17.1214
606038	17.1228
609537	17.1243
613056	17.1257
616595	17.1271
620155	17.1285
623735	17.13
627336	17.1314
630957	17.1328
634600	17.1342
638263	17.1355
641948	17.1369
645654	17.1383
649382	17.1397
653131	17.141
656901	17.1424
660693	17.1437
664508	17.1451
668344	17.1464
672202	17.1478
676083	17.1491
679986	17.1504
683912	17.1517
687860	17.1531
691831	17.1544
695825	17.1557
699842	17.157
703882	17.1583
707946	17.1595
712033	17.1608
716143	17.1621
720278	17.1634
724436	17.1646
728618	17.1659
732825	17.1671
737055	17.1684
741310	17.1696
745590	17.1708
749894	17.1721
754223	17.1733
758578	17.1745
762957	17.1757
767361	17.1769
771792	17.1781
776247	17.1793
780728	17.1805
785236	17.1817
789769	17.1829
794328	17.184
798914	17.1852
803526	17.1863
808165	17.1875
812831	17.1887
817523	17.1898
822243	17.1909
826990	17.1921
831764	17.1932
836566	17.1943
841395	17.1954
846253	17.1965
851138	17.1976
856052	17.1987
860994	17.1998
865964	17.2009
870964	17.202
875992	17.2031
881049	17.2042
886135	17.2052
891251	17.2063
896396	17.2073
901571	17.2084
906776	17.2094
912011	17.2105
917276	17.2115
922571	17.2125
927897	17.2136
933254	17.2146
938642	17.2156
944061	17.2166
949511	17.2176
954993	17.2186
960506	17.2196
966051	17.2206
971628	17.2216
977237	17.2225
982879	17.2235
988553	17.2245
994260	17.2254
1e+06	17.2264
1.00577e+06	17.2274
1.01158e+06	17.2283
1.01742e+06	17.2292
1.02329e+06	17.2302
1.0292e+06	17.2311
1.03514e+06	17.232
1.04112e+06	17.2329
1.04713e+06	17.2339
1.05317e+06	17.2348
1.05925e+06	17.2357
1.06537e+06	17.2366
1.07152e+06	17.2375
1.07771e+06	17.2384
1.08393e+06	17.2392
1.09018e+06	17.2401
1.09648e+06	17.241
1.10281e+06	17.2419
1.10917e+06	17.2427
1.11558e+06	17.2436
1.12202e+06	17.2445
1.1285e+06	17.2453
1.13501e+06	17.2462
1.14156e+06	17.247
1.14815e+06	17.2478
1.15478e+06	17.2487
1.16145e+06	17.2495
1.16815e+06	17.2503
1.1749e+06	17.2511
1.18168e+06	17.2519
1.1885e+06	17.2527
1.19536e+06	17.2535
1.20226e+06	17.2543
1.20921e+06	17.2551
1.21619e+06	17.2559
1.22321e+06	17.2567
1.23027e+06	17.2575
1.23737e+06	17.2583
1.24451e+06	17.259
1.2517e+06	17.2598
1.25893e+06	17.2605
1.26619e+06	17.2613
1.2735e+06	17.2621
1.28086e+06	17.2628
1.28825e+06	17.2635
1.29569e+06	17.2643
1.30317e+06	17.265
1.31069e+06	17.2657
1.31826e+06	17.2665
1.32587e+06	17.2672
1.33352e+06	17.2679
1.34122e+06	17.2686
1.34896e+06	17.2693
1.35675e+06	17.27
1.36458e+06	17.2707
1.37246e+06	17.2714
1.38038e+06	17.2721
1.38835e+06	17.2728
1.39637e+06	17.2734
1.40443e+06	17.2741
1.41254e+06	17.2748
1.42069e+06	17.2754
1.42889e+06	17.2761
1.43714e+06	17.2768
1.44544e+06	17.2774
1.45378e+06	17.2781
1.46218e+06	17.2787
1.47062e+06	17.2793
1.47911e+06	17.28
1.48765e+06	17.2806
1.49624e+06	17.2812
1.50487e+06	17.2819
1.51356e+06	17.2825
1.5223e+06	17.2831
1.53109e+06	17.2837
1.53993e+06	17.2843
1.54882e+06	17.2849
1.55776e+06	17.2855
1.56675e+06	17.2861
1.5758e+06	17.2867
1.58489e+06	17.2873
1.59404e+06	17.2878
1.60325e+06	17.2884
1.6125e+06	17.289
1.62181e+06	17.2896
1.63117e+06	17.2901
1.64059e+06	17.2907
1.65006e+06	17.2912
1.65959e+06	17.2918
1.66917e+06	17.2923
1.6788e+06	17.2929
1.6885e+06	17.2934
1.69824e+06	17.294
1.70805e+06	17.2945
1.71791e+06	17.295
1.72783e+06	17.2956
1.7378e+06	17.2961
1.74783e+06	17.2966
1.75792e+06	17.2971
1.76807e+06	17.2976
1.77828e+06	17.2981
1.78855e+06	17.2986
1.79887e+06	17.2991
1.80926e+06	17.2996
1.8197e+06	17.3001
1.83021e+06	17.3006
1.84077e+06	17.3011
1.8514e+06	17.3015
1.86209e+06	17.302
1.87284e+06	17.3025
1.88365e+06	17.303
1.89452e+06	17.3034
1.90546e+06	17.3039
1.91646e+06	17.3043
1.92752e+06	17.3048
1.93865e+06	17.3053
1.94984e+06	17.3057
1.9611e+06	17.3061
1.97242e+06	17.3066
1.98381e+06	17.307
1.99526e+06	17.3074
2.00678e+06	17.3079
2.01837e+06	17.3083
2.03002e+06	17.3087
2.04174e+06	17.3091
2.05353e+06	17.3096
2.06538e+06	17.31
2.0773e+06	17.3104
2.0893e+06	17.3108
2.10136e+06	17.3112
2.11349e+06	17.3116
2.12569e+06	17.312
2.13796e+06	17.3124
2.1503e+06	17.3128
2.16272e+06	17.3131
2.1752e+06	17.3135
2.18776e+06	17.3139
2.20039e+06	17.3143
2.21309e+06	17.3146
2.22587e+06	17.315
2.23872e+06	17.3154
2.25165e+06	17.3157
2.26464e+06	17.3161
2.27772e+06	17.3165
2.29087e+06	17.3168
2.30409e+06	17.3172
2.31739e+06	17.3175
2.33077e+06	17.3178
2.34423e+06	17.3182
2.35776e+06	17.3185
2.37137e+06	17.3189
2.38506e+06	17.3192
2.39883e+06	17.3195
2.41268e+06	17.3198
2.42661e+06	17.3202
2.44062e+06	17.3205
2.45471e+06	17.3208
2.46888e+06	17.3211
2.48313e+06	17.3214
2.49747e+06	17.3217
2.51189e+06	17.322
2.52639e+06	17.3223
2.54097e+06	17.3226
2.55564e+06	17.3229
2.5704e+06	17.3232
2.58523e+06	17.3235
2.60016e+06	17.3238
2.61517e+06	17.3241
2.63027e+06	17.3244
2.64545e+06	17.3246
2.66073e+06	17.3249
2.67609e+06	17.3252
2.69153e+06	17.3254
2.70707e+06	17.3257
2.7227e+06	17.326
2.73842e+06	17.3262
2.75423e+06	17.3265
2.77013e+06	17.3268
2.78612e+06	17.327
2.80221e+06	17.3273
2.81838e+06	17.3275
2.83465e+06	17.3278
2.85102e+06	17.328
2.86748e+06	17.3282
2.88403e+06	17.3285
2.90068e+06	17.3287
2.91743e+06	17.3289
2.93427e+06	17.3292
2.95121e+06	17.3294
2.96825e+06	17.3296
2.98538e+06	17.3299
3.00262e+06	17.3301
3.01995e+06	17.3303
3.03739e+06	17.3305
3.05492e+06	17.3307
3.07256e+06	17.3309
3.0903e+06	17.3311
3.10814e+06	17.3313
3.12608e+06	17.3315
3.14413e+06	17.3318
3.16228e+06	17.3319
3.18053e+06	17.3321
3.1989e+06	17.3323
3.21736e+06	17.3325
3.23594e+06	17.3327
3.25462e+06	17.3329
3.27341e+06	17.3331
3.2923e+06	17.3333
3.31131e+06	17.3335
3.33043e+06	17.3336
3.34965e+06	17.3338
3.36899e+06	17.334
3.38844e+06	17.3342
3.408e+06	17.3343
3.42768e+06	17.3345
3.44747e+06	17.3347
3.46737e+06	17.3348
3.48739e+06	17.335
3.50752e+06	17.3352
3.52777e+06	17.3353
3.54813e+06	17.3355
3.56862e+06	17.3356
3.58922e+06	17.3358
3.60994e+06	17.3359
3.63078e+06	17.3361
3.65174e+06	17.3362
3.67282e+06	17.3364
3.69403e+06	17.3365
3.71535e+06	17.3366
3.7368e+06	17.3368
3.75837e+06	17.3369
3.78007e+06	17.337
3.80189e+06	17.3372
3.82384e+06	17.3373
3.84592e+06	17.3374
3.86812e+06	17.3376
3.89045e+06	17.3377
3.91291e+06	17.3378
3.9355e+06	17.3379
3.95822e+06	17.338
3.98107e+06	17.3382
4.00405e+06	17.3383
4.02717e+06	17.3384
4.05042e+06	17.3385
4.0738e+06	17.3386
4.09732e+06	17.3387
4.12098e+06	17.3388
4.14477e+06	17.3389
4.16869e+06	17.339
4.19276e+06	17.3391
4.21697e+06	17.3392
4.24131e+06	17.3393
4.2658e+06	17.3394
4.29042e+06	17.3395
4.31519e+06	17.3396
4.3401e+06	17.3397
4.36516e+06	17.3398
4.39036e+06	17.3399
4.4157e+06	17.34
4.4412e+06	17.3401
4.46684e+06	17.3402
4.49262e+06	17.3403
4.51856e+06	17.3403
4.54465e+06	17.3404
4.57088e+06	17.3405
4.59727e+06	17.3406
4.62381e+06	17.3407
4.6505e+06	17.3407
4.67735e+06	17.3408
4.70435e+06	17.3409
4.73151e+06	17.3409
4.75883e+06	17.341
4.7863e+06	17.3411
4.81393e+06	17.3412
4.84172e+06	17.3412
4.86968e+06	17.3413
4.89779e+06	17.3413
4.92606e+06	17.3414
4.9545e+06	17.3415
4.9831e+06	17.3415
5.01187e+06	17.3416
5.04081e+06	17.3416
5.06991e+06	17.3417
5.09918e+06	17.3418
5.12861e+06	17.3418
5.15822e+06	17.3419
5.188e+06	17.3419
5.21795e+06	17.342
5.24807e+06	17.342
5.27837e+06	17.3421
5.30884e+06	17.3421
5.33949e+06	17.3422
5.37032e+06	17.3422
5.40132e+06	17.3422
5.4325e+06	17.3423
5.46387e+06	17.3423
5.49541e+06	17.3424
5.52713e+06	17.3424
5.55904e+06	17.3424
5.59114e+06	17.3425
5.62341e+06	17.3425
5.65588e+06	17.3426
5.68853e+06	17.3426
5.72137e+06	17.3426
5.7544e+06	17.3427
5.78762e+06	17.3427
5.82103e+06	17.3427
5.85464e+06	17.3428
5.88844e+06	17.3428
5.92243e+06	17.3428
5.95662e+06	17.3428
5.99101e+06	17.3429
6.0256e+06	17.3429
6.06038e+06	17.3429
6.09537e+06	17.3429
6.13056e+06	17.343
6.16595e+06	17.343
6.20155e+06	17.343
6.23735e+06	17.343
6.27336e+06	17.3431
6.30957e+06	17.3431
6.346e+06	17.3431
6.38263e+06	17.3431
6.41948e+06	17.3431
6.45654e+06	17.3432
6.49382e+06	17.3432
6.53131e+06	17.3432
6.56901e+06	17.3432
6.60693e+06	17.3432
6.64508e+06	17.3432
6.68344e+06	17.3433
6.72202e+06	17.3433
6.76083e+06	17.3433
6.79986e+06	17.3433
6.83912e+06	17.3433
6.8786e+06	17.3433
6.91831e+06	17.3433
6.95825e+06	17.3433
6.99842e+06	17.3433
7.03882e+06	17.3434
7.07946e+06	17.3434
7.12033e+06	17.3434
7.16143e+06	17.3434
7.20278e+06	17.3434
7.24436e+06	17.3434
7.28618e+06	17.3434
7.32825e+06	17.3434
7.37055e+06	17.3434
7.4131e+06	17.3434
7.4559e+06	17.3434
7.49894e+06	17.3434
7.54223e+06	17.3434
7.58578e+06	17.3434
7.62957e+06	17.3434
7.67361e+06	17.3434
7.71792e+06	17.3434
7.76247e+06	17.3435
7.80728e+06	17.3435
7.85236e+06	17.3435
7.89769e+06	17.3435
7.94328e+06	17.3435
7.98914e+06	17.3435
8.03526e+06	17.3435
8.08165e+06	17.3435
8.12831e+06	17.3435
8.17523e+06	17.3435
8.22243e+06	17.3435
8.2699e+06	17.3435
8.31764e+06	17.3435
8.36566e+06	17.3435
8.41395e+06	17.3435
8.46253e+06	17.3435
8.51138e+06	17.3435
8.56052e+06	17.3435
8.60994e+06	17.3435
8.65964e+06	17.3435
8.70964e+06	17.3435
8.75992e+06	17.3435
8.81049e+06	17.3435
8.86135e+06	17.3435
8.91251e+06	17.3435
8.96396e+06	17.3434
9.01571e+06	17.3434
9.06776e+06	17.3434
9.12011e+06	17.3434
9.17276e+06	17.3434
9.22571e+06	17.3434
9.27897e+06	17.3434
9.33254e+06	17.3434
9.38642e+06	17.3434
9.44061e+06	17.3434
9.49511e+06	17.3434
9.54993e+06	17.3434
9.60506e+06	17.3434
9.66051e+06	17.3434
9.71628e+06	17.3434
9.77237e+06	17.3434
9.82879e+06	17.3434
9.88553e+06	17.3434
9.9426e+06	17.3434
1e+07	17.3434
