Stopping power dEdx from Ionisation for Na23[0.0] Z = 11 in G4_Si, process name: ionIoni
E [MeV]	dEdx [MeV/mm]
0.001	32.1506
0.00100577	32.244
0.00101158	32.3377
0.00101742	32.4316
0.00102329	32.5259
0.0010292	32.6204
0.00103514	32.7152
0.00104112	32.8102
0.00104713	32.9056
0.00105317	33.0012
0.00105925	33.097
0.00106537	33.1932
0.00107152	33.2896
0.00107771	33.3863
0.00108393	33.4833
0.00109018	33.5806
0.00109648	33.6781
0.00110281	33.776
0.00110917	33.8741
0.00111558	33.9725
0.00112202	34.0712
0.0011285	34.1701
0.00113501	34.2694
0.00114156	34.3689
0.00114815	34.4687
0.00115478	34.5688
0.00116145	34.6692
0.00116815	34.7699
0.0011749	34.8709
0.00118168	34.9722
0.0011885	35.0737
0.00119536	35.1756
0.00120226	35.2777
0.00120921	35.3802
0.00121619	35.4829
0.00122321	35.5859
0.00123027	35.6893
0.00123737	35.7929
0.00124451	35.8968
0.0012517	36.001
0.00125893	36.1056
0.00126619	36.2104
0.0012735	36.3155
0.00128086	36.421
0.00128825	36.5267
0.00129569	36.6327
0.00130317	36.7391
0.00131069	36.8457
0.00131826	36.9527
0.00132587	37.06
0.00133352	37.1675
0.00134122	37.2754
0.00134896	37.3836
0.00135675	37.4921
0.00136458	37.601
0.00137246	37.7101
0.00138038	37.8195
0.00138835	37.9293
0.00139637	38.0394
0.00140443	38.1498
0.00141254	38.2605
0.00142069	38.3716
0.00142889	38.4829
0.00143714	38.5946
0.00144544	38.7066
0.00145378	38.8189
0.00146218	38.9316
0.00147062	39.0445
0.00147911	39.1578
0.00148765	39.2715
0.00149624	39.3854
0.00150487	39.4997
0.00151356	39.6143
0.0015223	39.7292
0.00153109	39.8445
0.00153993	39.9601
0.00154882	40.0761
0.00155776	40.1923
0.00156675	40.3089
0.0015758	40.4259
0.00158489	40.5432
0.00159404	40.6608
0.00160325	40.7787
0.0016125	40.897
0.00162181	41.0157
0.00163117	41.1346
0.00164059	41.254
0.00165006	41.3736
0.00165959	41.4936
0.00166917	41.614
0.0016788	41.7347
0.0016885	41.8558
0.00169824	41.9772
0.00170805	42.0989
0.00171791	42.221
0.00172783	42.3435
0.0017378	42.4663
0.00174783	42.5894
0.00175792	42.713
0.00176807	42.8368
0.00177828	42.9611
0.00178855	43.0856
0.00179887	43.2106
0.00180926	43.3359
0.0018197	43.4616
0.00183021	43.5876
0.00184077	43.714
0.0018514	43.8407
0.00186209	43.9679
0.00187284	44.0954
0.00188365	44.2232
0.00189452	44.3514
0.00190546	44.48
0.00191646	44.609
0.00192752	44.7383
0.00193865	44.868
0.00194984	44.9981
0.0019611	45.1286
0.00197242	45.2594
0.00198381	45.3906
0.00199526	45.5222
0.00200678	45.6542
0.00201837	45.7865
0.00203002	45.9193
0.00204174	46.0524
0.00205353	46.1859
0.00206538	46.3198
0.0020773	46.454
0.0020893	46.5887
0.00210136	46.7237
0.00211349	46.8592
0.00212569	46.995
0.00213796	47.1312
0.0021503	47.2678
0.00216272	47.4048
0.0021752	47.5422
0.00218776	47.68
0.00220039	47.8182
0.00221309	47.9568
0.00222587	48.0958
0.00223872	48.2351
0.00225165	48.3749
0.00226464	48.5151
0.00227772	48.6557
0.00229087	48.7967
0.00230409	48.9381
0.00231739	49.0799
0.00233077	49.2222
0.00234423	49.3648
0.00235776	49.5078
0.00237137	49.6513
0.00238506	49.7952
0.00239883	49.9395
0.00241268	50.0842
0.00242661	50.2293
0.00244062	50.3748
0.00245471	50.5208
0.00246888	50.6671
0.00248313	50.8139
0.00249747	50.9612
0.00251189	51.1088
0.00252639	51.2569
0.00254097	51.4054
0.00255564	51.5543
0.0025704	51.7037
0.00258523	51.8535
0.00260016	52.0037
0.00261517	52.1543
0.00263027	52.3054
0.00264545	52.4569
0.00266073	52.6089
0.00267609	52.7613
0.00269153	52.9141
0.00270707	53.0674
0.0027227	53.2211
0.00273842	53.3753
0.00275423	53.5299
0.00277013	53.6849
0.00278612	53.8404
0.00280221	53.9964
0.00281838	54.1528
0.00283465	54.3096
0.00285102	54.4669
0.00286748	54.6247
0.00288403	54.7829
0.00290068	54.9415
0.00291743	55.1007
0.00293427	55.2602
0.00295121	55.4203
0.00296825	55.5808
0.00298538	55.7417
0.00300262	55.9032
0.00301995	56.065
0.00303739	56.2274
0.00305492	56.3902
0.00307256	56.5535
0.0030903	56.7173
0.00310814	56.8815
0.00312608	57.0462
0.00314413	57.2114
0.00316228	57.3771
0.00318053	57.5432
0.0031989	57.7098
0.00321736	57.8769
0.00323594	58.0445
0.00325462	58.2126
0.00327341	58.3811
0.0032923	58.5502
0.00331131	58.7197
0.00333043	58.8897
0.00334965	59.0602
0.00336899	59.2312
0.00338844	59.4027
0.003408	59.5746
0.00342768	59.7471
0.00344747	59.9201
0.00346737	60.0936
0.00348739	60.2675
0.00350752	60.442
0.00352777	60.617
0.00354813	60.7925
0.00356862	60.9684
0.00358922	61.1449
0.00360994	61.3219
0.00363078	61.4994
0.00365174	61.6775
0.00367282	61.856
0.00369403	62.035
0.00371535	62.2146
0.0037368	62.3947
0.00375837	62.5753
0.00378007	62.7564
0.00380189	62.9381
0.00382384	63.1202
0.00384592	63.3029
0.00386812	63.4861
0.00389045	63.6699
0.00391291	63.8542
0.0039355	64.039
0.00395822	64.2243
0.00398107	64.4102
0.00400405	64.5966
0.00402717	64.7836
0.00405042	64.971
0.0040738	65.1591
0.00409732	65.3476
0.00412098	65.5368
0.00414477	65.7264
0.00416869	65.9166
0.00419276	66.1074
0.00421697	66.2987
0.00424131	66.4905
0.0042658	66.6829
0.00429042	66.8759
0.00431519	67.0694
0.0043401	67.2635
0.00436516	67.4581
0.00439036	67.6533
0.0044157	67.8491
0.0044412	68.0454
0.00446684	68.2423
0.00449262	68.4398
0.00451856	68.6378
0.00454465	68.8364
0.00457088	69.0356
0.00459727	69.2353
0.00462381	69.4356
0.0046505	69.6365
0.00467735	69.838
0.00470435	70.04
0.00473151	70.2427
0.00475883	70.4459
0.0047863	70.6497
0.00481393	70.8541
0.00484172	71.0591
0.00486968	71.2647
0.00489779	71.4708
0.00492606	71.6776
0.0049545	71.885
0.0049831	72.0929
0.00501187	72.3015
0.00504081	72.5106
0.00506991	72.7204
0.00509918	72.9308
0.00512861	73.1417
0.00515822	73.3533
0.005188	73.5655
0.00521795	73.7783
0.00524807	73.9917
0.00527837	74.2057
0.00530884	74.4204
0.00533949	74.6357
0.00537032	74.8515
0.00540132	75.068
0.0054325	75.2852
0.00546387	75.5029
0.00549541	75.7213
0.00552713	75.9403
0.00555904	76.16
0.00559114	76.3803
0.00562341	76.6012
0.00565588	76.8227
0.00568853	77.0449
0.00572137	77.2677
0.0057544	77.4912
0.00578762	77.7153
0.00582103	77.9401
0.00585464	78.1655
0.00588844	78.3916
0.00592243	78.6183
0.00595662	78.8456
0.00599101	79.0737
0.0060256	79.3023
0.00606038	79.5317
0.00609537	79.7617
0.00613056	79.9923
0.00616595	80.2237
0.00620155	80.4556
0.00623735	80.6883
0.00627336	80.9216
0.00630957	81.1556
0.006346	81.3903
0.00638263	81.6257
0.00641948	81.8617
0.00645654	82.0984
0.00649382	82.3358
0.00653131	82.5739
0.00656901	82.8127
0.00660693	83.0521
0.00664508	83.2923
0.00668344	83.5331
0.00672202	83.7746
0.00676083	84.0169
0.00679986	84.2598
0.00683912	84.5034
0.0068786	84.7477
0.00691831	84.9928
0.00695825	85.2385
0.00699842	85.485
0.00703882	85.7321
0.00707946	85.98
0.00712033	86.2286
0.00716143	86.4779
0.00720278	86.7279
0.00724436	86.9786
0.00728618	87.2301
0.00732825	87.4823
0.00737055	87.7352
0.0074131	87.9888
0.0074559	88.2432
0.00749894	88.4983
0.00754223	88.7542
0.00758578	89.0107
0.00762957	89.2681
0.00767361	89.5261
0.00771792	89.7849
0.00776247	90.0445
0.00780728	90.3048
0.00785236	90.5658
0.00789769	90.8276
0.00794328	91.0902
0.00798914	91.3535
0.00803526	91.6176
0.00808165	91.8824
0.00812831	92.148
0.00817523	92.4144
0.00822243	92.6815
0.0082699	92.9494
0.00831764	93.2181
0.00836566	93.4875
0.00841395	93.7577
0.00846253	94.0287
0.00851138	94.3005
0.00856052	94.5731
0.00860994	94.8464
0.00865964	95.1206
0.00870964	95.3955
0.00875992	95.6712
0.00881049	95.9477
0.00886135	96.2251
0.00891251	96.5032
0.00896396	96.7821
0.00901571	97.0618
0.00906776	97.3423
0.00912011	97.6237
0.00917276	97.9058
0.00922571	98.1888
0.00927897	98.4725
0.00933254	98.7571
0.00938642	99.0425
0.00944061	99.3288
0.00949511	99.6158
0.00954993	99.9037
0.00960506	100.192
0.00966051	100.482
0.00971628	100.772
0.00977237	101.064
0.00982879	101.356
0.00988553	101.649
0.0099426	101.942
0.01	102.237
0.0100577	102.532
0.0101158	102.829
0.0101742	103.126
0.0102329	103.424
0.010292	103.723
0.0103514	104.022
0.0104112	104.323
0.0104713	104.624
0.0105317	105.189
0.0105925	105.493
0.0106537	105.797
0.0107152	106.102
0.0107771	106.407
0.0108393	106.714
0.0109018	107.022
0.0109648	107.33
0.0110281	107.64
0.0110917	107.95
0.0111558	108.261
0.0112202	108.573
0.011285	108.886
0.0113501	109.2
0.0114156	109.515
0.0114815	109.83
0.0115478	110.147
0.0116145	110.464
0.0116815	110.783
0.011749	111.102
0.0118168	111.422
0.011885	111.743
0.0119536	112.066
0.0120226	112.389
0.0120921	112.712
0.0121619	113.037
0.0122321	113.363
0.0123027	113.69
0.0123737	114.018
0.0124451	114.346
0.012517	114.676
0.0125893	115.006
0.0126619	115.338
0.012735	115.67
0.0128086	116.004
0.0128825	116.338
0.0129569	116.673
0.0130317	117.01
0.0131069	117.347
0.0131826	117.685
0.0132587	118.024
0.0133352	118.365
0.0134122	118.706
0.0134896	119.048
0.0135675	119.391
0.0136458	119.735
0.0137246	120.08
0.0138038	120.426
0.0138835	120.774
0.0139637	121.122
0.0140443	121.471
0.0141254	121.821
0.0142069	122.172
0.0142889	122.524
0.0143714	122.877
0.0144544	123.232
0.0145378	123.587
0.0146218	123.943
0.0147062	124.3
0.0147911	124.659
0.0148765	125.018
0.0149624	125.378
0.0150487	125.74
0.0151356	126.102
0.015223	126.465
0.0153109	126.83
0.0153993	127.196
0.0154882	127.562
0.0155776	127.93
0.0156675	128.299
0.015758	128.668
0.0158489	129.039
0.0159404	129.411
0.0160325	129.784
0.016125	130.158
0.0162181	130.534
0.0163117	130.91
0.0164059	131.287
0.0165006	131.666
0.0165959	132.045
0.0166917	132.426
0.016788	132.807
0.016885	133.19
0.0169824	133.574
0.0170805	133.959
0.0171791	134.345
0.0172783	134.732
0.017378	135.121
0.0174783	135.51
0.0175792	135.901
0.0176807	136.293
0.0177828	136.685
0.0178855	137.079
0.0179887	137.474
0.0180926	137.871
0.018197	138.268
0.0183021	138.667
0.0184077	139.066
0.018514	139.467
0.0186209	139.869
0.0187284	140.272
0.0188365	140.677
0.0189452	141.082
0.0190546	141.489
0.0191646	141.897
0.0192752	142.306
0.0193865	142.716
0.0194984	143.127
0.019611	143.54
0.0197242	143.953
0.0198381	144.368
0.0199526	144.784
0.0200678	145.202
0.0201837	145.62
0.0203002	146.04
0.0204174	146.461
0.0205353	146.883
0.0206538	147.307
0.020773	147.731
0.020893	148.157
0.0210136	148.584
0.0211349	149.012
0.0212569	149.442
0.0213796	149.873
0.021503	150.305
0.0216272	150.738
0.021752	151.172
0.0218776	151.608
0.0220039	152.045
0.0221309	152.483
0.0222587	152.923
0.0223872	153.363
0.0225165	153.806
0.0226464	154.249
0.0227772	154.693
0.0229087	155.139
0.0230409	155.587
0.0231739	156.035
0.0233077	156.485
0.0234423	156.936
0.0235776	157.388
0.0237137	157.842
0.0238506	158.297
0.0239883	158.753
0.0241268	159.211
0.0242661	159.67
0.0244062	160.13
0.0245471	160.591
0.0246888	161.054
0.0248313	161.518
0.0249747	161.984
0.0251189	162.451
0.0252639	162.919
0.0254097	163.389
0.0255564	163.86
0.025704	164.332
0.0258523	164.806
0.0260016	165.281
0.0261517	165.757
0.0263027	166.235
0.0264545	166.714
0.0266073	167.195
0.0267609	167.676
0.0269153	168.16
0.0270707	168.644
0.027227	169.131
0.0273842	169.618
0.0275423	170.107
0.0277013	170.597
0.0278612	171.089
0.0280221	171.582
0.0281838	172.077
0.0283465	172.573
0.0285102	173.07
0.0286748	173.569
0.0288403	174.069
0.0290068	174.571
0.0291743	175.074
0.0293427	175.579
0.0295121	176.085
0.0296825	176.592
0.0298538	177.101
0.0300262	177.612
0.0301995	178.124
0.0303739	178.637
0.0305492	179.152
0.0307256	179.669
0.030903	180.186
0.0310814	180.706
0.0312608	181.227
0.0314413	181.749
0.0316228	182.273
0.0318053	182.798
0.031989	183.325
0.0321736	183.854
0.0323594	184.383
0.0325462	184.915
0.0327341	185.448
0.032923	185.982
0.0331131	186.519
0.0333043	187.056
0.0334965	187.595
0.0336899	188.136
0.0338844	188.678
0.03408	189.222
0.0342768	189.768
0.0344747	190.315
0.0346737	190.863
0.0348739	191.413
0.0350752	191.965
0.0352777	192.518
0.0354813	193.073
0.0356862	193.63
0.0358922	194.188
0.0360994	194.748
0.0363078	195.309
0.0365174	195.872
0.0367282	196.436
0.0369403	197.003
0.0371535	197.57
0.037368	198.14
0.0375837	198.711
0.0378007	199.284
0.0380189	199.858
0.0382384	200.434
0.0384592	201.012
0.0386812	201.591
0.0389045	202.172
0.0391291	202.755
0.039355	203.34
0.0395822	203.926
0.0398107	204.514
0.0400405	205.103
0.0402717	205.694
0.0405042	206.287
0.040738	206.882
0.0409732	207.478
0.0412098	208.076
0.0414477	208.676
0.0416869	209.277
0.0419276	209.88
0.0421697	210.485
0.0424131	211.092
0.042658	211.701
0.0429042	212.311
0.0431519	212.923
0.043401	213.536
0.0436516	214.152
0.0439036	214.769
0.044157	215.388
0.044412	216.009
0.0446684	216.632
0.0449262	217.256
0.0451856	217.882
0.0454465	218.51
0.0457088	219.14
0.0459727	219.772
0.0462381	220.405
0.046505	221.041
0.0467735	221.678
0.0470435	222.317
0.0473151	222.957
0.0475883	223.6
0.047863	224.245
0.0481393	224.891
0.0484172	225.539
0.0486968	226.189
0.0489779	226.841
0.0492606	227.495
0.049545	228.151
0.049831	228.808
0.0501187	229.468
0.0504081	230.129
0.0506991	230.793
0.0509918	231.458
0.0512861	232.125
0.0515822	232.794
0.05188	233.465
0.0521795	234.138
0.0524807	234.813
0.0527837	235.49
0.0530884	236.169
0.0533949	236.849
0.0537032	237.532
0.0540132	238.217
0.054325	238.903
0.0546387	239.592
0.0549541	240.282
0.0552713	240.975
0.0555904	241.67
0.0559114	242.366
0.0562341	243.065
0.0565588	243.765
0.0568853	244.468
0.0572137	245.173
0.057544	245.879
0.0578762	246.588
0.0582103	247.299
0.0585464	248.012
0.0588844	248.726
0.0592243	249.443
0.0595662	250.162
0.0599101	250.883
0.060256	251.607
0.0606038	252.332
0.0609537	253.059
0.0613056	253.789
0.0616595	254.52
0.0620155	255.254
0.0623735	255.989
0.0627336	256.727
0.0630957	257.467
0.06346	258.209
0.0638263	258.954
0.0641948	259.7
0.0645654	260.449
0.0649382	261.199
0.0653131	261.952
0.0656901	262.707
0.0660693	263.464
0.0664508	264.224
0.0668344	264.985
0.0672202	265.749
0.0676083	266.515
0.0679986	267.283
0.0683912	268.054
0.068786	268.826
0.0691831	269.601
0.0695825	270.378
0.0699842	271.158
0.0703882	271.939
0.0707946	272.723
0.0712033	273.509
0.0716143	274.298
0.0720278	275.088
0.0724436	275.881
0.0728618	276.676
0.0732825	277.474
0.0737055	278.274
0.074131	279.076
0.074559	279.88
0.0749894	280.687
0.0754223	281.496
0.0758578	282.307
0.0762957	283.121
0.0767361	283.937
0.0771792	284.755
0.0776247	285.576
0.0780728	286.399
0.0785236	287.225
0.0789769	288.053
0.0794328	288.883
0.0798914	289.716
0.0803526	290.551
0.0808165	291.388
0.0812831	292.228
0.0817523	293.07
0.0822243	293.915
0.082699	294.762
0.0831764	295.612
0.0836566	296.464
0.0841395	297.319
0.0846253	298.176
0.0851138	299.035
0.0856052	299.897
0.0860994	300.761
0.0865964	301.628
0.0870964	302.498
0.0875992	303.37
0.0881049	304.244
0.0886135	305.121
0.0891251	306
0.0896396	306.882
0.0901571	307.767
0.0906776	308.654
0.0912011	309.544
0.0917276	310.436
0.0922571	311.331
0.0927897	312.228
0.0933254	313.128
0.0938642	314.031
0.0944061	314.936
0.0949511	315.844
0.0954993	316.754
0.0960506	317.667
0.0966051	318.583
0.0971628	319.501
0.0977237	320.422
0.0982879	321.345
0.0988553	322.272
0.099426	323.2
0.1	324.132
0.100577	325.066
0.101158	326.003
0.101742	326.943
0.102329	327.885
0.10292	328.83
0.103514	329.778
0.104112	330.729
0.104713	331.682
0.105317	332.638
0.105925	333.597
0.106537	334.558
0.107152	335.523
0.107771	336.49
0.108393	337.46
0.109018	338.432
0.109648	339.408
0.110281	340.386
0.110917	341.367
0.111558	342.351
0.112202	343.338
0.11285	344.328
0.113501	345.32
0.114156	346.316
0.114815	347.314
0.115478	348.315
0.116145	349.319
0.116815	350.326
0.11749	351.335
0.118168	352.348
0.11885	353.364
0.119536	354.382
0.120226	355.404
0.120921	356.428
0.121619	357.456
0.122321	358.486
0.123027	359.519
0.123737	360.555
0.124451	361.595
0.12517	362.637
0.125893	363.682
0.126619	364.73
0.12735	365.782
0.128086	366.836
0.128825	367.893
0.129569	368.954
0.130317	370.017
0.131069	371.084
0.131826	372.153
0.132587	373.226
0.133352	374.302
0.134122	375.381
0.134896	376.463
0.135675	377.548
0.136458	378.636
0.137246	379.727
0.138038	380.822
0.138835	381.92
0.139637	383.02
0.140443	384.124
0.141254	385.232
0.142069	386.342
0.142889	387.456
0.143714	388.572
0.144544	389.692
0.145378	390.816
0.146218	391.942
0.147062	393.072
0.147911	394.205
0.148765	395.341
0.149624	396.481
0.150487	397.623
0.151356	398.77
0.15223	399.919
0.153109	401.072
0.153993	402.228
0.154882	403.387
0.155776	404.55
0.156675	405.716
0.15758	406.885
0.158489	408.058
0.159404	409.234
0.160325	410.414
0.16125	411.597
0.162181	412.783
0.163117	413.973
0.164059	415.166
0.165006	416.363
0.165959	417.563
0.166917	418.767
0.16788	419.974
0.16885	421.184
0.169824	422.398
0.170805	423.616
0.171791	424.837
0.172783	426.061
0.17378	427.289
0.174783	428.521
0.175792	429.756
0.176807	430.995
0.177828	432.237
0.178855	433.483
0.179887	434.732
0.180926	435.985
0.18197	437.242
0.183021	438.502
0.184077	439.766
0.18514	441.034
0.186209	442.305
0.187284	443.58
0.188365	444.859
0.189452	446.141
0.190546	447.427
0.191646	448.716
0.192752	450.01
0.193865	451.307
0.194984	452.608
0.19611	453.912
0.197242	455.221
0.198381	456.533
0.199526	457.849
0.200678	459.168
0.201837	460.492
0.203002	461.819
0.204174	463.15
0.205353	464.485
0.206538	465.824
0.20773	467.167
0.20893	468.513
0.210136	469.864
0.211349	471.218
0.212569	472.576
0.213796	473.939
0.21503	475.305
0.216272	476.675
0.21752	478.049
0.218776	479.426
0.220039	480.808
0.221309	482.194
0.222587	483.584
0.223872	484.978
0.225165	486.376
0.226464	487.778
0.227772	489.184
0.229087	490.594
0.230409	492.008
0.231739	493.426
0.233077	494.848
0.234423	496.275
0.235776	497.705
0.237137	499.14
0.238506	500.578
0.239883	502.021
0.241268	503.468
0.242661	504.919
0.244062	506.375
0.245471	507.834
0.246888	509.298
0.248313	510.766
0.249747	512.238
0.251189	513.715
0.252639	515.195
0.254097	516.68
0.255564	518.17
0.25704	519.663
0.258523	521.161
0.260016	522.663
0.261517	524.17
0.263027	525.681
0.264545	527.196
0.266073	528.715
0.267609	530.239
0.269153	531.768
0.270707	533.301
0.27227	534.838
0.273842	536.379
0.275423	537.925
0.277013	539.476
0.278612	541.031
0.280221	542.59
0.281838	544.154
0.283465	545.723
0.285102	547.296
0.286748	548.873
0.288403	550.455
0.290068	552.042
0.291743	553.633
0.293427	555.229
0.295121	556.829
0.296825	558.434
0.298538	560.044
0.300262	561.658
0.301995	563.277
0.303739	564.901
0.305492	566.529
0.307256	568.162
0.30903	569.799
0.310814	571.442
0.312608	573.089
0.314413	574.741
0.316228	576.397
0.318053	578.059
0.31989	579.725
0.321736	581.396
0.323594	583.072
0.325462	584.752
0.327341	586.438
0.32923	588.128
0.331131	589.823
0.333043	591.524
0.334965	593.228
0.336899	594.938
0.338844	596.653
0.3408	598.373
0.342768	600.098
0.344747	601.827
0.346737	603.562
0.348739	605.302
0.350752	607.047
0.352777	608.796
0.354813	610.551
0.356862	612.311
0.358922	614.076
0.360994	615.846
0.363078	617.621
0.365174	619.401
0.367282	621.186
0.369403	622.977
0.371535	624.773
0.37368	626.573
0.375837	628.379
0.378007	630.191
0.380189	632.007
0.382384	633.829
0.384592	635.656
0.386812	637.488
0.389045	639.325
0.391291	641.168
0.39355	643.016
0.395822	644.87
0.398107	646.729
0.400405	648.593
0.402717	650.462
0.405042	652.337
0.40738	654.217
0.409732	656.103
0.412098	657.994
0.414477	659.891
0.416869	661.793
0.419276	663.7
0.421697	665.613
0.424131	667.532
0.42658	669.456
0.429042	671.386
0.431519	673.321
0.43401	675.262
0.436516	677.208
0.439036	679.16
0.44157	681.117
0.44412	683.081
0.446684	685.05
0.449262	687.024
0.451856	689.004
0.454465	690.99
0.457088	692.982
0.459727	694.98
0.462381	696.983
0.46505	698.992
0.467735	701.006
0.470435	703.027
0.473151	705.053
0.475883	707.086
0.47863	709.124
0.481393	711.168
0.484172	713.218
0.486968	715.273
0.489779	717.335
0.492606	719.403
0.49545	721.476
0.49831	723.556
0.501187	725.641
0.504081	727.733
0.506991	729.83
0.509918	731.934
0.512861	734.044
0.515822	736.16
0.5188	738.282
0.521795	740.41
0.524807	742.544
0.527837	744.684
0.530884	746.83
0.533949	748.983
0.537032	751.142
0.540132	753.307
0.54325	755.478
0.546387	757.656
0.549541	759.84
0.552713	762.03
0.555904	764.226
0.559114	766.429
0.562341	768.638
0.565588	770.854
0.568853	773.076
0.572137	775.304
0.57544	777.579
0.578762	780.124
0.582103	782.682
0.585464	785.253
0.588844	787.836
0.592243	790.433
0.595662	793.042
0.599101	795.665
0.60256	798.301
0.606038	800.949
0.609537	803.611
0.613056	806.286
0.616595	808.975
0.620155	811.677
0.623735	814.392
0.627336	817.12
0.630957	819.863
0.6346	822.618
0.638263	825.388
0.641948	828.171
0.645654	830.968
0.649382	833.779
0.653131	836.603
0.656901	839.442
0.660693	842.294
0.664508	845.161
0.668344	848.042
0.672202	850.936
0.676083	853.845
0.679986	856.769
0.683912	859.707
0.68786	862.659
0.691831	865.575
0.695825	868.447
0.699842	871.333
0.703882	874.233
0.707946	877.147
0.712033	880.075
0.716143	883.017
0.720278	885.973
0.724436	888.944
0.728618	891.929
0.732825	894.929
0.737055	897.943
0.74131	900.972
0.74559	904.015
0.749894	907.073
0.754223	910.146
0.758578	913.233
0.762957	916.336
0.767361	919.453
0.771792	922.585
0.776247	925.732
0.780728	928.895
0.785236	932.072
0.789769	935.265
0.794328	938.473
0.798914	941.697
0.803526	944.935
0.808165	948.19
0.812831	951.46
0.817523	954.745
0.822243	958.046
0.82699	961.363
0.831764	964.696
0.836566	968.044
0.841395	971.409
0.846253	974.789
0.851138	978.186
0.856052	981.598
0.860994	985.027
0.865964	988.472
0.870964	991.934
0.875992	995.411
0.881049	998.906
0.886135	1002.42
0.891251	1005.94
0.896396	1009.49
0.901571	1013.05
0.906776	1016.63
0.912011	1020.22
0.917276	1023.83
0.922571	1027.45
0.927897	1031.06
0.933254	1034.7
0.938642	1038.35
0.944061	1042.01
0.949511	1045.7
0.954993	1049.4
0.960506	1053.12
0.966051	1056.85
0.971628	1060.61
0.977237	1064.38
0.982879	1068.16
0.988553	1071.97
0.99426	1075.79
1	1079.63
1.00577	1083.49
1.01158	1087.36
1.01742	1091.25
1.02329	1095.16
1.0292	1099.09
1.03514	1103.04
1.04112	1107
1.04713	1110.98
1.05317	1114.98
1.05925	1118.99
1.06537	1123.03
1.07152	1127.08
1.07771	1131.15
1.08393	1135.23
1.09018	1139.34
1.09648	1143.46
1.10281	1147.6
1.10917	1151.76
1.11558	1155.94
1.12202	1160.13
1.1285	1164.34
1.13501	1168.57
1.14156	1172.82
1.14815	1177.09
1.15478	1181.37
1.16145	1185.68
1.16815	1189.99
1.1749	1194.33
1.18168	1198.69
1.1885	1203.06
1.19536	1207.45
1.20226	1211.85
1.20921	1216.28
1.21619	1220.71
1.22321	1225.17
1.23027	1229.64
1.23737	1234.13
1.24451	1238.63
1.2517	1243.15
1.25893	1247.68
1.26619	1252.23
1.2735	1256.8
1.28086	1261.37
1.28825	1265.96
1.29569	1270.57
1.30317	1275.19
1.31069	1279.82
1.31826	1284.46
1.32587	1289.12
1.33352	1293.79
1.34122	1298.47
1.34896	1303.16
1.35675	1307.86
1.36458	1312.58
1.37246	1317.3
1.38038	1322.03
1.38835	1326.78
1.39637	1331.53
1.40443	1336.29
1.41254	1341.06
1.42069	1345.83
1.42889	1350.62
1.43714	1355.41
1.44544	1360.21
1.45378	1365.02
1.46218	1369.83
1.47062	1374.65
1.47911	1379.48
1.48765	1384.31
1.49624	1389.15
1.50487	1393.99
1.51356	1398.84
1.5223	1403.69
1.53109	1408.54
1.53993	1413.4
1.54882	1418.27
1.55776	1423.13
1.56675	1428
1.5758	1432.87
1.58489	1437.74
1.59404	1442.62
1.60325	1447.49
1.6125	1452.37
1.62181	1457.24
1.63117	1462.12
1.64059	1466.99
1.65006	1471.87
1.65959	1476.74
1.66917	1481.61
1.6788	1486.48
1.6885	1491.35
1.69824	1496.22
1.70805	1501.08
1.71791	1505.94
1.72783	1510.8
1.7378	1515.66
1.74783	1520.51
1.75792	1525.36
1.76807	1530.21
1.77828	1535.05
1.78855	1539.89
1.79887	1544.72
1.80926	1549.55
1.8197	1554.38
1.83021	1559.2
1.84077	1564.01
1.8514	1568.82
1.86209	1573.62
1.87284	1578.42
1.88365	1583.21
1.89452	1587.99
1.90546	1592.77
1.91646	1597.54
1.92752	1602.3
1.93865	1607.05
1.94984	1611.8
1.9611	1616.54
1.97242	1621.28
1.98381	1626
1.99526	1630.72
2.00678	1635.43
2.01837	1640.13
2.03002	1644.82
2.04174	1649.5
2.05353	1654.18
2.06538	1658.85
2.0773	1663.5
2.0893	1668.15
2.10136	1672.79
2.11349	1677.42
2.12569	1682.04
2.13796	1686.65
2.1503	1691.26
2.16272	1695.85
2.1752	1700.43
2.18776	1705.01
2.20039	1709.57
2.21309	1714.13
2.22587	1718.68
2.23872	1723.21
2.25165	1727.74
2.26464	1732.26
2.27772	1736.77
2.29087	1741.27
2.30409	1745.76
2.31739	1750.25
2.33077	1754.74
2.34423	1759.21
2.35776	1763.67
2.37137	1768.12
2.38506	1772.56
2.39883	1776.99
2.41268	1781.42
2.42661	1785.83
2.44062	1790.23
2.45471	1794.62
2.46888	1799
2.48313	1803.37
2.49747	1807.72
2.51189	1812.07
2.52639	1816.4
2.54097	1820.72
2.55564	1825.03
2.5704	1829.33
2.58523	1833.61
2.60016	1837.89
2.61517	1842.15
2.63027	1846.4
2.64545	1850.63
2.66073	1854.85
2.67609	1859.06
2.69153	1863.26
2.70707	1867.44
2.7227	1871.61
2.73842	1875.77
2.75423	1879.91
2.77013	1884.04
2.78612	1888.16
2.80221	1892.26
2.81838	1896.35
2.83465	1900.42
2.85102	1904.48
2.86748	1908.53
2.88403	1912.56
2.90068	1916.58
2.91743	1920.59
2.93427	1924.58
2.95121	1928.56
2.96825	1932.52
2.98538	1936.47
3.00262	1940.41
3.01995	1944.33
3.03739	1948.24
3.05492	1952.14
3.07256	1956.02
3.0903	1959.89
3.10814	1963.75
3.12608	1967.59
3.14413	1971.42
3.16228	1975.24
3.18053	1979.05
3.1989	1982.84
3.21736	1986.63
3.23594	1990.4
3.25462	1994.15
3.27341	1997.9
3.2923	2001.64
3.31131	2005.36
3.33043	2009.08
3.34965	2012.79
3.36899	2016.48
3.38844	2020.17
3.408	2023.85
3.42768	2027.52
3.44747	2031.18
3.46737	2034.76
3.48739	2038.32
3.50752	2041.88
3.52777	2045.43
3.54813	2048.97
3.56862	2052.5
3.58922	2056.02
3.60994	2059.53
3.63078	2063.03
3.65174	2066.52
3.67282	2070.01
3.69403	2073.48
3.71535	2076.94
3.7368	2080.4
3.75837	2083.84
3.78007	2087.27
3.80189	2090.7
3.82384	2094.11
3.84592	2097.51
3.86812	2100.9
3.89045	2104.27
3.91291	2107.64
3.9355	2111
3.95822	2114.34
3.98107	2117.67
4.00405	2120.99
4.02717	2124.3
4.05042	2127.59
4.0738	2130.87
4.09732	2134.14
4.12098	2137.4
4.14477	2140.64
4.16869	2143.88
4.19276	2147.09
4.21697	2150.3
4.24131	2153.49
4.2658	2156.67
4.29042	2159.83
4.31519	2162.99
4.3401	2166.12
4.36516	2169.25
4.39036	2172.36
4.4157	2175.46
4.4412	2178.54
4.46684	2181.61
4.49262	2184.66
4.51856	2187.71
4.54465	2190.73
4.57088	2193.75
4.59727	2196.75
4.62381	2199.75
4.6505	2202.74
4.67735	2205.71
4.70435	2208.67
4.73151	2211.62
4.75883	2214.55
4.7863	2217.46
4.81393	2220.37
4.84172	2223.26
4.86968	2226.13
4.89779	2228.99
4.92606	2231.83
4.9545	2234.67
4.9831	2237.48
5.01187	2240.28
5.04081	2243.07
5.06991	2245.84
5.09918	2248.6
5.12861	2251.34
5.15822	2254.07
5.188	2256.78
5.21795	2259.48
5.24807	2262.17
5.27837	2264.84
5.30884	2267.5
5.33949	2270.14
5.37032	2272.77
5.40132	2275.39
5.4325	2277.99
5.46387	2280.58
5.49541	2283.15
5.52713	2285.72
5.55904	2288.27
5.59114	2290.8
5.62341	2293.33
5.65588	2295.84
5.68853	2298.34
5.72137	2300.83
5.7544	2303.31
5.78762	2305.78
5.82103	2308.23
5.85464	2310.68
5.88844	2313.11
5.92243	2315.53
5.95662	2317.94
5.99101	2320.34
6.0256	2322.73
6.06038	2325.11
6.09537	2327.47
6.13056	2329.82
6.16595	2332.16
6.20155	2334.48
6.23735	2336.8
6.27336	2339.1
6.30957	2341.39
6.346	2343.66
6.38263	2345.92
6.41948	2348.17
6.45654	2350.41
6.49382	2352.63
6.53131	2354.84
6.56901	2357.04
6.60693	2359.23
6.64508	2361.4
6.68344	2363.56
6.72202	2365.7
6.76083	2367.83
6.79986	2369.95
6.83912	2372.06
6.8786	2374.15
6.91831	2376.23
6.95825	2378.3
6.99842	2380.36
7.03882	2382.4
7.07946	2384.43
7.12033	2386.45
7.16143	2388.45
7.20278	2390.43
7.24436	2392.41
7.28618	2394.37
7.32825	2396.31
7.37055	2398.24
7.4131	2400.16
7.4559	2402.06
7.49894	2403.94
7.54223	2405.81
7.58578	2407.66
7.62957	2409.5
7.67361	2411.33
7.71792	2413.13
7.76247	2414.93
7.80728	2416.7
7.85236	2418.46
7.89769	2420.21
7.94328	2421.94
7.98914	2423.65
8.03526	2425.34
8.08165	2427.02
8.12831	2428.69
8.17523	2430.33
8.22243	2431.96
8.2699	2433.58
8.31764	2435.18
8.36566	2436.76
8.41395	2438.32
8.46253	2439.87
8.51138	2441.4
8.56052	2442.92
8.60994	2444.42
8.65964	2445.9
8.70964	2447.36
8.75992	2448.81
8.81049	2450.25
8.86135	2451.66
8.91251	2453.06
8.96396	2454.45
9.01571	2455.82
9.06776	2457.17
9.12011	2458.5
9.17276	2459.82
9.22571	2461.12
9.27897	2462.39
9.33254	2463.65
9.38642	2464.89
9.44061	2466.11
9.49511	2467.32
9.54993	2468.51
9.60506	2469.68
9.66051	2470.84
9.71628	2471.97
9.77237	2473.1
9.82879	2474.2
9.88553	2475.28
9.9426	2476.35
10	2477.4
10.0577	2478.43
10.1158	2479.45
10.1742	2480.44
10.2329	2481.42
10.292	2482.37
10.3514	2483.31
10.4112	2484.23
10.4713	2485.13
10.5317	2486
10.5925	2486.86
10.6537	2487.7
10.7152	2488.52
10.7771	2489.32
10.8393	2490.1
10.9018	2490.85
10.9648	2491.59
11.0281	2492.31
11.0917	2493
11.1558	2493.67
11.2202	2494.33
11.285	2494.96
11.3501	2495.57
11.4156	2496.15
11.4815	2496.72
11.5478	2497.27
11.6145	2497.8
11.6815	2498.3
11.749	2498.79
11.8168	2499.25
11.885	2499.68
11.9536	2500.1
12.0226	2500.49
12.0921	2500.87
12.1619	2501.21
12.2321	2501.54
12.3027	2501.84
12.3737	2502.12
12.4451	2502.38
12.517	2502.61
12.5893	2502.82
12.6619	2503
12.735	2503.17
12.8086	2503.3
12.8825	2503.42
12.9569	2503.51
13.0317	2503.58
13.1069	2503.62
13.1826	2503.65
13.2587	2503.64
13.3352	2503.62
13.4122	2503.57
13.4896	2503.49
13.5675	2503.4
13.6458	2503.27
13.7246	2503.13
13.8038	2502.96
13.8835	2502.77
13.9637	2502.56
14.0443	2502.32
14.1254	2502.06
14.2069	2501.78
14.2889	2501.47
14.3714	2501.14
14.4544	2500.78
14.5378	2500.4
14.6218	2500
14.7062	2499.57
14.7911	2499.11
14.8765	2498.64
14.9624	2498.14
15.0487	2497.61
15.1356	2497.06
15.223	2496.49
15.3109	2495.89
15.3993	2495.27
15.4882	2494.62
15.5776	2493.95
15.6675	2493.26
15.758	2492.54
15.8489	2491.79
15.9404	2491.03
16.0325	2490.24
16.125	2489.42
16.2181	2488.58
16.3117	2487.72
16.4059	2486.83
16.5006	2485.92
16.5959	2484.99
16.6917	2484.03
16.788	2483.04
16.885	2482.04
16.9824	2481.01
17.0805	2479.95
17.1791	2478.87
17.2783	2477.77
17.378	2476.64
17.4783	2475.49
17.5792	2474.32
17.6807	2473.12
17.7828	2471.9
17.8855	2470.65
17.9887	2469.39
18.0926	2468.09
18.197	2466.78
18.3021	2465.44
18.4077	2464.08
18.514	2462.7
18.6209	2461.29
18.7284	2459.87
18.8365	2458.41
18.9452	2456.94
19.0546	2455.44
19.1646	2453.92
19.2752	2452.38
19.3865	2450.82
19.4984	2449.23
19.611	2447.62
19.7242	2445.99
19.8381	2444.33
19.9526	2442.65
20.0678	2440.95
20.1837	2439.23
20.3002	2437.49
20.4174	2435.72
20.5353	2433.93
20.6538	2432.12
20.773	2430.29
20.893	2428.43
21.0136	2426.56
21.1349	2424.66
21.2569	2422.74
21.3796	2420.8
21.503	2418.84
21.6272	2416.86
21.752	2414.86
21.8776	2412.84
22.0039	2410.8
22.1309	2408.74
22.2587	2406.66
22.3872	2404.56
22.5165	2402.44
22.6464	2400.3
22.7772	2398.14
22.9087	2395.97
23.0409	2393.77
23.1739	2391.57
23.3077	2389.34
23.4423	2387.09
23.5776	2384.83
23.7137	2382.55
23.8506	2380.26
23.9883	2377.94
24.1268	2375.61
24.2661	2373.25
24.4062	2370.88
24.5471	2368.5
24.6888	2366.09
24.8313	2363.67
24.9747	2361.22
25.1189	2358.76
25.2639	2356.29
25.4097	2353.79
25.5564	2351.27
25.704	2348.74
25.8523	2346.19
26.0016	2343.62
26.1517	2341.03
26.3027	2338.43
26.4545	2335.8
26.6073	2333.16
26.7609	2330.5
26.9153	2327.82
27.0707	2325.13
27.227	2322.41
27.3842	2319.68
27.5423	2316.93
27.7013	2314.16
27.8612	2311.37
28.0221	2308.57
28.1838	2305.75
28.3465	2302.91
28.5102	2300.05
28.6748	2297.18
28.8403	2294.28
29.0068	2291.38
29.1743	2288.45
29.3427	2285.51
29.5121	2282.55
29.6825	2279.57
29.8538	2276.57
30.0262	2273.56
30.1995	2270.54
30.3739	2267.49
30.5492	2264.44
30.7256	2261.36
30.903	2258.27
31.0814	2255.16
31.2608	2252.04
31.4413	2248.9
31.6228	2245.75
31.8053	2242.59
31.989	2239.41
32.1736	2236.21
32.3594	2233
32.5462	2229.78
32.7341	2226.54
32.923	2223.29
33.1131	2220.03
33.3043	2216.76
33.4965	2213.47
33.6899	2210.17
33.8844	2206.86
34.08	2203.54
34.2768	2200.2
34.4747	2196.86
34.6737	2193.5
34.8739	2190.13
35.0752	2186.75
35.2777	2183.36
35.4813	2179.96
35.6862	2176.55
35.8922	2173.13
36.0994	2169.71
36.3078	2166.27
36.5174	2162.82
36.7282	2159.36
36.9403	2155.89
37.1535	2152.41
37.368	2148.92
37.5837	2145.43
37.8007	2141.92
38.0189	2138.4
38.2384	2134.88
38.4592	2131.34
38.6812	2127.8
38.9045	2124.24
39.1291	2120.68
39.355	2117.11
39.5822	2113.52
39.8107	2109.93
40.0405	2106.33
40.2717	2102.72
40.5042	2099.1
40.738	2095.48
40.9732	2091.84
41.2098	2088.19
41.4477	2084.54
41.6869	2080.88
41.9276	2077.2
42.1697	2073.52
42.4131	2069.83
42.658	2066.13
42.9042	2062.43
43.1519	2058.71
43.401	2054.99
43.6516	2051.26
43.9036	2047.52
44.157	2043.77
44.412	2040.01
44.6684	2036.25
44.9262	2032.47
45.1856	2028.69
45.4465	2024.9
45.7088	2021.1
45.9727	2017.3
46.2381	2013.48
46.505	2009.65
46.7735	2005.82
47.0435	2001.98
47.3151	1998.13
47.5883	1994.27
47.863	1990.41
48.1393	1986.54
48.4172	1982.66
48.6968	1978.77
48.9779	1974.88
49.2606	1970.98
49.545	1967.07
49.831	1963.16
50.1187	1959.23
50.4081	1955.31
50.6991	1951.37
50.9918	1947.43
51.2861	1943.48
51.5822	1939.53
51.88	1935.57
52.1795	1931.6
52.4807	1927.63
52.7837	1923.65
53.0884	1919.67
53.3949	1915.68
53.7032	1911.68
54.0132	1907.68
54.325	1903.67
54.6387	1899.66
54.9541	1895.64
55.2713	1891.62
55.5904	1887.59
55.9114	1883.56
56.2341	1879.52
56.5588	1875.47
56.8853	1871.42
57.2137	1867.37
57.544	1863.31
57.8762	1859.25
58.2103	1855.18
58.5464	1851.11
58.8844	1847.03
59.2243	1842.95
59.5662	1838.87
59.9101	1834.78
60.256	1830.68
60.6038	1826.59
60.9537	1822.49
61.3056	1818.38
61.6595	1814.27
62.0155	1810.16
62.3735	1806.04
62.7336	1801.92
63.0957	1797.8
63.46	1793.67
63.8263	1789.54
64.1948	1785.41
64.5654	1781.27
64.9382	1777.14
65.3131	1772.99
65.6901	1768.85
66.0693	1764.7
66.4508	1760.55
66.8344	1756.39
67.2202	1752.24
67.6083	1748.08
67.9986	1743.92
68.3912	1739.75
68.786	1735.58
69.1831	1731.41
69.5825	1727.24
69.9842	1723.06
70.3882	1718.88
70.7946	1714.7
71.2033	1710.51
71.6143	1706.32
72.0278	1702.14
72.4436	1697.95
72.8618	1693.75
73.2825	1689.56
73.7055	1685.36
74.131	1681.17
74.559	1676.97
74.9894	1672.77
75.4223	1668.57
75.8578	1664.37
76.2957	1660.16
76.7361	1655.96
77.1792	1651.75
77.6247	1647.55
78.0728	1643.34
78.5236	1639.13
78.9769	1634.92
79.4328	1630.71
79.8914	1626.51
80.3526	1622.3
80.8165	1618.08
81.2831	1613.87
81.7523	1609.66
82.2243	1605.45
82.699	1601.24
83.1764	1597.03
83.6566	1592.81
84.1395	1588.6
84.6253	1584.39
85.1138	1580.18
85.6052	1575.96
86.0994	1571.75
86.5964	1567.54
87.0964	1563.33
87.5992	1559.11
88.1049	1554.9
88.6135	1550.69
89.1251	1546.47
89.6396	1542.26
90.1571	1538.04
90.6776	1533.83
91.2011	1529.62
91.7276	1525.4
92.2571	1521.19
92.7897	1516.99
93.3254	1512.8
93.8642	1508.6
94.4061	1504.4
94.9511	1500.2
95.4993	1496
96.0506	1491.8
96.6051	1487.6
97.1628	1483.41
97.7237	1479.21
98.2879	1475.02
98.8553	1470.82
99.426	1466.63
100	1462.44
100.577	1458.25
101.158	1454.06
101.742	1449.87
102.329	1445.69
102.92	1441.51
103.514	1437.32
104.112	1433.15
104.713	1428.97
105.317	1424.79
105.925	1420.62
106.537	1416.45
107.152	1412.28
107.771	1408.12
108.393	1403.95
109.018	1399.8
109.648	1395.64
110.281	1391.48
110.917	1387.33
111.558	1383.18
112.202	1379.04
112.85	1374.9
113.501	1370.76
114.156	1366.62
114.815	1362.49
115.478	1358.36
116.145	1354.22
116.815	1350.1
117.49	1345.97
118.168	1341.85
118.85	1337.73
119.536	1333.62
120.226	1329.51
120.921	1325.41
121.619	1321.3
122.321	1317.21
123.027	1313.11
123.737	1309.02
124.451	1304.94
125.17	1300.86
125.893	1296.78
126.619	1292.71
127.35	1288.64
128.086	1284.58
128.825	1280.52
129.569	1276.47
130.317	1272.42
131.069	1268.38
131.826	1264.34
132.587	1260.3
133.352	1256.27
134.122	1252.25
134.896	1248.23
135.675	1244.21
136.458	1240.2
137.246	1236.19
138.038	1232.19
138.835	1228.19
139.637	1224.2
140.443	1220.21
141.254	1216.23
142.069	1212.25
142.889	1208.27
143.714	1204.3
144.544	1200.34
145.378	1196.38
146.218	1192.42
147.062	1188.48
147.911	1184.53
148.765	1180.6
149.624	1176.66
150.487	1172.74
151.356	1168.82
152.23	1164.9
153.109	1160.99
153.993	1157.09
154.882	1153.19
155.776	1149.3
156.675	1145.42
157.58	1141.54
158.489	1137.66
159.404	1133.8
160.325	1129.94
161.25	1126.08
162.181	1122.23
163.117	1118.39
164.059	1114.55
165.006	1110.72
165.959	1106.89
166.917	1103.07
167.88	1099.26
168.85	1095.46
169.824	1091.66
170.805	1087.86
171.791	1084.08
172.783	1080.3
173.78	1076.52
174.783	1072.76
175.792	1069
176.807	1065.25
177.828	1061.5
178.855	1057.76
179.887	1054.03
180.926	1050.3
181.97	1046.58
183.021	1042.87
184.077	1039.17
185.14	1035.47
186.209	1031.78
187.284	1028.09
188.365	1024.41
189.452	1020.74
190.546	1017.08
191.646	1013.42
192.752	1009.77
193.865	1006.13
194.984	1002.49
196.11	998.865
197.242	995.245
198.381	991.633
199.526	988.028
200.678	984.43
201.837	980.84
203.002	977.258
204.174	973.684
205.353	970.117
206.538	966.558
207.73	963.007
208.93	959.464
210.136	955.928
211.349	952.4
212.569	948.88
213.796	945.368
215.03	941.863
216.272	938.366
217.52	934.877
218.776	931.396
220.039	927.922
221.309	924.456
222.587	920.997
223.872	917.545
225.165	914.101
226.464	910.665
227.772	907.235
229.087	903.812
230.409	900.395
231.739	896.981
233.077	893.573
234.423	890.173
235.776	886.78
237.137	883.395
238.506	880.017
239.883	876.646
241.268	873.284
242.661	869.93
244.062	866.583
245.471	863.245
246.888	859.915
248.313	856.594
249.747	853.281
251.189	849.977
252.639	846.681
254.097	843.395
255.564	840.117
257.04	836.849
258.523	833.59
260.016	830.34
261.517	827.099
263.027	823.868
264.545	820.647
266.073	817.435
267.609	814.233
269.153	811.041
270.707	807.858
272.27	804.685
273.842	801.523
275.423	798.37
277.013	795.228
278.612	792.095
280.221	788.973
281.838	785.861
283.465	782.759
285.102	779.667
286.748	776.585
288.403	773.513
290.068	770.452
291.743	767.401
293.427	764.359
295.121	761.328
296.825	758.307
298.538	755.296
300.262	752.295
301.995	749.303
303.739	746.322
305.492	743.35
307.256	740.388
309.03	737.435
310.814	734.491
312.608	731.557
314.413	728.631
316.228	725.715
318.053	722.807
319.89	719.908
321.736	717.017
323.594	714.135
325.462	711.26
327.341	708.393
329.23	705.533
331.131	702.681
333.043	699.835
334.965	696.996
336.899	694.164
338.844	691.337
340.8	688.516
342.768	685.7
344.747	682.889
346.737	680.137
348.739	677.398
350.752	674.664
352.777	671.935
354.813	669.211
356.862	666.492
358.922	663.78
360.994	661.073
363.078	658.371
365.174	655.676
367.282	652.987
369.403	650.303
371.535	647.627
373.68	644.956
375.837	642.292
378.007	639.635
380.189	636.985
382.384	634.342
384.592	631.705
386.812	629.076
389.045	626.455
391.291	623.84
393.55	621.233
395.822	618.634
398.107	616.042
400.405	613.459
402.717	610.883
405.042	608.315
407.38	605.756
409.732	603.204
412.098	600.661
414.477	598.127
416.869	595.601
419.276	593.083
421.697	590.575
424.131	588.075
426.58	585.584
429.042	583.101
431.519	580.628
434.01	578.164
436.516	575.709
439.036	573.263
441.57	570.826
444.12	568.399
446.684	565.981
449.262	563.572
451.856	561.173
454.465	558.783
457.088	556.403
459.727	554.032
462.381	551.659
465.05	549.295
467.735	546.94
470.435	544.595
473.151	542.26
475.883	539.934
478.63	537.617
481.393	535.311
484.172	533.014
486.968	530.727
489.779	528.45
492.606	526.183
495.45	523.925
498.31	521.677
501.187	519.439
504.081	517.211
506.991	514.993
509.918	512.784
512.861	510.585
515.822	508.396
518.8	506.216
521.795	504.046
524.807	501.885
527.837	499.733
530.884	497.591
533.949	495.458
537.032	493.335
540.132	491.22
543.25	489.114
546.387	487.017
549.541	484.928
552.713	482.848
555.904	480.777
559.114	478.713
562.341	476.657
565.588	474.609
568.853	472.569
572.137	470.535
575.44	468.509
578.762	466.489
582.103	464.476
585.464	462.47
588.844	460.471
592.243	458.479
595.662	456.494
599.101	454.517
602.56	452.547
606.038	450.584
609.537	448.628
613.056	446.68
616.595	444.739
620.155	442.806
623.735	440.88
627.336	438.962
630.957	437.051
634.6	435.147
638.263	433.252
641.948	431.364
645.654	429.483
649.382	427.61
653.131	425.745
656.901	423.887
660.693	422.036
664.508	420.194
668.344	418.358
672.202	416.53
676.083	414.71
679.986	412.896
683.912	411.09
687.86	409.292
691.831	407.499
695.825	405.711
699.842	403.93
703.882	402.156
707.946	400.39
712.033	398.631
716.143	396.88
720.278	395.136
724.436	393.4
728.618	391.671
732.825	389.949
737.055	388.236
741.31	386.53
745.59	384.831
749.894	383.141
754.223	381.458
758.578	379.783
762.957	378.116
767.361	376.456
771.792	374.804
776.247	373.16
780.728	371.524
785.236	369.896
789.769	368.275
794.328	366.662
798.914	365.057
803.526	363.459
808.165	361.869
812.831	360.287
817.523	358.712
822.243	357.144
826.99	355.584
831.764	354.032
836.566	352.486
841.395	350.948
846.253	349.417
851.138	347.893
856.052	346.376
860.994	344.865
865.964	343.361
870.964	341.864
875.992	340.373
881.049	338.888
886.135	337.409
891.251	335.936
896.396	334.469
901.571	333.008
906.776	331.551
912.011	330.1
917.276	328.654
922.571	327.218
927.897	325.793
933.254	324.373
938.642	322.957
944.061	321.546
949.511	320.14
954.993	318.74
960.506	317.344
966.051	315.953
971.628	314.567
977.237	313.187
982.879	311.811
988.553	310.441
994.26	309.077
1000	307.718
1005.77	306.364
1011.58	305.015
1017.42	303.673
1023.29	302.336
1029.2	301.004
1035.14	299.678
1041.12	298.358
1047.13	297.044
1053.17	295.735
1059.25	294.432
1065.37	293.135
1071.52	291.844
1077.71	290.558
1083.93	289.279
1090.18	288.005
1096.48	286.737
1102.81	285.475
1109.17	284.219
1115.58	282.969
1122.02	281.725
1128.5	280.487
1135.01	279.255
1141.56	278.028
1148.15	276.808
1154.78	275.591
1161.45	274.379
1168.15	273.173
1174.9	271.973
1181.68	270.779
1188.5	269.591
1195.36	268.409
1202.26	267.232
1209.21	266.061
1216.19	264.897
1223.21	263.738
1230.27	262.585
1237.37	261.437
1244.51	260.296
1251.7	259.16
1258.93	258.03
1266.19	256.906
1273.5	255.787
1280.86	254.674
1288.25	253.566
1295.69	252.464
1303.17	251.368
1310.69	250.277
1318.26	249.191
1325.87	248.11
1333.52	247.035
1341.22	245.964
1348.96	244.899
1356.75	243.838
1364.58	242.782
1372.46	241.731
1380.38	240.684
1388.35	239.641
1396.37	238.603
1404.43	237.569
1412.54	236.54
1420.69	235.515
1428.89	234.495
1437.14	233.479
1445.44	232.468
1453.78	231.461
1462.18	230.459
1470.62	229.461
1479.11	228.468
1487.65	227.48
1496.24	226.496
1504.87	225.517
1513.56	224.543
1522.3	223.573
1531.09	222.607
1539.93	221.647
1548.82	220.691
1557.76	219.739
1566.75	218.792
1575.8	217.849
1584.89	216.911
1594.04	215.978
1603.25	215.048
1612.5	214.124
1621.81	213.203
1631.17	212.287
1640.59	211.375
1650.06	210.468
1659.59	209.565
1669.17	208.667
1678.8	207.773
1688.5	206.883
1698.24	205.998
1708.05	205.118
1717.91	204.241
1727.83	203.37
1737.8	202.503
1747.83	201.64
1757.92	200.781
1768.07	199.927
1778.28	199.078
1788.55	198.233
1798.87	197.392
1809.26	196.555
1819.7	195.723
1830.21	194.895
1840.77	194.071
1851.4	193.252
1862.09	192.436
1872.84	191.625
1883.65	190.818
1894.52	190.014
1905.46	189.215
1916.46	188.42
1927.52	187.629
1938.65	186.841
1949.84	186.057
1961.1	185.277
1972.42	184.501
1983.81	183.728
1995.26	182.958
2006.78	182.192
2018.37	181.429
2030.02	180.67
2041.74	179.913
2053.53	179.16
2065.38	178.409
2077.3	177.661
2089.3	176.916
2101.36	176.174
2113.49	175.434
2125.69	174.697
2137.96	173.963
2150.3	173.232
2162.72	172.504
2175.2	171.778
2187.76	171.056
2200.39	170.336
2213.09	169.62
2225.87	168.906
2238.72	168.195
2251.65	167.488
2264.64	166.783
2277.72	166.081
2290.87	165.383
2304.09	164.686
2317.39	163.992
2330.77	163.302
2344.23	162.614
2357.76	161.929
2371.37	161.248
2385.06	160.569
2398.83	159.894
2412.68	159.222
2426.61	158.554
2440.62	157.889
2454.71	157.227
2468.88	156.568
2483.13	155.913
2497.47	155.262
2511.89	154.614
2526.39	153.969
2540.97	153.328
2555.64	152.69
2570.4	152.056
2585.23	151.426
2600.16	150.799
2615.17	150.176
2630.27	149.556
2645.45	148.94
2660.73	148.327
2676.09	147.719
2691.53	147.113
2707.07	146.512
2722.7	145.914
2738.42	145.32
2754.23	144.729
2770.13	144.142
2786.12	143.559
2802.21	142.98
2818.38	142.404
2834.65	141.831
2851.02	141.263
2867.48	140.697
2884.03	140.136
2900.68	139.578
2917.43	139.023
2934.27	138.472
2951.21	137.925
2968.25	137.381
2985.38	136.84
3002.62	136.302
3019.95	135.768
3037.39	135.238
3054.92	134.71
3072.56	134.186
3090.3	133.664
3108.14	133.146
3126.08	132.631
3144.13	132.118
3162.28	131.609
3180.53	131.102
3198.9	130.598
3217.36	130.096
3235.94	129.597
3254.62	129.101
3273.41	128.606
3292.3	128.104
3311.31	127.574
3330.43	127.047
3349.65	126.522
3368.99	125.998
3388.44	125.477
3408	124.958
3427.68	124.44
3447.47	123.924
3467.37	123.423
3487.39	122.925
3507.52	122.43
3527.77	121.935
3548.13	121.442
3568.62	120.951
3589.22	120.461
3609.94	119.973
3630.78	119.487
3651.74	119.002
3672.82	118.519
3694.03	118.038
3715.35	117.558
3736.8	117.08
3758.37	116.604
3780.07	116.13
3801.89	115.658
3823.84	115.187
3845.92	114.719
3868.12	114.252
3890.45	113.788
3912.91	113.325
3935.5	112.864
3958.22	112.405
3981.07	111.949
4004.05	111.494
4027.17	111.041
4050.42	110.591
4073.8	110.142
4097.32	109.696
4120.98	109.252
4144.77	108.81
4168.69	108.371
4192.76	107.933
4216.97	107.498
4241.31	107.065
4265.8	106.635
4290.42	106.206
4315.19	105.78
4340.1	105.357
4365.16	104.936
4390.36	104.517
4415.7	104.1
4441.2	103.686
4466.84	103.275
4492.62	102.866
4518.56	102.459
4544.65	102.055
4570.88	101.653
4597.27	101.254
4623.81	100.855
4650.5	100.459
4677.35	100.065
4704.35	99.6733
4731.51	99.2844
4758.83	98.898
4786.3	98.5141
4813.93	98.1327
4841.72	97.7538
4869.68	97.3774
4897.79	97.0035
4926.06	96.6321
4954.5	96.2632
4983.1	95.8967
5011.87	95.5326
5040.81	95.171
5069.91	94.8118
5099.18	94.4551
5128.61	94.1006
5158.22	93.7486
5188	93.3989
5217.95	93.0515
5248.07	92.7064
5278.37	92.3635
5308.84	92.0229
5339.49	91.6845
5370.32	91.3482
5401.32	91.0141
5432.5	90.682
5463.87	90.3519
5495.41	90.0239
5527.13	89.6978
5559.04	89.3736
5591.14	89.0512
5623.41	88.7306
5655.88	88.4118
5688.53	88.0946
5721.37	87.7791
5754.4	87.465
5787.62	87.1523
5821.03	86.8411
5854.64	86.5314
5888.44	86.2232
5922.43	85.9165
5956.62	85.6114
5991.01	85.3077
6025.6	85.0057
6060.38	84.7051
6095.37	84.4061
6130.56	84.1086
6165.95	83.8127
6201.55	83.5184
6237.35	83.2256
6273.36	82.9344
6309.57	82.6447
6346	82.3566
6382.63	82.0701
6419.48	81.7852
6456.54	81.5018
6493.82	81.2199
6531.31	80.9397
6569.01	80.661
6606.93	80.3838
6645.08	80.1082
6683.44	79.8341
6722.02	79.5616
6760.83	79.2906
6799.86	79.0211
6839.12	78.7531
6878.6	78.4865
6918.31	78.2212
6958.25	77.9571
6998.42	77.6944
7038.82	77.4332
7079.46	77.1735
7120.33	76.9153
7161.43	76.6586
7202.78	76.4034
7244.36	76.1497
7286.18	75.8976
7328.25	75.6469
7370.55	75.3978
7413.1	75.1503
7455.9	74.9043
7498.94	74.6598
7542.23	74.4168
7585.78	74.1755
7629.57	73.9356
7673.61	73.6973
7717.92	73.4605
7762.47	73.2253
7807.28	72.9916
7852.36	72.7594
7897.69	72.5287
7943.28	72.2996
7989.14	72.072
8035.26	71.8458
8081.65	71.6212
8128.31	71.398
8175.23	71.1764
8222.43	70.9561
8269.9	70.7374
8317.64	70.52
8365.66	70.3041
8413.95	70.0896
8462.53	69.8764
8511.38	69.6646
8560.52	69.4542
8609.94	69.245
8659.64	69.0372
8709.64	68.8306
8759.92	68.6253
8810.49	68.4212
8861.35	68.2182
8912.51	68.0164
8963.96	67.8158
9015.71	67.6162
9067.76	67.4176
9120.11	67.2201
9172.76	67.0235
9225.71	66.8288
9278.97	66.6359
9332.54	66.444
9386.42	66.2531
9440.61	66.063
9495.11	65.8739
9549.93	65.6858
9605.06	65.4986
9660.51	65.3124
9716.28	65.1272
9772.37	64.943
9828.79	64.7597
9885.53	64.5775
9942.6	64.3962
10000	64.216
10057.7	64.0368
10115.8	63.8585
10174.2	63.6814
10232.9	63.5052
10292	63.3301
10351.4	63.156
10411.2	62.9829
10471.3	62.8109
10531.7	62.6399
10592.5	62.47
10653.7	62.3011
10715.2	62.1333
10777.1	61.9665
10839.3	61.8008
10901.8	61.6361
10964.8	61.4724
11028.1	61.3098
11091.7	61.1482
11155.8	60.9877
11220.2	60.8282
11285	60.6697
11350.1	60.5123
11415.6	60.3558
11481.5	60.2004
11547.8	60.0457
11614.5	59.8919
11681.5	59.7391
11749	59.5872
11816.8	59.4364
11885	59.2866
11953.6	59.1378
12022.6	58.99
12092.1	58.8432
12161.9	58.6974
12232.1	58.5526
12302.7	58.4088
12373.7	58.266
12445.1	58.1242
12517	57.9833
12589.3	57.8435
12661.9	57.7046
12735	57.5666
12808.6	57.4297
12882.5	57.2937
12956.9	57.1586
13031.7	57.0244
13106.9	56.8912
13182.6	56.7589
13258.7	56.6275
13335.2	56.497
13412.2	56.3673
13489.6	56.2385
13567.5	56.1105
13645.8	55.9834
13724.6	55.857
13803.8	55.7315
13883.5	55.6066
13963.7	55.4826
14044.3	55.3593
14125.4	55.2368
14206.9	55.1151
14288.9	54.9941
14371.4	54.874
14454.4	54.7546
14537.8	54.636
14621.8	54.5182
14706.2	54.4011
14791.1	54.2849
14876.5	54.1694
14962.4	54.0547
15048.7	53.9408
15135.6	53.8276
15223	53.7153
15310.9	53.6037
15399.3	53.4928
15488.2	53.3828
15577.6	53.2735
15667.5	53.1649
15758	53.0571
15848.9	52.95
15940.4	52.8437
16032.5	52.7381
16125	52.6332
16218.1	52.5291
16311.7	52.4256
16405.9	52.3229
16500.6	52.2209
16595.9	52.1196
16691.7	52.019
16788	51.9191
16885	51.82
16982.4	51.7215
17080.5	51.6238
17179.1	51.5267
17278.3	51.4304
17378	51.3348
17478.3	51.2399
17579.2	51.1457
17680.7	51.0521
17782.8	50.9593
17885.5	50.8671
17988.7	50.7756
18092.6	50.6847
18197	50.5946
18302.1	50.505
18407.7	50.4161
18514	50.3279
18620.9	50.2402
18728.4	50.1532
18836.5	50.0669
18945.2	49.9811
19054.6	49.896
19164.6	49.8115
19275.2	49.7277
19386.5	49.6444
19498.4	49.5618
19611	49.4798
19724.2	49.3984
19838.1	49.3176
19952.6	49.2374
20067.8	49.1578
20183.7	49.0788
20300.2	49.0004
20417.4	48.9226
20535.3	48.8453
20653.8	48.7686
20773	48.6924
20893	48.6168
21013.6	48.5417
21134.9	48.4672
21256.9	48.3931
21379.6	48.3196
21503	48.2465
21627.2	48.174
21752	48.1018
21877.6	48.0302
22003.9	47.9589
22130.9	47.8881
22258.7	47.8177
22387.2	47.7477
22516.5	47.678
22646.4	47.6087
22777.2	47.5397
22908.7	47.471
23040.9	47.4019
23173.9	47.3316
23307.7	47.2618
23442.3	47.1926
23577.6	47.1239
23713.7	47.0557
23850.6	46.9881
23988.3	46.9209
24126.8	46.8543
24266.1	46.7883
24406.2	46.7227
24547.1	46.6576
24688.8	46.5931
24831.3	46.529
24974.7	46.4655
25118.9	46.4024
25263.9	46.3399
25409.7	46.2778
25556.4	46.2163
25704	46.1552
25852.3	46.0946
26001.6	46.0345
26151.7	45.9749
26302.7	45.9158
26454.5	45.8571
26607.3	45.7989
26760.9	45.7412
26915.3	45.6839
27070.7	45.6271
27227	45.5708
27384.2	45.5149
27542.3	45.4595
27701.3	45.4046
27861.2	45.3501
28022.1	45.296
28183.8	45.2424
28346.5	45.1892
28510.2	45.1365
28674.8	45.0842
28840.3	45.0324
29006.8	44.981
29174.3	44.93
29342.7	44.8794
29512.1	44.8293
29682.5	44.7796
29853.8	44.7303
30026.2	44.6815
30199.5	44.633
30373.9	44.585
30549.2	44.5374
30725.6	44.4902
30903	44.4434
31081.4	44.397
31260.8	44.351
31441.3	44.3054
31622.8	44.2602
31805.3	44.2154
31989	44.171
32173.6	44.127
32359.4	44.0834
32546.2	44.0402
32734.1	43.9973
32923	43.9549
33113.1	43.9128
33304.3	43.8711
33496.5	43.8298
33689.9	43.7888
33884.4	43.7482
34080	43.708
34276.8	43.6682
34474.7	43.6287
34673.7	43.5896
34873.9	43.5508
35075.2	43.5124
35277.7	43.4743
35481.3	43.4367
35686.2	43.3993
35892.2	43.3623
36099.4	43.3257
36307.8	43.2894
36517.4	43.2534
36728.2	43.2178
36940.3	43.1826
37153.5	43.1476
37368	43.113
37583.7	43.0788
37800.7	43.0448
38018.9	43.0112
38238.4	42.9779
38459.2	42.945
38681.2	42.9124
38904.5	42.88
39129.1	42.8481
39355	42.8164
39582.2	42.785
39810.7	42.754
40040.5	42.7233
40271.7	42.6928
40504.2	42.6627
40738	42.6329
40973.2	42.6034
41209.8	42.5742
41447.7	42.5453
41686.9	42.5167
41927.6	42.4884
42169.7	42.4604
42413.1	42.4327
42658	42.4052
42904.2	42.3781
43151.9	42.3512
43401	42.3247
43651.6	42.2984
43903.6	42.2724
44157	42.2466
44412	42.2212
44668.4	42.196
44926.2	42.1711
45185.6	42.1465
45446.5	42.1222
45708.8	42.0981
45972.7	42.0743
46238.1	42.0507
46505	42.0274
46773.5	42.0044
47043.5	41.9816
47315.1	41.9591
47588.3	41.9369
47863	41.9149
48139.3	41.8931
48417.2	41.8717
48696.8	41.8504
48977.9	41.8294
49260.6	41.8087
49545	41.7882
49831	41.7679
50118.7	41.7479
50408.1	41.7282
50699.1	41.7086
50991.8	41.6893
51286.1	41.6703
51582.2	41.6515
51880	41.6329
52179.5	41.6145
52480.7	41.5964
52783.7	41.5785
53088.4	41.5608
53394.9	41.5433
53703.2	41.5261
54013.2	41.5091
54325	41.4923
54638.7	41.4757
54954.1	41.4594
55271.3	41.4433
55590.4	41.4273
55911.4	41.4116
56234.1	41.3961
56558.8	41.3808
56885.3	41.3657
57213.7	41.3509
57544	41.3362
57876.2	41.3217
58210.3	41.3075
58546.4	41.2934
58884.4	41.2795
59224.3	41.2659
59566.2	41.2524
59910.1	41.2391
60256	41.226
60603.8	41.2131
60953.7	41.2004
61305.6	41.1879
61659.5	41.1756
62015.5	41.1634
62373.5	41.1515
62733.6	41.1397
63095.7	41.1281
63460	41.1167
63826.3	41.1055
64194.8	41.0945
64565.4	41.0836
64938.2	41.0729
65313.1	41.0624
65690.1	41.052
66069.3	41.0418
66450.8	41.0318
66834.4	41.022
67220.2	41.0123
67608.3	41.0028
67998.6	40.9935
68391.2	40.9843
68786	40.9753
69183.1	40.9665
69582.5	40.9578
69984.2	40.9492
70388.2	40.9409
70794.6	40.9326
71203.3	40.9246
71614.3	40.9167
72027.8	40.9089
72443.6	40.9013
72861.8	40.8939
73282.5	40.8866
73705.5	40.8794
74131	40.8724
74559	40.8656
74989.4	40.8588
75422.3	40.8523
75857.8	40.8458
76295.7	40.8395
76736.1	40.8334
77179.2	40.8274
77624.7	40.8215
78072.8	40.8158
78523.6	40.8102
78976.9	40.8047
79432.8	40.7994
79891.4	40.7942
80352.6	40.7891
80816.5	40.7841
81283.1	40.7793
81752.3	40.7746
82224.3	40.7701
82699	40.7656
83176.4	40.7613
83656.6	40.7572
84139.5	40.7531
84625.3	40.7491
85113.8	40.7453
85605.2	40.7416
86099.4	40.738
86596.4	40.7346
87096.4	40.7312
87599.2	40.728
88104.9	40.7249
88613.5	40.7218
89125.1	40.719
89639.6	40.7162
90157.1	40.7135
90677.6	40.7109
91201.1	40.7085
91727.6	40.7061
92257.1	40.7039
92789.7	40.7017
93325.4	40.6997
93864.2	40.6978
94406.1	40.6959
94951.1	40.6942
95499.3	40.6926
96050.6	40.691
96605.1	40.6896
97162.8	40.6883
97723.7	40.687
98287.9	40.6859
98855.3	40.6849
99426	40.6839
100000	40.683
100577	40.6823
101158	40.6816
101742	40.681
102329	40.6805
102920	40.6801
103514	40.6798
104112	40.6796
104713	40.6794
105317	40.6794
105925	40.6794
106537	40.6795
107152	40.6797
107771	40.68
108393	40.6803
109018	40.6808
109648	40.6813
110281	40.6819
110917	40.6826
111558	40.6833
112202	40.6841
112850	40.685
113501	40.686
114156	40.6871
114815	40.6882
115478	40.6894
116145	40.6907
116815	40.692
117490	40.6934
118168	40.6949
118850	40.6964
119536	40.6981
120226	40.6998
120921	40.7015
121619	40.7033
122321	40.7052
123027	40.7072
123737	40.7092
124451	40.7112
125170	40.7134
125893	40.7156
126619	40.7178
127350	40.7202
128086	40.7225
128825	40.725
129569	40.7275
130317	40.73
131069	40.7326
131826	40.7353
132587	40.738
133352	40.7408
134122	40.7436
134896	40.7465
135675	40.7495
136458	40.7525
137246	40.7555
138038	40.7586
138835	40.7618
139637	40.765
140443	40.7682
141254	40.7715
142069	40.7748
142889	40.7782
143714	40.7817
144544	40.7851
145378	40.7887
146218	40.7923
147062	40.7959
147911	40.7995
148765	40.8032
149624	40.807
150487	40.8108
151356	40.8146
152230	40.8185
153109	40.8224
153993	40.8264
154882	40.8304
155776	40.8344
156675	40.8385
157580	40.8426
158489	40.8467
159404	40.8509
160325	40.8551
161250	40.8594
162181	40.8637
163117	40.868
164059	40.8724
165006	40.8768
165959	40.8812
166917	40.8857
167880	40.8902
168850	40.8947
169824	40.8993
170805	40.9039
171791	40.9085
172783	40.9131
173780	40.9178
174783	40.9225
175792	40.9273
176807	40.932
177828	40.9368
178855	40.9417
179887	40.9465
180926	40.9514
181970	40.9563
183021	40.9612
184077	40.9662
185140	40.9712
186209	40.9762
187284	40.9812
188365	40.9862
189452	40.9913
190546	40.9964
191646	41.0015
192752	41.0067
193865	41.0118
194984	41.017
196110	41.0222
197242	41.0274
198381	41.0327
199526	41.038
200678	41.0432
201837	41.0485
203002	41.0539
204174	41.0592
205353	41.0646
206538	41.0699
207730	41.0753
208930	41.0807
210136	41.0862
211349	41.0916
212569	41.097
213796	41.1025
215030	41.108
216272	41.1135
217520	41.119
218776	41.1245
220039	41.1301
221309	41.1356
222587	41.1412
223872	41.1468
225165	41.1524
226464	41.158
227772	41.1636
229087	41.1692
230409	41.1749
231739	41.1805
233077	41.1862
234423	41.1918
235776	41.1975
237137	41.2032
238506	41.2089
239883	41.2146
241268	41.2203
242661	41.226
244062	41.2318
245471	41.2375
246888	41.2433
248313	41.249
249747	41.2548
251189	41.2605
252639	41.2663
254097	41.2721
255564	41.2779
257040	41.2837
258523	41.2895
260016	41.2953
261517	41.3011
263027	41.3069
264545	41.3127
266073	41.3185
267609	41.3243
269153	41.3302
270707	41.336
272270	41.3418
273842	41.3477
275423	41.3535
277013	41.3593
278612	41.3652
280221	41.371
281838	41.3769
283465	41.3827
285102	41.3886
286748	41.3944
288403	41.4003
290068	41.4061
291743	41.412
293427	41.4178
295121	41.4237
296825	41.4295
298538	41.4354
300262	41.4412
301995	41.4471
303739	41.4529
305492	41.4588
307256	41.4646
309030	41.4705
310814	41.4763
312608	41.4821
314413	41.488
316228	41.4938
318053	41.4997
319890	41.5055
321736	41.5113
323594	41.5171
325462	41.523
327341	41.5288
329230	41.5346
331131	41.5404
333043	41.5462
334965	41.552
336899	41.5578
338844	41.5636
340800	41.5694
342768	41.5752
344747	41.581
346737	41.5868
348739	41.5925
350752	41.5983
352777	41.6041
354813	41.6098
356862	41.6156
358922	41.6213
360994	41.627
363078	41.6328
365174	41.6385
367282	41.6442
369403	41.6499
371535	41.6556
373680	41.6613
375837	41.667
378007	41.6727
380189	41.6784
382384	41.6841
384592	41.6897
386812	41.6954
389045	41.701
391291	41.7067
393550	41.7123
395822	41.7179
398107	41.7235
400405	41.7292
402717	41.7348
405042	41.7403
407380	41.7459
409732	41.7515
412098	41.7571
414477	41.7626
416869	41.7682
419276	41.7737
421697	41.7792
424131	41.7847
426580	41.7903
429042	41.7958
431519	41.8012
434010	41.8067
436516	41.8122
439036	41.8177
441570	41.8231
444120	41.8285
446684	41.834
449262	41.8394
451856	41.8448
454465	41.8502
457088	41.8556
459727	41.861
462381	41.8663
465050	41.8717
467735	41.877
470435	41.8824
473151	41.8877
475883	41.893
478630	41.8983
481393	41.9036
484172	41.9089
486968	41.9141
489779	41.9194
492606	41.9246
495450	41.9299
498310	41.9351
501187	41.9403
504081	41.9455
506991	41.9507
509918	41.9558
512861	41.961
515822	41.9662
518800	41.9713
521795	41.9764
524807	41.9815
527837	41.9866
530884	41.9917
533949	41.9968
537032	42.0018
540132	42.0069
543250	42.0119
546387	42.017
549541	42.022
552713	42.027
555904	42.032
559114	42.0369
562341	42.0419
565588	42.0468
568853	42.0518
572137	42.0567
575440	42.0616
578762	42.0665
582103	42.0714
585464	42.0762
588844	42.0811
592243	42.0859
595662	42.0908
599101	42.0956
602560	42.1004
606038	42.1052
609537	42.1099
613056	42.1147
616595	42.1194
620155	42.1242
623735	42.1289
627336	42.1336
630957	42.1383
634600	42.143
638263	42.1476
641948	42.1523
645654	42.1569
649382	42.1615
653131	42.1662
656901	42.1708
660693	42.1753
664508	42.1799
668344	42.1845
672202	42.189
676083	42.1935
679986	42.198
683912	42.2025
687860	42.207
691831	42.2115
695825	42.2159
699842	42.2204
703882	42.2248
707946	42.2292
712033	42.2336
716143	42.238
720278	42.2424
724436	42.2467
728618	42.251
732825	42.2554
737055	42.2597
741310	42.264
745590	42.2683
749894	42.2725
754223	42.2768
758578	42.281
762957	42.2852
767361	42.2895
771792	42.2937
776247	42.2978
780728	42.302
785236	42.3062
789769	42.3103
794328	42.3144
798914	42.3185
803526	42.3226
808165	42.3267
812831	42.3308
817523	42.3348
822243	42.3388
826990	42.3429
831764	42.3469
836566	42.3509
841395	42.3548
846253	42.3588
851138	42.3628
856052	42.3667
860994	42.3706
865964	42.3745
870964	42.3784
875992	42.3823
881049	42.3861
886135	42.39
891251	42.3938
896396	42.3976
901571	42.4014
906776	42.4052
912011	42.409
917276	42.4128
922571	42.4165
927897	42.4202
933254	42.424
938642	42.4277
944061	42.4313
949511	42.435
954993	42.4387
960506	42.4423
966051	42.4459
971628	42.4496
977237	42.4532
982879	42.4567
988553	42.4603
994260	42.4639
1e+06	42.4674
1.00577e+06	42.4709
1.01158e+06	42.4744
1.01742e+06	42.4779
1.02329e+06	42.4814
1.0292e+06	42.4849
1.03514e+06	42.4883
1.04112e+06	42.4918
1.04713e+06	42.4952
1.05317e+06	42.4986
1.05925e+06	42.502
1.06537e+06	42.5054
1.07152e+06	42.5088
1.07771e+06	42.5121
1.08393e+06	42.5155
1.09018e+06	42.5188
1.09648e+06	42.5221
1.10281e+06	42.5254
1.10917e+06	42.5287
1.11558e+06	42.5319
1.12202e+06	42.5352
1.1285e+06	42.5384
1.13501e+06	42.5417
1.14156e+06	42.5449
1.14815e+06	42.5481
1.15478e+06	42.5513
1.16145e+06	42.5544
1.16815e+06	42.5576
1.1749e+06	42.5607
1.18168e+06	42.5638
1.1885e+06	42.567
1.19536e+06	42.5701
1.20226e+06	42.5731
1.20921e+06	42.5762
1.21619e+06	42.5793
1.22321e+06	42.5823
1.23027e+06	42.5853
1.23737e+06	42.5884
1.24451e+06	42.5914
1.2517e+06	42.5943
1.25893e+06	42.5973
1.26619e+06	42.6003
1.2735e+06	42.6032
1.28086e+06	42.6062
1.28825e+06	42.6091
1.29569e+06	42.612
1.30317e+06	42.6149
1.31069e+06	42.6177
1.31826e+06	42.6206
1.32587e+06	42.6234
1.33352e+06	42.6263
1.34122e+06	42.6291
1.34896e+06	42.6319
1.35675e+06	42.6347
1.36458e+06	42.6375
1.37246e+06	42.6403
1.38038e+06	42.643
1.38835e+06	42.6458
1.39637e+06	42.6485
1.40443e+06	42.6512
1.41254e+06	42.6539
1.42069e+06	42.6566
1.42889e+06	42.6592
1.43714e+06	42.6619
1.44544e+06	42.6646
1.45378e+06	42.6672
1.46218e+06	42.6698
1.47062e+06	42.6724
1.47911e+06	42.675
1.48765e+06	42.6776
1.49624e+06	42.6802
1.50487e+06	42.6827
1.51356e+06	42.6852
1.5223e+06	42.6878
1.53109e+06	42.6903
1.53993e+06	42.6928
1.54882e+06	42.6953
1.55776e+06	42.6978
1.56675e+06	42.7002
1.5758e+06	42.7027
1.58489e+06	42.7051
1.59404e+06	42.7075
1.60325e+06	42.7099
1.6125e+06	42.7123
1.62181e+06	42.7147
1.63117e+06	42.7171
1.64059e+06	42.7195
1.65006e+06	42.7218
1.65959e+06	42.7241
1.66917e+06	42.7265
1.6788e+06	42.7288
1.6885e+06	42.7311
1.69824e+06	42.7333
1.70805e+06	42.7356
1.71791e+06	42.7379
1.72783e+06	42.7401
1.7378e+06	42.7424
1.74783e+06	42.7446
1.75792e+06	42.7468
1.76807e+06	42.749
1.77828e+06	42.7512
1.78855e+06	42.7533
1.79887e+06	42.7555
1.80926e+06	42.7576
1.8197e+06	42.7598
1.83021e+06	42.7619
1.84077e+06	42.764
1.8514e+06	42.7661
1.86209e+06	42.7682
1.87284e+06	42.7703
1.88365e+06	42.7723
1.89452e+06	42.7744
1.90546e+06	42.7764
1.91646e+06	42.7785
1.92752e+06	42.7805
1.93865e+06	42.7825
1.94984e+06	42.7845
1.9611e+06	42.7865
1.97242e+06	42.7884
1.98381e+06	42.7904
1.99526e+06	42.7923
2.00678e+06	42.7943
2.01837e+06	42.7962
2.03002e+06	42.7981
2.04174e+06	42.8
2.05353e+06	42.8019
2.06538e+06	42.8037
2.0773e+06	42.8056
2.0893e+06	42.8075
2.10136e+06	42.8093
2.11349e+06	42.8111
2.12569e+06	42.8129
2.13796e+06	42.8148
2.1503e+06	42.8165
2.16272e+06	42.8183
2.1752e+06	42.8201
2.18776e+06	42.8219
2.20039e+06	42.8236
2.21309e+06	42.8254
2.22587e+06	42.8271
2.23872e+06	42.8288
2.25165e+06	42.8305
2.26464e+06	42.8322
2.27772e+06	42.8339
2.29087e+06	42.8356
2.30409e+06	42.8372
2.31739e+06	42.8389
2.33077e+06	42.8405
2.34423e+06	42.8422
2.35776e+06	42.8438
2.37137e+06	42.8454
2.38506e+06	42.847
2.39883e+06	42.8486
2.41268e+06	42.8501
2.42661e+06	42.8517
2.44062e+06	42.8533
2.45471e+06	42.8548
2.46888e+06	42.8563
2.48313e+06	42.8579
2.49747e+06	42.8594
2.51189e+06	42.8609
2.52639e+06	42.8624
2.54097e+06	42.8639
2.55564e+06	42.8653
2.5704e+06	42.8668
2.58523e+06	42.8683
2.60016e+06	42.8697
2.61517e+06	42.8711
2.63027e+06	42.8726
2.64545e+06	42.874
2.66073e+06	42.8754
2.67609e+06	42.8768
2.69153e+06	42.8781
2.70707e+06	42.8795
2.7227e+06	42.8809
2.73842e+06	42.8822
2.75423e+06	42.8836
2.77013e+06	42.8849
2.78612e+06	42.8862
2.80221e+06	42.8876
2.81838e+06	42.8889
2.83465e+06	42.8902
2.85102e+06	42.8914
2.86748e+06	42.8927
2.88403e+06	42.894
2.90068e+06	42.8952
2.91743e+06	42.8965
2.93427e+06	42.8977
2.95121e+06	42.899
2.96825e+06	42.9002
2.98538e+06	42.9014
3.00262e+06	42.9026
3.01995e+06	42.9038
3.03739e+06	42.905
3.05492e+06	42.9061
3.07256e+06	42.9073
3.0903e+06	42.9085
3.10814e+06	42.9096
3.12608e+06	42.9107
3.14413e+06	42.9119
3.16228e+06	42.913
3.18053e+06	42.9141
3.1989e+06	42.9152
3.21736e+06	42.9163
3.23594e+06	42.9174
3.25462e+06	42.9185
3.27341e+06	42.9195
3.2923e+06	42.9206
3.31131e+06	42.9216
3.33043e+06	42.9227
3.34965e+06	42.9237
3.36899e+06	42.9247
3.38844e+06	42.9257
3.408e+06	42.9268
3.42768e+06	42.9278
3.44747e+06	42.9287
3.46737e+06	42.9297
3.48739e+06	42.9307
3.50752e+06	42.9317
3.52777e+06	42.9326
3.54813e+06	42.9336
3.56862e+06	42.9345
3.58922e+06	42.9354
3.60994e+06	42.9364
3.63078e+06	42.9373
3.65174e+06	42.9382
3.67282e+06	42.9391
3.69403e+06	42.94
3.71535e+06	42.9409
3.7368e+06	42.9418
3.75837e+06	42.9426
3.78007e+06	42.9435
3.80189e+06	42.9443
3.82384e+06	42.9452
3.84592e+06	42.946
3.86812e+06	42.9469
3.89045e+06	42.9477
3.91291e+06	42.9485
3.9355e+06	42.9493
3.95822e+06	42.9501
3.98107e+06	42.9509
4.00405e+06	42.9517
4.02717e+06	42.9525
4.05042e+06	42.9532
4.0738e+06	42.954
4.09732e+06	42.9548
4.12098e+06	42.9555
4.14477e+06	42.9563
4.16869e+06	42.957
4.19276e+06	42.9577
4.21697e+06	42.9584
4.24131e+06	42.9592
4.2658e+06	42.9599
4.29042e+06	42.9606
4.31519e+06	42.9613
4.3401e+06	42.9619
4.36516e+06	42.9626
4.39036e+06	42.9633
4.4157e+06	42.964
4.4412e+06	42.9646
4.46684e+06	42.9653
4.49262e+06	42.9659
4.51856e+06	42.9666
4.54465e+06	42.9672
4.57088e+06	42.9678
4.59727e+06	42.9684
4.62381e+06	42.9691
4.6505e+06	42.9697
4.67735e+06	42.9703
4.70435e+06	42.9709
4.73151e+06	42.9714
4.75883e+06	42.972
4.7863e+06	42.9726
4.81393e+06	42.9732
4.84172e+06	42.9737
4.86968e+06	42.9743
4.89779e+06	42.9748
4.92606e+06	42.9754
4.9545e+06	42.9759
4.9831e+06	42.9765
5.01187e+06	42.977
5.04081e+06	42.9775
5.06991e+06	42.978
5.09918e+06	42.9785
5.12861e+06	42.979
5.15822e+06	42.9795
5.188e+06	42.98
5.21795e+06	42.9805
5.24807e+06	42.981
5.27837e+06	42.9815
5.30884e+06	42.9819
5.33949e+06	42.9824
5.37032e+06	42.9829
5.40132e+06	42.9833
5.4325e+06	42.9837
5.46387e+06	42.9842
5.49541e+06	42.9846
5.52713e+06	42.9851
5.55904e+06	42.9855
5.59114e+06	42.9859
5.62341e+06	42.9863
5.65588e+06	42.9867
5.68853e+06	42.9871
5.72137e+06	42.9875
5.7544e+06	42.9879
5.78762e+06	42.9883
5.82103e+06	42.9887
5.85464e+06	42.9891
5.88844e+06	42.9894
5.92243e+06	42.9898
5.95662e+06	42.9902
5.99101e+06	42.9905
6.0256e+06	42.9909
6.06038e+06	42.9912
6.09537e+06	42.9916
6.13056e+06	42.9919
6.16595e+06	42.9923
6.20155e+06	42.9926
6.23735e+06	42.9929
6.27336e+06	42.9932
6.30957e+06	42.9936
6.346e+06	42.9939
6.38263e+06	42.9942
6.41948e+06	42.9945
6.45654e+06	42.9948
6.49382e+06	42.9951
6.53131e+06	42.9954
6.56901e+06	42.9957
6.60693e+06	42.9959
6.64508e+06	42.9962
6.68344e+06	42.9965
6.72202e+06	42.9968
6.76083e+06	42.997
6.79986e+06	42.9973
6.83912e+06	42.9975
6.8786e+06	42.9978
6.91831e+06	42.998
6.95825e+06	42.9983
6.99842e+06	42.9985
7.03882e+06	42.9988
7.07946e+06	42.999
7.12033e+06	42.9992
7.16143e+06	42.9994
7.20278e+06	42.9997
7.24436e+06	42.9999
7.28618e+06	43.0001
7.32825e+06	43.0003
7.37055e+06	43.0005
7.4131e+06	43.0007
7.4559e+06	43.0009
7.49894e+06	43.0011
7.54223e+06	43.0013
7.58578e+06	43.0015
7.62957e+06	43.0017
7.67361e+06	43.0019
7.71792e+06	43.002
7.76247e+06	43.0022
7.80728e+06	43.0024
7.85236e+06	43.0026
7.89769e+06	43.0027
7.94328e+06	43.0029
7.98914e+06	43.0031
8.03526e+06	43.0032
8.08165e+06	43.0034
8.12831e+06	43.0035
8.17523e+06	43.0037
8.22243e+06	43.0038
8.2699e+06	43.0039
8.31764e+06	43.0041
8.36566e+06	43.0042
8.41395e+06	43.0044
8.46253e+06	43.0045
8.51138e+06	43.0046
8.56052e+06	43.0047
8.60994e+06	43.0049
8.65964e+06	43.005
8.70964e+06	43.0051
8.75992e+06	43.0052
8.81049e+06	43.0053
8.86135e+06	43.0054
8.91251e+06	43.0055
8.96396e+06	43.0056
9.01571e+06	43.0057
9.06776e+06	43.0058
9.12011e+06	43.0059
9.17276e+06	43.006
9.22571e+06	43.0061
9.27897e+06	43.0062
9.33254e+06	43.0063
9.38642e+06	43.0064
9.44061e+06	43.0065
9.49511e+06	43.0065
9.54993e+06	43.0066
9.60506e+06	43.0067
9.66051e+06	43.0068
9.71628e+06	43.0068
9.77237e+06	43.0069
9.82879e+06	43.007
9.88553e+06	43.007
9.9426e+06	43.0071
1e+07	43.0072
