Stopping power dEdx from Ionisation for Na23[0.0] Z = 11 in G4_TISSUE_SOFT_ICRP, process name: ionIoni
E [MeV]	dEdx [MeV/mm]
0.001	52.0541
0.00100577	52.2041
0.00101158	52.3546
0.00101742	52.5055
0.00102329	52.6568
0.0010292	52.8086
0.00103514	52.9608
0.00104112	53.1135
0.00104713	53.2666
0.00105317	53.4201
0.00105925	53.5741
0.00106537	53.7285
0.00107152	53.8834
0.00107771	54.0387
0.00108393	54.1945
0.00109018	54.3507
0.00109648	54.5073
0.00110281	54.6644
0.00110917	54.822
0.00111558	54.98
0.00112202	55.1385
0.0011285	55.2974
0.00113501	55.4568
0.00114156	55.6167
0.00114815	55.777
0.00115478	55.9377
0.00116145	56.099
0.00116815	56.2607
0.0011749	56.4228
0.00118168	56.5855
0.0011885	56.7486
0.00119536	56.9121
0.00120226	57.0762
0.00120921	57.2407
0.00121619	57.4057
0.00122321	57.5711
0.00123027	57.7371
0.00123737	57.9035
0.00124451	58.0704
0.0012517	58.2378
0.00125893	58.4057
0.00126619	58.574
0.0012735	58.7428
0.00128086	58.9122
0.00128825	59.082
0.00129569	59.2523
0.00130317	59.423
0.00131069	59.5943
0.00131826	59.7661
0.00132587	59.9384
0.00133352	60.1111
0.00134122	60.2844
0.00134896	60.4582
0.00135675	60.6324
0.00136458	60.8072
0.00137246	60.9825
0.00138038	61.1582
0.00138835	61.3345
0.00139637	61.5113
0.00140443	61.6886
0.00141254	61.8664
0.00142069	62.0447
0.00142889	62.2236
0.00143714	62.4029
0.00144544	62.5828
0.00145378	62.7632
0.00146218	62.9441
0.00147062	63.1255
0.00147911	63.3075
0.00148765	63.4899
0.00149624	63.6729
0.00150487	63.8565
0.00151356	64.0405
0.0015223	64.2251
0.00153109	64.4102
0.00153993	64.5959
0.00154882	64.7821
0.00155776	64.9688
0.00156675	65.1561
0.0015758	65.3439
0.00158489	65.5322
0.00159404	65.7211
0.00160325	65.9105
0.0016125	66.1005
0.00162181	66.291
0.00163117	66.4821
0.00164059	66.6737
0.00165006	66.8659
0.00165959	67.0587
0.00166917	67.2519
0.0016788	67.4458
0.0016885	67.6402
0.00169824	67.8352
0.00170805	68.0307
0.00171791	68.2268
0.00172783	68.4234
0.0017378	68.6207
0.00174783	68.8184
0.00175792	69.0168
0.00176807	69.2157
0.00177828	69.4152
0.00178855	69.6153
0.00179887	69.816
0.00180926	70.0172
0.0018197	70.219
0.00183021	70.4214
0.00184077	70.6244
0.0018514	70.828
0.00186209	71.0321
0.00187284	71.2369
0.00188365	71.4422
0.00189452	71.6481
0.00190546	71.8546
0.00191646	72.0618
0.00192752	72.2695
0.00193865	72.4778
0.00194984	72.6867
0.0019611	72.8962
0.00197242	73.1063
0.00198381	73.317
0.00199526	73.5284
0.00200678	73.7403
0.00201837	73.9528
0.00203002	74.166
0.00204174	74.3798
0.00205353	74.5942
0.00206538	74.8092
0.0020773	75.0248
0.0020893	75.2411
0.00210136	75.4579
0.00211349	75.6754
0.00212569	75.8936
0.00213796	76.1123
0.0021503	76.3317
0.00216272	76.5517
0.0021752	76.7724
0.00218776	76.9936
0.00220039	77.2156
0.00221309	77.4381
0.00222587	77.6613
0.00223872	77.8852
0.00225165	78.1097
0.00226464	78.3348
0.00227772	78.5606
0.00229087	78.7871
0.00230409	79.0142
0.00231739	79.2419
0.00233077	79.4703
0.00234423	79.6994
0.00235776	79.9291
0.00237137	80.1595
0.00238506	80.3905
0.00239883	80.6222
0.00241268	80.8546
0.00242661	81.0877
0.00244062	81.3214
0.00245471	81.5558
0.00246888	81.7909
0.00248313	82.0266
0.00249747	82.2631
0.00251189	82.5002
0.00252639	82.738
0.00254097	82.9765
0.00255564	83.2156
0.0025704	83.4555
0.00258523	83.696
0.00260016	83.9373
0.00261517	84.1792
0.00263027	84.4219
0.00264545	84.6652
0.00266073	84.9092
0.00267609	85.154
0.00269153	85.3994
0.00270707	85.6456
0.0027227	85.8924
0.00273842	86.14
0.00275423	86.3883
0.00277013	86.6373
0.00278612	86.887
0.00280221	87.1375
0.00281838	87.3886
0.00283465	87.6405
0.00285102	87.8931
0.00286748	88.1465
0.00288403	88.4005
0.00290068	88.6553
0.00291743	88.9109
0.00293427	89.1671
0.00295121	89.4242
0.00296825	89.6819
0.00298538	89.9404
0.00300262	90.1997
0.00301995	90.4596
0.00303739	90.7204
0.00305492	90.9819
0.00307256	91.2441
0.0030903	91.5071
0.00310814	91.7709
0.00312608	92.0354
0.00314413	92.3007
0.00316228	92.5667
0.00318053	92.8335
0.0031989	93.1011
0.00321736	93.3695
0.00323594	93.6386
0.00325462	93.9085
0.00327341	94.1792
0.0032923	94.4506
0.00331131	94.7229
0.00333043	94.9959
0.00334965	95.2697
0.00336899	95.5443
0.00338844	95.8197
0.003408	96.0959
0.00342768	96.3729
0.00344747	96.6507
0.00346737	96.9293
0.00348739	97.2086
0.00350752	97.4888
0.00352777	97.7698
0.00354813	98.0516
0.00356862	98.3343
0.00358922	98.6177
0.00360994	98.902
0.00363078	99.187
0.00365174	99.4729
0.00367282	99.7596
0.00369403	100.047
0.00371535	100.336
0.0037368	100.625
0.00375837	100.915
0.00378007	101.206
0.00380189	101.497
0.00382384	101.79
0.00384592	102.083
0.00386812	102.378
0.00389045	102.673
0.00391291	102.969
0.0039355	103.265
0.00395822	103.563
0.00398107	103.862
0.00400405	104.161
0.00402717	104.461
0.00405042	104.762
0.0040738	105.064
0.00409732	105.367
0.00412098	105.671
0.00414477	105.975
0.00416869	106.281
0.00419276	106.587
0.00421697	106.894
0.00424131	107.202
0.0042658	107.511
0.00429042	107.821
0.00431519	108.132
0.0043401	108.444
0.00436516	108.756
0.00439036	109.07
0.0044157	109.384
0.0044412	109.7
0.00446684	110.016
0.00449262	110.333
0.00451856	110.651
0.00454465	110.97
0.00457088	111.29
0.00459727	111.61
0.00462381	111.932
0.0046505	112.255
0.00467735	112.578
0.00470435	112.903
0.00473151	113.228
0.00475883	113.555
0.0047863	113.882
0.00481393	114.21
0.00484172	114.539
0.00486968	114.87
0.00489779	115.201
0.00492606	115.533
0.0049545	115.866
0.0049831	116.2
0.00501187	116.535
0.00504081	116.87
0.00506991	117.207
0.00509918	117.545
0.00512861	117.884
0.00515822	118.224
0.005188	118.565
0.00521795	118.906
0.00524807	119.249
0.00527837	119.593
0.00530884	119.937
0.00533949	120.283
0.00537032	120.63
0.00540132	120.978
0.0054325	121.326
0.00546387	121.676
0.00549541	122.027
0.00552713	122.378
0.00555904	122.731
0.00559114	123.085
0.00562341	123.44
0.00565588	123.796
0.00568853	124.152
0.00572137	124.51
0.0057544	124.866
0.00578762	125.217
0.00582103	125.57
0.00585464	125.923
0.00588844	126.277
0.00592243	126.632
0.00595662	126.989
0.00599101	127.346
0.0060256	127.704
0.00606038	128.064
0.00609537	128.424
0.00613056	128.786
0.00616595	129.148
0.00620155	129.512
0.00623735	129.876
0.00627336	130.242
0.00630957	130.609
0.006346	130.976
0.00638263	131.345
0.00641948	131.715
0.00645654	132.086
0.00649382	132.458
0.00653131	132.831
0.00656901	133.205
0.00660693	133.58
0.00664508	133.957
0.00668344	134.334
0.00672202	134.712
0.00676083	135.092
0.00679986	135.473
0.00683912	135.854
0.0068786	136.237
0.00691831	136.621
0.00695825	137.006
0.00699842	137.393
0.00703882	137.78
0.00707946	138.168
0.00712033	138.558
0.00716143	138.948
0.00720278	139.34
0.00724436	139.733
0.00728618	140.127
0.00732825	140.522
0.00737055	140.919
0.0074131	141.316
0.0074559	141.715
0.00749894	142.115
0.00754223	142.515
0.00758578	142.918
0.00762957	143.321
0.00767361	143.725
0.00771792	144.131
0.00776247	144.537
0.00780728	144.945
0.00785236	145.355
0.00789769	145.765
0.00794328	146.176
0.00798914	146.589
0.00803526	147.003
0.00808165	147.418
0.00812831	147.834
0.00817523	148.251
0.00822243	148.67
0.0082699	149.09
0.00831764	149.511
0.00836566	149.933
0.00841395	150.357
0.00846253	150.782
0.00851138	151.208
0.00856052	151.635
0.00860994	152.063
0.00865964	152.493
0.00870964	152.924
0.00875992	153.356
0.00881049	153.789
0.00886135	154.224
0.00891251	154.66
0.00896396	155.097
0.00901571	155.536
0.00906776	155.975
0.00912011	156.416
0.00917276	156.858
0.00922571	157.302
0.00927897	157.747
0.00933254	158.193
0.00938642	158.64
0.00944061	159.089
0.00949511	159.539
0.00954993	159.99
0.00960506	160.443
0.00966051	160.897
0.00971628	161.352
0.00977237	161.809
0.00982879	162.267
0.00988553	162.726
0.0099426	163.186
0.01	163.648
0.0100577	164.111
0.0101158	164.576
0.0101742	165.042
0.0102329	165.509
0.010292	165.978
0.0103514	166.448
0.0104112	166.919
0.0104713	167.392
0.0105317	167.866
0.0105925	168.341
0.0106537	168.818
0.0107152	169.296
0.0107771	169.776
0.0108393	170.257
0.0109018	170.739
0.0109648	171.223
0.0110281	171.708
0.0110917	172.195
0.0111558	172.683
0.0112202	173.172
0.011285	173.663
0.0113501	174.155
0.0114156	174.649
0.0114815	175.144
0.0115478	175.64
0.0116145	176.138
0.0116815	176.638
0.011749	177.139
0.0118168	177.641
0.011885	178.145
0.0119536	178.65
0.0120226	179.157
0.0120921	179.665
0.0121619	180.175
0.0122321	180.686
0.0123027	181.199
0.0123737	181.713
0.0124451	182.228
0.012517	182.745
0.0125893	183.264
0.0126619	183.784
0.012735	184.306
0.0128086	184.829
0.0128825	185.354
0.0129569	185.88
0.0130317	186.408
0.0131069	186.937
0.0131826	187.468
0.0132587	188
0.0133352	188.534
0.0134122	189.069
0.0134896	189.606
0.0135675	190.145
0.0136458	190.685
0.0137246	191.227
0.0138038	191.77
0.0138835	192.315
0.0139637	192.862
0.0140443	193.41
0.0141254	193.959
0.0142069	194.51
0.0142889	195.063
0.0143714	195.618
0.0144544	196.174
0.0145378	196.732
0.0146218	197.291
0.0147062	197.852
0.0147911	198.414
0.0148765	198.979
0.0149624	199.544
0.0150487	200.112
0.0151356	200.681
0.015223	201.252
0.0153109	201.824
0.0153993	202.399
0.0154882	202.974
0.0155776	203.552
0.0156675	204.131
0.015758	204.712
0.0158489	205.294
0.0159404	205.879
0.0160325	206.465
0.016125	207.052
0.0162181	207.642
0.0163117	208.233
0.0164059	208.826
0.0165006	209.42
0.0165959	210.017
0.0166917	210.615
0.016788	211.214
0.016885	211.816
0.0169824	212.419
0.0170805	213.024
0.0171791	213.631
0.0172783	214.24
0.017378	214.85
0.0174783	215.462
0.0175792	216.076
0.0176807	216.692
0.0177828	217.309
0.0178855	217.929
0.0179887	218.55
0.0180926	219.173
0.018197	219.797
0.0183021	220.424
0.0184077	221.052
0.018514	221.683
0.0186209	222.315
0.0187284	222.949
0.0188365	223.584
0.0189452	224.222
0.0190546	224.862
0.0191646	225.503
0.0192752	226.146
0.0193865	226.791
0.0194984	227.438
0.019611	228.087
0.0197242	228.738
0.0198381	229.391
0.0199526	230.045
0.0200678	230.702
0.0201837	231.36
0.0203002	232.021
0.0204174	232.683
0.0205353	233.347
0.0206538	234.013
0.020773	234.681
0.020893	235.352
0.0210136	236.024
0.0211349	236.698
0.0212569	237.374
0.0213796	238.052
0.021503	238.731
0.0216272	239.413
0.021752	240.097
0.0218776	240.783
0.0220039	241.471
0.0221309	242.161
0.0222587	242.853
0.0223872	243.547
0.0225165	244.243
0.0226464	244.941
0.0227772	245.641
0.0229087	246.343
0.0230409	246.814
0.0231739	246.978
0.0233077	247.143
0.0234423	247.311
0.0235776	247.48
0.0237137	247.651
0.0238506	247.824
0.0239883	247.998
0.0241268	248.174
0.0242661	248.352
0.0244062	248.531
0.0245471	248.711
0.0246888	248.894
0.0248313	249.078
0.0249747	249.263
0.0251189	249.45
0.0252639	249.638
0.0254097	249.828
0.0255564	250.019
0.025704	250.211
0.0258523	250.405
0.0260016	250.6
0.0261517	250.797
0.0263027	250.995
0.0264545	251.195
0.0266073	251.395
0.0267609	251.597
0.0269153	251.8
0.0270707	252.005
0.027227	252.211
0.0273842	252.418
0.0275423	252.626
0.0277013	252.835
0.0278612	253.046
0.0280221	253.258
0.0281838	253.471
0.0283465	253.685
0.0285102	253.9
0.0286748	254.117
0.0288403	254.334
0.0290068	254.553
0.0291743	254.773
0.0293427	254.994
0.0295121	255.215
0.0296825	255.439
0.0298538	255.663
0.0300262	255.888
0.0301995	256.114
0.0303739	256.341
0.0305492	256.569
0.0307256	256.799
0.030903	257.029
0.0310814	257.26
0.0312608	257.492
0.0314413	257.725
0.0316228	257.96
0.0318053	258.195
0.031989	258.431
0.0321736	258.668
0.0323594	258.906
0.0325462	259.145
0.0327341	259.385
0.032923	259.626
0.0331131	259.867
0.0333043	260.11
0.0334965	260.354
0.0336899	260.598
0.0338844	260.843
0.03408	261.09
0.0342768	261.337
0.0344747	261.585
0.0346737	261.834
0.0348739	262.084
0.0350752	262.334
0.0352777	262.586
0.0354813	262.838
0.0356862	263.092
0.0358922	263.346
0.0360994	263.601
0.0363078	263.857
0.0365174	264.113
0.0367282	264.371
0.0369403	264.629
0.0371535	264.889
0.037368	265.149
0.0375837	265.41
0.0378007	265.672
0.0380189	265.934
0.0382384	266.198
0.0384592	266.462
0.0386812	266.727
0.0389045	266.993
0.0391291	267.26
0.039355	267.528
0.0395822	267.797
0.0398107	268.066
0.0400405	268.336
0.0402717	268.607
0.0405042	268.879
0.040738	269.152
0.0409732	269.425
0.0412098	269.7
0.0414477	269.975
0.0416869	270.251
0.0419276	270.528
0.0421697	270.806
0.0424131	271.084
0.042658	271.364
0.0429042	271.644
0.0431519	271.925
0.043401	272.207
0.0436516	272.49
0.0439036	272.774
0.044157	273.058
0.044412	273.344
0.0446684	273.63
0.0449262	273.917
0.0451856	274.205
0.0454465	274.494
0.0457088	274.784
0.0459727	275.074
0.0462381	275.366
0.046505	275.658
0.0467735	275.951
0.0470435	276.245
0.0473151	276.54
0.0475883	276.836
0.047863	277.133
0.0481393	277.431
0.0484172	277.729
0.0486968	278.029
0.0489779	278.329
0.0492606	278.631
0.049545	278.933
0.049831	279.236
0.0501187	279.54
0.0504081	279.845
0.0506991	280.151
0.0509918	280.458
0.0512861	280.766
0.0515822	281.074
0.05188	281.384
0.0521795	281.695
0.0524807	282.006
0.0527837	282.319
0.0530884	282.632
0.0533949	282.947
0.0537032	283.262
0.0540132	283.579
0.054325	283.896
0.0546387	284.215
0.0549541	284.534
0.0552713	284.855
0.0555904	285.176
0.0559114	285.499
0.0562341	285.822
0.0565588	286.147
0.0568853	286.472
0.0572137	286.799
0.057544	287.127
0.0578762	287.455
0.0582103	287.785
0.0585464	288.116
0.0588844	288.448
0.0592243	288.781
0.0595662	289.115
0.0599101	289.45
0.060256	289.786
0.0606038	290.124
0.0609537	290.462
0.0613056	290.802
0.0616595	291.142
0.0620155	291.484
0.0623735	291.827
0.0627336	292.171
0.0630957	292.516
0.06346	292.863
0.0638263	293.21
0.0641948	293.559
0.0645654	293.909
0.0649382	294.259
0.0653131	294.612
0.0656901	294.965
0.0660693	295.32
0.0664508	295.675
0.0668344	296.032
0.0672202	296.39
0.0676083	296.75
0.0679986	297.11
0.0683912	297.472
0.068786	297.835
0.0691831	298.2
0.0695825	298.565
0.0699842	298.932
0.0703882	299.3
0.0707946	299.67
0.0712033	300.041
0.0716143	300.413
0.0720278	300.786
0.0724436	301.16
0.0728618	301.536
0.0732825	301.914
0.0737055	302.292
0.074131	302.672
0.074559	303.053
0.0749894	303.436
0.0754223	303.82
0.0758578	304.205
0.0762957	304.592
0.0767361	304.98
0.0771792	305.369
0.0776247	305.76
0.0780728	306.153
0.0785236	306.546
0.0789769	306.941
0.0794328	307.338
0.0798914	307.736
0.0803526	308.135
0.0808165	308.536
0.0812831	308.938
0.0817523	309.342
0.0822243	309.747
0.082699	310.154
0.0831764	310.562
0.0836566	310.972
0.0841395	311.383
0.0846253	311.796
0.0851138	312.21
0.0856052	312.625
0.0860994	313.043
0.0865964	313.462
0.0870964	313.882
0.0875992	314.304
0.0881049	314.727
0.0886135	315.152
0.0891251	315.579
0.0896396	316.007
0.0901571	316.437
0.0906776	316.868
0.0912011	317.301
0.0917276	317.736
0.0922571	318.172
0.0927897	318.61
0.0933254	319.049
0.0938642	319.491
0.0944061	319.933
0.0949511	320.378
0.0954993	320.824
0.0960506	321.272
0.0966051	321.721
0.0971628	322.172
0.0977237	322.625
0.0982879	323.08
0.0988553	323.536
0.099426	323.994
0.1	324.454
0.100577	324.916
0.101158	325.379
0.101742	325.844
0.102329	326.311
0.10292	326.779
0.103514	327.25
0.104112	327.722
0.104713	328.196
0.105317	328.672
0.105925	329.149
0.106537	329.629
0.107152	330.11
0.107771	330.593
0.108393	331.078
0.109018	331.565
0.109648	332.053
0.110281	332.544
0.110917	333.036
0.111558	333.53
0.112202	334.026
0.11285	334.524
0.113501	335.024
0.114156	335.526
0.114815	336.03
0.115478	336.536
0.116145	337.043
0.116815	337.553
0.11749	338.064
0.118168	338.578
0.11885	339.093
0.119536	339.611
0.120226	340.13
0.120921	340.652
0.121619	341.175
0.122321	341.701
0.123027	342.228
0.123737	342.757
0.124451	343.289
0.12517	343.822
0.125893	344.358
0.126619	344.896
0.12735	345.435
0.128086	345.977
0.128825	346.521
0.129569	347.067
0.130317	347.615
0.131069	348.165
0.131826	348.717
0.132587	349.272
0.133352	349.828
0.134122	350.387
0.134896	350.947
0.135675	351.51
0.136458	352.075
0.137246	352.643
0.138038	353.212
0.138835	353.783
0.139637	354.357
0.140443	354.933
0.141254	355.511
0.142069	356.091
0.142889	356.674
0.143714	357.259
0.144544	357.846
0.145378	358.435
0.146218	359.026
0.147062	359.62
0.147911	360.216
0.148765	360.814
0.149624	361.415
0.150487	362.018
0.151356	362.623
0.15223	363.23
0.153109	363.84
0.153993	364.452
0.154882	365.066
0.155776	365.682
0.156675	366.301
0.15758	366.923
0.158489	367.546
0.159404	368.172
0.160325	368.801
0.16125	369.431
0.162181	370.064
0.163117	370.7
0.164059	371.337
0.165006	371.978
0.165959	372.62
0.166917	373.265
0.16788	373.913
0.16885	374.563
0.169824	375.215
0.170805	375.87
0.171791	376.527
0.172783	377.186
0.17378	377.848
0.174783	378.513
0.175792	379.18
0.176807	379.849
0.177828	380.521
0.178855	381.196
0.179887	381.873
0.180926	382.552
0.18197	383.234
0.183021	383.919
0.184077	384.605
0.18514	385.295
0.186209	385.987
0.187284	386.682
0.188365	387.379
0.189452	388.078
0.190546	388.781
0.191646	389.485
0.192752	390.193
0.193865	390.903
0.194984	391.615
0.19611	392.33
0.197242	393.048
0.198381	393.768
0.199526	394.491
0.200678	395.217
0.201837	395.945
0.203002	396.676
0.204174	397.409
0.205353	398.145
0.206538	398.884
0.20773	399.625
0.20893	400.369
0.210136	401.116
0.211349	401.865
0.212569	402.617
0.213796	403.372
0.21503	404.129
0.216272	404.889
0.21752	405.652
0.218776	406.417
0.220039	407.185
0.221309	407.956
0.222587	408.729
0.223872	409.506
0.225165	410.285
0.226464	411.066
0.227772	411.851
0.229087	412.638
0.230409	413.428
0.231739	414.22
0.233077	415.016
0.234423	415.814
0.235776	416.615
0.237137	417.418
0.238506	418.225
0.239883	419.034
0.241268	419.846
0.242661	420.661
0.244062	421.478
0.245471	422.299
0.246888	423.122
0.248313	423.948
0.249747	424.776
0.251189	425.608
0.252639	426.442
0.254097	427.279
0.255564	428.119
0.25704	428.962
0.258523	429.808
0.260016	430.656
0.261517	431.507
0.263027	432.361
0.264545	433.218
0.266073	434.078
0.267609	434.94
0.269153	435.806
0.270707	436.674
0.27227	437.545
0.273842	438.419
0.275423	439.296
0.277013	440.176
0.278612	441.058
0.280221	441.944
0.281838	442.832
0.283465	443.723
0.285102	444.617
0.286748	445.514
0.288403	446.413
0.290068	447.316
0.291743	448.221
0.293427	449.13
0.295121	450.041
0.296825	450.955
0.298538	451.872
0.300262	452.792
0.301995	453.714
0.303739	454.64
0.305492	455.568
0.307256	456.5
0.30903	457.434
0.310814	458.371
0.312608	459.311
0.314413	460.254
0.316228	461.199
0.318053	462.148
0.31989	463.1
0.321736	464.054
0.323594	465.011
0.325462	465.971
0.327341	466.934
0.32923	467.9
0.331131	468.869
0.333043	469.84
0.334965	470.815
0.336899	471.792
0.338844	472.772
0.3408	473.755
0.342768	474.741
0.344747	475.73
0.346737	476.722
0.348739	477.716
0.350752	478.714
0.352777	479.714
0.354813	480.717
0.356862	481.723
0.358922	482.732
0.360994	483.743
0.363078	484.758
0.365174	485.775
0.367282	486.795
0.369403	487.818
0.371535	488.843
0.37368	489.872
0.375837	490.903
0.378007	491.937
0.380189	492.974
0.382384	494.014
0.384592	495.056
0.386812	496.102
0.389045	497.15
0.391291	498.2
0.39355	499.254
0.395822	500.31
0.398107	501.369
0.400405	502.431
0.402717	503.496
0.405042	504.647
0.40738	506.634
0.409732	508.634
0.412098	510.648
0.414477	512.675
0.416869	514.716
0.419276	516.77
0.421697	518.839
0.424131	520.921
0.42658	523.018
0.429042	525.129
0.431519	527.254
0.43401	529.393
0.436516	531.547
0.439036	533.716
0.44157	535.899
0.44412	538.097
0.446684	540.311
0.449262	542.539
0.451856	544.783
0.454465	547.042
0.457088	549.317
0.459727	551.607
0.462381	553.913
0.46505	556.235
0.467735	558.572
0.470435	560.926
0.473151	563.297
0.475883	565.683
0.47863	568.087
0.481393	570.506
0.484172	572.943
0.486968	575.397
0.489779	577.867
0.492606	580.355
0.49545	582.861
0.49831	585.383
0.501187	587.924
0.504081	590.482
0.506991	593.058
0.509918	595.653
0.512861	598.265
0.515822	600.896
0.5188	603.545
0.521795	606.213
0.524807	608.9
0.527837	611.606
0.530884	614.331
0.533949	617.076
0.537032	619.839
0.540132	622.623
0.54325	625.426
0.546387	628.249
0.549541	631.093
0.552713	633.956
0.555904	636.84
0.559114	639.745
0.562341	642.67
0.565588	645.617
0.568853	648.584
0.572137	651.573
0.57544	654.584
0.578762	657.436
0.582103	660.024
0.585464	662.624
0.588844	665.238
0.592243	667.865
0.595662	670.505
0.599101	673.159
0.60256	675.826
0.606038	678.506
0.609537	681.199
0.613056	683.907
0.616595	686.627
0.620155	689.361
0.623735	692.109
0.627336	694.87
0.630957	697.645
0.6346	700.433
0.638263	703.235
0.641948	706.051
0.645654	708.88
0.649382	711.724
0.653131	714.581
0.656901	717.452
0.660693	720.337
0.664508	723.236
0.668344	726.149
0.672202	729.076
0.676083	732.016
0.679986	734.971
0.683912	737.94
0.68786	740.923
0.691831	743.92
0.695825	746.932
0.699842	749.957
0.703882	752.997
0.707946	756.051
0.712033	759.119
0.716143	762.201
0.720278	765.298
0.724436	768.409
0.728618	771.535
0.732825	774.675
0.737055	777.829
0.74131	780.998
0.74559	784.181
0.749894	787.378
0.754223	790.59
0.758578	793.817
0.762957	797.058
0.767361	800.313
0.771792	803.583
0.776247	806.868
0.780728	810.167
0.785236	813.481
0.789769	816.809
0.794328	820.152
0.798914	823.51
0.803526	826.882
0.808165	830.268
0.812831	833.67
0.817523	837.086
0.822243	840.517
0.82699	843.962
0.831764	847.422
0.836566	850.897
0.841395	854.386
0.846253	857.89
0.851138	861.409
0.856052	864.942
0.860994	868.49
0.865964	872.053
0.870964	875.63
0.875992	879.222
0.881049	882.829
0.886135	886.45
0.891251	890.086
0.896396	893.736
0.901571	897.401
0.906776	901.081
0.912011	904.775
0.917276	908.484
0.922571	912.207
0.927897	915.945
0.933254	919.697
0.938642	923.464
0.944061	927.246
0.949511	931.041
0.954993	934.852
0.960506	938.676
0.966051	942.515
0.971628	946.368
0.977237	950.236
0.982879	954.118
0.988553	958.014
0.99426	961.924
1	965.849
1.00577	969.788
1.01158	973.74
1.01742	977.707
1.02329	981.688
1.0292	985.683
1.03514	989.692
1.04112	993.715
1.04713	997.751
1.05317	1001.8
1.05925	1005.87
1.06537	1009.94
1.07152	1014.04
1.07771	1018.14
1.08393	1022.26
1.09018	1026.39
1.09648	1030.54
1.10281	1034.7
1.10917	1038.87
1.11558	1043.05
1.12202	1047.25
1.1285	1051.46
1.13501	1055.69
1.14156	1059.93
1.14815	1064.18
1.15478	1068.44
1.16145	1072.72
1.16815	1077
1.1749	1081.31
1.18168	1085.62
1.1885	1089.95
1.19536	1094.28
1.20226	1098.64
1.20921	1103
1.21619	1107.37
1.22321	1111.76
1.23027	1116.16
1.23737	1119.78
1.24451	1124.2
1.2517	1128.62
1.25893	1133.06
1.26619	1137.5
1.2735	1141.96
1.28086	1146.43
1.28825	1150.91
1.29569	1155.4
1.30317	1159.9
1.31069	1164.41
1.31826	1168.93
1.32587	1173.47
1.33352	1178.01
1.34122	1182.56
1.34896	1187.13
1.35675	1191.7
1.36458	1196.28
1.37246	1200.87
1.38038	1205.47
1.38835	1210.08
1.39637	1214.7
1.40443	1219.33
1.41254	1223.97
1.42069	1228.62
1.42889	1233.27
1.43714	1237.93
1.44544	1242.61
1.45378	1247.29
1.46218	1251.97
1.47062	1256.67
1.47911	1261.37
1.48765	1266.08
1.49624	1270.8
1.50487	1275.52
1.51356	1280.26
1.5223	1284.99
1.53109	1289.74
1.53993	1294.49
1.54882	1299.25
1.55776	1304.01
1.56675	1308.78
1.5758	1313.55
1.58489	1318.34
1.59404	1323.12
1.60325	1327.91
1.6125	1332.71
1.62181	1337.51
1.63117	1342.31
1.64059	1347.12
1.65006	1351.94
1.65959	1356.75
1.66917	1361.57
1.6788	1366.4
1.6885	1371.23
1.69824	1376.06
1.70805	1380.89
1.71791	1385.73
1.72783	1390.57
1.7378	1395.41
1.74783	1400.25
1.75792	1405.09
1.76807	1409.94
1.77828	1414.79
1.78855	1419.64
1.79887	1424.49
1.80926	1429.34
1.8197	1434.19
1.83021	1439.04
1.84077	1443.89
1.8514	1448.74
1.86209	1453.58
1.87284	1458.43
1.88365	1463.28
1.89452	1468.13
1.90546	1472.97
1.91646	1477.81
1.92752	1482.65
1.93865	1487.49
1.94984	1492.32
1.9611	1497.16
1.97242	1501.99
1.98381	1506.81
1.99526	1511.63
2.00678	1516.45
2.01837	1521.26
2.03002	1526.07
2.04174	1530.88
2.05353	1535.68
2.06538	1540.47
2.0773	1545.26
2.0893	1550.04
2.10136	1554.82
2.11349	1559.59
2.12569	1564.35
2.13796	1569.11
2.1503	1573.86
2.16272	1578.6
2.1752	1583.33
2.18776	1588.06
2.20039	1592.78
2.21309	1597.49
2.22587	1602.19
2.23872	1606.88
2.25165	1611.56
2.26464	1616.23
2.27772	1620.89
2.29087	1625.54
2.30409	1630.18
2.31739	1634.81
2.33077	1639.43
2.34423	1644.03
2.35776	1648.63
2.37137	1653.21
2.38506	1657.78
2.39883	1662.34
2.41268	1666.88
2.42661	1671.41
2.44062	1675.93
2.45471	1680.43
2.46888	1684.92
2.48313	1689.39
2.49747	1693.85
2.51189	1698.3
2.52639	1702.73
2.54097	1707.14
2.55564	1711.54
2.5704	1715.92
2.58523	1720.28
2.60016	1724.63
2.61517	1728.96
2.63027	1733.28
2.64545	1737.57
2.66073	1741.85
2.67609	1746.11
2.69153	1750.35
2.70707	1754.57
2.7227	1758.77
2.73842	1762.96
2.75423	1767.12
2.77013	1771.26
2.78612	1775.39
2.80221	1779.49
2.81838	1783.57
2.83465	1787.63
2.85102	1791.67
2.86748	1795.69
2.88403	1799.68
2.90068	1803.65
2.91743	1807.6
2.93427	1811.53
2.95121	1815.44
2.96825	1819.32
2.98538	1823.18
3.00262	1827.01
3.01995	1830.82
3.03739	1834.6
3.05492	1838.36
3.07256	1842.1
3.0903	1845.81
3.10814	1849.5
3.12608	1853.16
3.14413	1856.79
3.16228	1860.4
3.18053	1863.98
3.1989	1867.53
3.21736	1871.06
3.23594	1874.56
3.25462	1878.03
3.27341	1881.48
3.2923	1884.89
3.31131	1888.28
3.33043	1891.64
3.34965	1894.98
3.36899	1898.28
3.38844	1901.56
3.408	1904.8
3.42768	1908.02
3.44747	1911.21
3.46737	1914.36
3.48739	1917.49
3.50752	1920.59
3.52777	1923.65
3.54813	1926.69
3.56862	1929.7
3.58922	1932.67
3.60994	1935.62
3.63078	1938.53
3.65174	1941.41
3.67282	1944.26
3.69403	1947.08
3.71535	1949.86
3.7368	1952.61
3.75837	1955.34
3.78007	1958.03
3.80189	1960.68
3.82384	1963.31
3.84592	1965.9
3.86812	1968.45
3.89045	1970.98
3.91291	1973.47
3.9355	1975.93
3.95822	1978.35
3.98107	1980.74
4.00405	1983.1
4.02717	1985.43
4.05042	1987.72
4.0738	1989.97
4.09732	1992.19
4.12098	1994.38
4.14477	1996.53
4.16869	1998.65
4.19276	2000.74
4.21697	2002.79
4.24131	2004.8
4.2658	2006.78
4.29042	2008.73
4.31519	2010.64
4.3401	2012.51
4.36516	2014.35
4.39036	2016.16
4.4157	2017.93
4.4412	2019.67
4.46684	2021.37
4.49262	2023.03
4.51856	2024.66
4.54465	2026.26
4.57088	2027.82
4.59727	2029.34
4.62381	2030.83
4.6505	2032.28
4.67735	2033.7
4.70435	2035.09
4.73151	2036.43
4.75883	2037.75
4.7863	2039.02
4.81393	2040.27
4.84172	2041.47
4.86968	2042.65
4.89779	2043.78
4.92606	2044.88
4.9545	2045.95
4.9831	2046.98
5.01187	2047.98
5.04081	2048.94
5.06991	2049.87
5.09918	2050.76
5.12861	2051.61
5.15822	2052.44
5.188	2053.22
5.21795	2053.98
5.24807	2054.69
5.27837	2055.38
5.30884	2056.03
5.33949	2056.64
5.37032	2057.22
5.40132	2057.77
5.4325	2058.28
5.46387	2058.76
5.49541	2059.2
5.52713	2059.62
5.55904	2059.99
5.59114	2060.34
5.62341	2060.65
5.65588	2060.93
5.68853	2061.17
5.72137	2061.38
5.7544	2061.56
5.78762	2061.7
5.82103	2061.82
5.85464	2061.9
5.88844	2061.95
5.92243	2061.96
5.95662	2061.95
5.99101	2061.9
6.0256	2061.82
6.06038	2061.71
6.09537	2061.56
6.13056	2061.39
6.16595	2061.18
6.20155	2060.95
6.23735	2060.68
6.27336	2060.38
6.30957	2060.05
6.346	2059.7
6.38263	2059.31
6.41948	2058.89
6.45654	2058.44
6.49382	2057.96
6.53131	2057.46
6.56901	2056.92
6.60693	2056.35
6.64508	2055.76
6.68344	2055.14
6.72202	2054.49
6.76083	2053.81
6.79986	2053.1
6.83912	2052.37
6.8786	2051.61
6.91831	2050.82
6.95825	2050
6.99842	2049.16
7.03882	2048.29
7.07946	2047.39
7.12033	2046.47
7.16143	2045.52
7.20278	2044.54
7.24436	2043.54
7.28618	2042.52
7.32825	2041.47
7.37055	2040.39
7.4131	2039.29
7.4559	2038.16
7.49894	2037.01
7.54223	2035.84
7.58578	2034.64
7.62957	2033.42
7.67361	2032.18
7.71792	2026.45
7.76247	2025.22
7.80728	2023.96
7.85236	2022.68
7.89769	2021.38
7.94328	2020.06
7.98914	2018.71
8.03526	2017.35
8.08165	2015.96
8.12831	2014.55
8.17523	2013.11
8.22243	2011.66
8.2699	2010.19
8.31764	2008.69
8.36566	2007.18
8.41395	2005.64
8.46253	2004.09
8.51138	2002.51
8.56052	2000.92
8.60994	1999.3
8.65964	1997.67
8.70964	1996.02
8.75992	1994.35
8.81049	1992.66
8.86135	1990.96
8.91251	1989.23
8.96396	1987.49
9.01571	1985.73
9.06776	1983.96
9.12011	1982.17
9.17276	1980.36
9.22571	1978.54
9.27897	1976.7
9.33254	1974.84
9.38642	1972.97
9.44061	1971.08
9.49511	1969.18
9.54993	1967.26
9.60506	1965.33
9.66051	1963.38
9.71628	1961.42
9.77237	1959.45
9.82879	1957.46
9.88553	1955.46
9.9426	1953.44
10	1951.42
10.0577	1949.37
10.1158	1947.32
10.1742	1945.26
10.2329	1943.18
10.292	1941.09
10.3514	1938.99
10.4112	1936.87
10.4713	1934.75
10.5317	1932.61
10.5925	1930.47
10.6537	1928.31
10.7152	1926.14
10.7771	1923.97
10.8393	1921.78
10.9018	1919.58
10.9648	1917.37
11.0281	1915.16
11.0917	1912.93
11.1558	1910.69
11.2202	1908.45
11.285	1906.2
11.3501	1903.94
11.4156	1901.67
11.4815	1899.39
11.5478	1897.1
11.6145	1894.81
11.6815	1892.51
11.749	1890.2
11.8168	1887.89
11.885	1885.56
11.9536	1883.24
12.0226	1880.9
12.0921	1878.56
12.1619	1876.21
12.2321	1873.85
12.3027	1871.49
12.3737	1869.12
12.4451	1866.75
12.517	1864.37
12.5893	1861.99
12.6619	1859.6
12.735	1857.21
12.8086	1854.81
12.8825	1852.4
12.9569	1849.99
13.0317	1847.58
13.1069	1845.16
13.1826	1842.74
13.2587	1840.32
13.3352	1837.89
13.4122	1835.45
13.4896	1833.01
13.5675	1830.57
13.6458	1828.13
13.7246	1825.68
13.8038	1823.23
13.8835	1820.77
13.9637	1818.32
14.0443	1815.86
14.1254	1813.39
14.2069	1810.93
14.2889	1808.46
14.3714	1805.99
14.4544	1803.51
14.5378	1801.04
14.6218	1798.56
14.7062	1796.08
14.7911	1793.6
14.8765	1791.11
14.9624	1788.63
15.0487	1786.14
15.1356	1783.65
15.223	1781.16
15.3109	1778.67
15.3993	1776.18
15.4882	1773.68
15.5776	1771.19
15.6675	1768.69
15.758	1766.19
15.8489	1763.69
15.9404	1761.19
16.0325	1758.69
16.125	1756.19
16.2181	1753.69
16.3117	1751.18
16.4059	1748.68
16.5006	1746.17
16.5959	1743.67
16.6917	1741.16
16.788	1738.66
16.885	1736.15
16.9824	1733.64
17.0805	1731.14
17.1791	1728.63
17.2783	1726.12
17.378	1723.61
17.4783	1721.1
17.5792	1718.6
17.6807	1716.09
17.7828	1713.58
17.8855	1711.07
17.9887	1708.56
18.0926	1706.06
18.197	1703.55
18.3021	1701.04
18.4077	1698.53
18.514	1696.03
18.6209	1693.52
18.7284	1691.01
18.8365	1688.5
18.9452	1686
19.0546	1683.49
19.1646	1680.99
19.2752	1678.48
19.3865	1675.98
19.4984	1673.47
19.611	1670.97
19.7242	1668.46
19.8381	1665.96
19.9526	1663.46
20.0678	1660.95
20.1837	1658.45
20.3002	1655.95
20.4174	1653.45
20.5353	1650.95
20.6538	1648.44
20.773	1645.94
20.893	1643.44
21.0136	1640.94
21.1349	1638.45
21.2569	1635.95
21.3796	1633.45
21.503	1630.95
21.6272	1628.45
21.752	1625.96
21.8776	1623.46
22.0039	1620.96
22.1309	1618.47
22.2587	1615.97
22.3872	1613.48
22.5165	1610.98
22.6464	1608.49
22.7772	1605.99
22.9087	1603.5
23.0409	1601.01
23.1739	1598.51
23.3077	1596.02
23.4423	1593.53
23.5776	1591.03
23.7137	1588.54
23.8506	1586.05
23.9883	1583.56
24.1268	1581.07
24.2661	1578.58
24.4062	1576.08
24.5471	1573.59
24.6888	1571.1
24.8313	1568.61
24.9747	1566.12
25.1189	1563.63
25.2639	1561.14
25.4097	1558.65
25.5564	1556.16
25.704	1553.67
25.8523	1551.18
26.0016	1548.69
26.1517	1546.2
26.3027	1543.71
26.4545	1541.22
26.6073	1538.73
26.7609	1536.24
26.9153	1533.74
27.0707	1531.25
27.227	1528.76
27.3842	1526.27
27.5423	1523.78
27.7013	1521.29
27.8612	1518.79
28.0221	1516.3
28.1838	1513.81
28.3465	1511.31
28.5102	1508.82
28.6748	1506.33
28.8403	1503.83
29.0068	1501.34
29.1743	1498.85
29.3427	1496.35
29.5121	1493.85
29.6825	1491.36
29.8538	1488.86
30.0262	1486.36
30.1995	1483.86
30.3739	1481.36
30.5492	1478.86
30.7256	1476.36
30.903	1473.86
31.0814	1471.36
31.2608	1468.86
31.4413	1466.35
31.6228	1463.85
31.8053	1461.34
31.989	1458.84
32.1736	1456.33
32.3594	1453.82
32.5462	1451.32
32.7341	1448.81
32.923	1446.3
33.1131	1443.79
33.3043	1441.28
33.4965	1438.76
33.6899	1436.25
33.8844	1433.73
34.08	1431.22
34.2768	1428.7
34.4747	1426.19
34.6737	1423.67
34.8739	1421.15
35.0752	1418.63
35.2777	1416.11
35.4813	1413.58
35.6862	1411.06
35.8922	1408.53
36.0994	1406.01
36.3078	1403.48
36.5174	1400.95
36.7282	1398.42
36.9403	1395.89
37.1535	1393.36
37.368	1390.82
37.5837	1388.29
37.8007	1385.75
38.0189	1383.22
38.2384	1380.68
38.4592	1378.14
38.6812	1375.6
38.9045	1373.05
39.1291	1370.51
39.355	1367.96
39.5822	1365.42
39.8107	1362.87
40.0405	1360.32
40.2717	1357.77
40.5042	1355.21
40.738	1352.66
40.9732	1350.11
41.2098	1347.55
41.4477	1344.99
41.6869	1342.43
41.9276	1339.87
42.1697	1337.31
42.4131	1334.74
42.658	1332.18
42.9042	1329.61
43.1519	1327.04
43.401	1324.47
43.6516	1321.9
43.9036	1319.32
44.157	1316.75
44.412	1314.17
44.6684	1311.59
44.9262	1309.02
45.1856	1306.43
45.4465	1303.85
45.7088	1301.18
45.9727	1298.19
46.2381	1295.21
46.505	1292.24
46.7735	1289.26
47.0435	1286.28
47.3151	1283.31
47.5883	1280.41
47.863	1277.44
48.1393	1274.46
48.4172	1271.49
48.6968	1268.52
48.9779	1265.54
49.2606	1262.57
49.545	1259.6
49.831	1256.62
50.1187	1253.65
50.4081	1250.68
50.6991	1247.7
50.9918	1244.9
51.2861	1241.92
51.5822	1239
51.88	1236.03
52.1795	1233.05
52.4807	1230.08
52.7837	1227.11
53.0884	1224.14
53.3949	1221.17
53.7032	1218.2
54.0132	1215.23
54.325	1212.26
54.6387	1209.28
54.9541	1206.31
55.2713	1203.34
55.5904	1200.37
55.9114	1198.1
56.2341	1195.13
56.5588	1192.15
56.8853	1189.18
57.2137	1183.84
57.544	1180.83
57.8762	1178.03
58.2103	1175.01
58.5464	1172
58.8844	1168.99
59.2243	1165.98
59.5662	1162.97
59.9101	1159.97
60.256	1156.96
60.6038	1153.96
60.9537	1150.96
61.3056	1147.95
61.6595	1144.95
62.0155	1141.95
62.3735	1138.94
62.7336	1135.94
63.0957	1132.94
63.46	1129.94
63.8263	1126.94
64.1948	1123.94
64.5654	1120.94
64.9382	1117.94
65.3131	1114.94
65.6901	1111.94
66.0693	1108.94
66.4508	1105.94
66.8344	1102.94
67.2202	1099.94
67.6083	1096.94
67.9986	1094.64
68.3912	1091.64
68.786	1088.64
69.1831	1085.64
69.5825	1082.64
69.9842	1079.64
70.3882	1076.64
70.7946	1073.65
71.2033	1070.65
71.6143	1067.65
72.0278	1064.66
72.4436	1061.66
72.8618	1058.67
73.2825	1055.68
73.7055	1052.69
74.131	1049.7
74.559	1046.71
74.9894	1043.72
75.4223	1040.74
75.8578	1037.76
76.2957	1034.77
76.7361	1031.79
77.1792	1028.81
77.6247	1025.87
78.0728	1022.9
78.5236	1019.92
78.9769	1016.95
79.4328	1013.97
79.8914	1011
80.3526	1008.07
80.8165	1005.21
81.2831	1002.35
81.7523	999.488
82.2243	996.627
82.699	993.766
83.1764	990.907
83.6566	988.048
84.1395	985.19
84.6253	982.334
85.1138	979.478
85.6052	976.623
86.0994	973.77
86.5964	970.917
87.0964	968.066
87.5992	965.217
88.1049	962.369
88.6135	959.523
89.1251	957.259
89.6396	954.411
90.1571	951.564
90.6776	948.719
91.2011	945.876
91.7276	943.034
92.2571	940.195
92.7897	937.358
93.3254	934.782
93.8642	931.944
94.4061	929.108
94.9511	926.276
95.4993	923.445
96.0506	920.616
96.6051	917.79
97.1628	914.967
97.7237	912.146
98.2879	909.328
98.8553	906.512
99.426	903.699
100	900.889
100.577	898.082
101.158	895.278
101.742	892.478
102.329	890.284
102.92	887.483
103.514	884.685
104.112	881.891
104.713	879.099
105.317	876.311
105.925	873.526
106.537	870.745
107.152	867.967
107.771	865.193
108.393	862.422
109.018	859.655
109.648	856.891
110.281	854.131
110.917	851.375
111.558	848.622
112.202	845.874
112.85	843.129
113.501	840.388
114.156	837.651
114.815	834.918
115.478	832.189
116.145	829.464
116.815	826.742
117.49	824.025
118.168	821.311
118.85	818.602
119.536	815.897
120.226	813.196
120.921	810.498
121.619	807.806
122.321	805.118
123.027	802.433
123.737	799.753
124.451	797.078
125.17	794.406
125.893	791.739
126.619	789.076
127.35	786.418
128.086	783.764
128.825	781.115
129.569	778.485
130.317	775.844
131.069	773.373
131.826	770.739
132.587	768.108
133.352	765.483
134.122	762.862
134.896	760.245
135.675	757.633
136.458	755.025
137.246	752.422
138.038	749.825
138.835	747.231
139.637	744.642
140.443	742.058
141.254	739.478
142.069	736.903
142.889	734.333
143.714	731.768
144.544	729.207
145.378	726.651
146.218	724.1
147.062	721.554
147.911	719.012
148.765	716.475
149.624	713.944
150.487	711.417
151.356	708.894
152.23	706.377
153.109	703.865
153.993	701.358
154.882	698.856
155.776	696.358
156.675	693.866
157.58	691.378
158.489	688.896
159.404	686.418
160.325	683.946
161.25	681.478
162.181	679.017
163.117	676.56
164.059	674.108
165.006	671.661
165.959	669.219
166.917	666.782
167.88	664.351
168.85	661.925
169.824	659.503
170.805	657.088
171.791	654.886
172.783	652.477
173.78	650.073
174.783	647.674
175.792	645.281
176.807	642.892
177.828	640.509
178.855	638.132
179.887	635.759
180.926	633.392
181.97	631.04
183.021	628.683
184.077	626.332
185.14	623.986
186.209	621.645
187.284	619.31
188.365	616.98
189.452	614.657
190.546	612.338
191.646	610.026
192.752	607.718
193.865	605.416
194.984	603.119
196.11	600.827
197.242	598.541
198.381	596.261
199.526	593.986
200.678	591.716
201.837	589.452
203.002	587.194
204.174	584.94
205.353	582.693
206.538	580.451
207.73	578.214
208.93	575.983
210.136	573.758
211.349	571.538
212.569	569.323
213.796	567.114
215.03	564.911
216.272	562.713
217.52	560.521
218.776	558.335
220.039	556.154
221.309	553.979
222.587	551.809
223.872	549.645
225.165	547.487
226.464	545.335
227.772	543.188
229.087	541.046
230.409	538.911
231.739	536.781
233.077	534.657
234.423	532.539
235.776	530.426
237.137	528.319
238.506	526.218
239.883	524.123
241.268	522.164
242.661	520.078
244.062	517.998
245.471	515.924
246.888	513.856
248.313	511.793
249.747	509.736
251.189	507.686
252.639	505.641
254.097	503.601
255.564	501.568
257.04	499.541
258.523	497.519
260.016	495.504
261.517	493.494
263.027	491.49
264.545	489.492
266.073	487.5
267.609	485.514
269.153	483.533
270.707	481.559
272.27	479.591
273.842	477.628
275.423	475.671
277.013	473.721
278.612	471.776
280.221	469.837
281.838	467.904
283.465	465.977
285.102	464.056
286.748	462.142
288.403	460.233
290.068	458.33
291.743	456.433
293.427	454.542
295.121	452.656
296.825	450.777
298.538	448.904
300.262	447.037
301.995	445.175
303.739	443.32
305.492	441.47
307.256	439.627
309.03	437.789
310.814	435.957
312.608	434.132
314.413	432.312
316.228	430.498
318.053	428.691
319.89	426.889
321.736	425.093
323.594	423.303
325.462	421.519
327.341	419.741
329.23	417.969
331.131	416.203
333.043	414.443
334.965	412.688
336.899	410.94
338.844	409.198
340.8	407.461
342.768	405.731
344.747	404.005
346.737	402.287
348.739	400.575
350.752	398.868
352.777	397.168
354.813	395.473
356.862	393.784
358.922	392.102
360.994	390.425
363.078	388.753
365.174	387.088
367.282	385.429
369.403	383.775
371.535	382.127
373.68	380.485
375.837	378.849
378.007	377.219
380.189	375.595
382.384	373.976
384.592	372.364
386.812	370.757
389.045	369.156
391.291	367.56
393.55	365.971
395.822	364.387
398.107	362.809
400.405	361.236
402.717	359.67
405.042	358.109
407.38	356.554
409.732	355.004
412.098	353.461
414.477	351.923
416.869	350.39
419.276	348.864
421.697	347.342
424.131	345.827
426.58	344.317
429.042	342.813
431.519	341.315
434.01	339.822
436.516	338.335
439.036	336.854
441.57	335.378
444.12	333.907
446.684	332.442
449.262	330.983
451.856	329.53
454.465	328.081
457.088	326.639
459.727	325.202
462.381	323.77
465.05	322.344
467.735	320.924
470.435	319.509
473.151	318.099
475.883	316.695
478.63	315.296
481.393	313.903
484.172	312.515
486.968	311.133
489.779	309.756
492.606	308.385
495.45	307.019
498.31	305.658
501.187	304.303
504.081	302.953
506.991	301.608
509.918	300.269
512.861	298.935
515.822	297.606
518.8	296.283
521.795	294.965
524.807	293.652
527.837	292.344
530.884	291.042
533.949	289.745
537.032	288.453
540.132	287.167
543.25	285.885
546.387	284.609
549.541	283.338
552.713	282.072
555.904	280.811
559.114	279.556
562.341	278.306
565.588	277.06
568.853	275.82
572.137	274.585
575.44	273.355
578.762	272.13
582.103	270.91
585.464	269.695
588.844	268.485
592.243	267.281
595.662	266.081
599.101	264.886
602.56	263.697
606.038	262.512
609.537	261.332
613.056	260.157
616.595	258.987
620.155	257.822
623.735	256.662
627.336	255.507
630.957	254.357
634.6	253.211
638.263	252.071
641.948	250.935
645.654	249.804
649.382	248.678
653.131	247.557
656.901	246.44
660.693	245.328
664.508	244.221
668.344	243.119
672.202	242.021
676.083	240.929
679.986	239.84
683.912	238.757
687.86	237.678
691.831	236.604
695.825	235.534
699.842	234.469
703.882	233.409
707.946	232.354
712.033	231.303
716.143	230.256
720.278	229.214
724.436	228.177
728.618	227.144
732.825	226.116
737.055	225.092
741.31	224.072
745.59	223.058
749.894	222.047
754.223	221.041
758.578	220.04
762.957	219.043
767.361	218.05
771.792	217.061
776.247	216.077
780.728	215.098
785.236	214.123
789.769	213.152
794.328	212.185
798.914	211.223
803.526	210.265
808.165	209.311
812.831	208.361
817.523	207.416
822.243	206.475
826.99	205.538
831.764	204.606
836.566	203.677
841.395	202.753
846.253	201.833
851.138	200.917
856.052	200.005
860.994	199.097
865.964	198.193
870.964	197.294
875.992	196.398
881.049	195.507
886.135	194.619
891.251	193.736
896.396	192.857
901.571	191.981
906.776	191.11
912.011	190.242
917.276	189.379
922.571	188.519
927.897	187.664
933.254	186.812
938.642	185.964
944.061	185.12
949.511	184.28
954.993	183.444
960.506	182.611
966.051	181.783
971.628	180.958
977.237	180.137
982.879	179.32
988.553	178.506
994.26	177.697
1000	176.891
1005.77	176.089
1011.58	175.29
1017.42	174.495
1023.29	173.704
1029.2	172.917
1035.14	172.133
1041.12	171.353
1047.13	170.576
1053.17	169.804
1059.25	169.034
1065.37	168.269
1071.52	167.506
1077.71	166.748
1083.93	165.993
1090.18	165.241
1096.48	164.493
1102.81	163.749
1109.17	163.008
1115.58	162.27
1122.02	161.536
1128.5	160.806
1135.01	160.078
1141.56	159.355
1148.15	158.634
1154.78	157.917
1161.45	157.204
1168.15	156.493
1174.9	155.787
1181.68	155.083
1188.5	154.383
1195.36	153.686
1202.26	152.992
1209.21	152.302
1216.19	151.615
1223.21	150.931
1230.27	150.251
1237.37	149.573
1244.51	148.899
1251.7	148.228
1258.93	147.561
1266.19	146.896
1273.5	146.235
1280.86	145.577
1288.25	144.922
1295.69	144.27
1303.17	143.621
1310.69	142.975
1318.26	142.333
1325.87	141.693
1333.52	141.057
1341.22	140.423
1348.96	139.793
1356.75	139.166
1364.58	138.541
1372.46	137.92
1380.38	137.302
1388.35	136.686
1396.37	136.074
1404.43	135.464
1412.54	134.858
1420.69	134.254
1428.89	133.654
1437.14	133.056
1445.44	132.461
1453.78	131.869
1462.18	131.28
1470.62	130.694
1479.11	130.11
1487.65	129.529
1496.24	128.952
1504.87	128.377
1513.56	127.804
1522.3	127.235
1531.09	126.668
1539.93	126.104
1548.82	125.543
1557.76	124.985
1566.75	124.429
1575.8	123.876
1584.89	123.326
1594.04	122.778
1603.25	122.233
1612.5	121.691
1621.81	121.151
1631.17	120.614
1640.59	120.08
1650.06	119.548
1659.59	119.019
1669.17	118.493
1678.8	117.969
1688.5	117.447
1698.24	116.928
1708.05	116.412
1717.91	115.898
1727.83	115.387
1737.8	114.878
1747.83	114.372
1757.92	113.868
1768.07	113.367
1778.28	112.868
1788.55	112.372
1798.87	111.878
1809.26	111.387
1819.7	110.898
1830.21	110.411
1840.77	109.927
1851.4	109.445
1862.09	108.966
1872.84	108.489
1883.65	108.014
1894.52	107.542
1905.46	107.072
1916.46	106.604
1927.52	106.139
1938.65	105.676
1949.84	105.215
1961.1	104.756
1972.42	104.3
1983.81	103.846
1995.26	103.395
2006.78	102.945
2018.37	102.498
2030.02	102.053
2041.74	101.611
2053.53	101.17
2065.38	100.732
2077.3	100.296
2089.3	99.8618
2101.36	99.43
2113.49	99.0004
2125.69	98.573
2137.96	98.1477
2150.3	97.7245
2162.72	97.3034
2175.2	96.8845
2187.76	96.4676
2200.39	96.0529
2213.09	95.6402
2225.87	95.2296
2238.72	94.821
2251.65	94.4145
2264.64	94.0101
2277.72	93.6077
2290.87	93.2073
2304.09	92.8089
2317.39	92.4125
2330.77	92.0182
2344.23	91.6258
2357.76	91.2354
2371.37	90.8469
2385.06	90.4605
2398.83	90.0759
2412.68	89.6934
2426.61	89.3127
2440.62	88.934
2454.71	88.5572
2468.88	88.1823
2483.13	87.8093
2497.47	87.4382
2511.89	87.069
2526.39	86.7016
2540.97	86.3361
2555.64	85.9725
2570.4	85.6107
2585.23	85.2507
2600.16	84.8926
2615.17	84.5363
2630.27	84.1818
2645.45	83.8292
2660.73	83.4783
2676.09	83.1292
2691.53	82.7819
2707.07	82.4363
2722.7	82.0925
2738.42	81.7505
2754.23	81.4102
2770.13	81.0717
2786.12	80.7349
2802.21	80.3998
2818.38	80.0664
2834.65	79.7347
2851.02	79.4048
2867.48	79.0765
2884.03	78.7499
2900.68	78.425
2917.43	78.1017
2934.27	77.7801
2951.21	77.4602
2968.25	77.1419
2985.38	76.8252
3002.62	76.5102
3019.95	76.1968
3037.39	75.885
3054.92	75.5748
3072.56	75.2662
3090.3	74.9592
3108.14	74.6538
3126.08	74.35
3144.13	74.0477
3162.28	73.747
3180.53	73.4478
3198.9	73.1502
3217.36	72.8542
3235.94	72.5596
3254.62	72.2666
3273.41	71.9751
3292.3	71.6851
3311.31	71.3967
3330.43	71.1097
3349.65	70.8242
3368.99	70.5402
3388.44	70.2577
3408	69.9766
3427.68	69.697
3447.47	69.4189
3467.37	69.1422
3487.39	68.8669
3507.52	68.5931
3527.77	68.3207
3548.13	68.0498
3568.62	67.7802
3589.22	67.5121
3609.94	67.2453
3630.78	66.98
3651.74	66.7161
3672.82	66.4535
3694.03	66.1923
3715.35	65.9325
3736.8	65.674
3758.37	65.4169
3780.07	65.1611
3801.89	64.9067
3823.84	64.6537
3845.92	64.4019
3868.12	64.1515
3890.45	63.9024
3912.91	63.6546
3935.5	63.4081
3958.22	63.1629
3981.07	62.9191
4004.05	62.6765
4027.17	62.4351
4050.42	62.1951
4073.8	61.9563
4097.32	61.7188
4120.98	61.4826
4144.77	61.2476
4168.69	61.0138
4192.76	60.7813
4216.97	60.5501
4241.31	60.32
4265.8	60.0912
4290.42	59.8636
4315.19	59.6372
4340.1	59.412
4365.16	59.188
4390.36	58.9652
4415.7	58.7436
4441.2	58.5232
4466.84	58.304
4492.62	58.0859
4518.56	57.869
4544.65	57.6533
4570.88	57.4387
4597.27	57.2252
4623.81	57.013
4650.5	56.8018
4677.35	56.5918
4704.35	56.3829
4731.51	56.1751
4758.83	55.9685
4786.3	55.763
4813.93	55.5585
4841.72	55.3552
4869.68	55.153
4897.79	54.9519
4926.06	54.7518
4954.5	54.5529
4983.1	54.355
5011.87	54.1582
5040.81	53.9624
5069.91	53.7677
5099.18	53.5741
5128.61	53.3815
5158.22	53.19
5188	52.9995
5217.95	52.8101
5248.07	52.6217
5278.37	52.4343
5308.84	52.2479
5339.49	52.0626
5370.32	51.8782
5401.32	51.6949
5432.5	51.5126
5463.87	51.3313
5495.41	51.1509
5527.13	50.9716
5559.04	50.7932
5591.14	50.6159
5623.41	50.4395
5655.88	50.264
5688.53	50.0896
5721.37	49.9161
5754.4	49.7436
5787.62	49.572
5821.03	49.4013
5854.64	49.2316
5888.44	49.0629
5922.43	48.8951
5956.62	48.7282
5991.01	48.5622
6025.6	48.3972
6060.38	48.2331
6095.37	48.0699
6130.56	47.9076
6165.95	47.7462
6201.55	47.5857
6237.35	47.4261
6273.36	47.2674
6309.57	47.1096
6346	46.9526
6382.63	46.7966
6419.48	46.6414
6456.54	46.4871
6493.82	46.3337
6531.31	46.1811
6569.01	46.0294
6606.93	45.8786
6645.08	45.7286
6683.44	45.5794
6722.02	45.4311
6760.83	45.2836
6799.86	45.137
6839.12	44.9912
6878.6	44.8462
6918.31	44.7021
6958.25	44.5588
6998.42	44.4162
7038.82	44.2745
7079.46	44.1337
7120.33	43.9936
7161.43	43.8543
7202.78	43.7158
7244.36	43.5781
7286.18	43.4412
7328.25	43.3051
7370.55	43.1698
7413.1	43.0352
7455.9	42.9014
7498.94	42.7684
7542.23	42.6362
7585.78	42.5047
7629.57	42.374
7673.61	42.2441
7717.92	42.1149
7762.47	41.9865
7807.28	41.8588
7852.36	41.7318
7897.69	41.6056
7943.28	41.4801
7989.14	41.3554
8035.26	41.2314
8081.65	41.1081
8128.31	40.9855
8175.23	40.8637
8222.43	40.7426
8269.9	40.6222
8317.64	40.5025
8365.66	40.3835
8413.95	40.2652
8462.53	40.1476
8511.38	40.0307
8560.52	39.9145
8609.94	39.799
8659.64	39.6842
8709.64	39.5701
8759.92	39.4566
8810.49	39.3438
8861.35	39.2317
8912.51	39.1203
8963.96	39.0096
9015.71	38.8995
9067.76	38.79
9120.11	38.6813
9172.76	38.5732
9225.71	38.4657
9278.97	38.3589
9332.54	38.2527
9386.42	38.1472
9440.61	38.0423
9495.11	37.9381
9549.93	37.8345
9605.06	37.7315
9660.51	37.6292
9716.28	37.5275
9772.37	37.4264
9828.79	37.3259
9885.53	37.2261
9942.6	37.1268
10000	37.0282
10057.7	36.9302
10115.8	36.8328
10174.2	36.736
10232.9	36.6398
10292	36.5442
10351.4	36.4492
10411.2	36.3548
10471.3	36.261
10531.7	36.1677
10592.5	36.0751
10653.7	35.983
10715.2	35.8915
10777.1	35.8006
10839.3	35.7103
10901.8	35.6205
10964.8	35.5314
11028.1	35.4427
11091.7	35.3547
11155.8	35.2672
11220.2	35.1802
11285	35.0939
11350.1	35.008
11415.6	34.9227
11481.5	34.838
11547.8	34.7538
11614.5	34.6702
11681.5	34.5871
11749	34.5045
11816.8	34.4225
11885	34.341
11953.6	34.2601
12022.6	34.1796
12092.1	34.0997
12161.9	34.0204
12232.1	33.9415
12302.7	33.8632
12373.7	33.7853
12445.1	33.708
12517	33.6312
12589.3	33.555
12661.9	33.4792
12735	33.4039
12808.6	33.3292
12882.5	33.2549
12956.9	33.1811
13031.7	33.1079
13106.9	33.0351
13182.6	32.9628
13258.7	32.891
13335.2	32.8197
13412.2	32.7489
13489.6	32.6785
13567.5	32.6087
13645.8	32.5393
13724.6	32.4704
13803.8	32.402
13883.5	32.334
13963.7	32.2665
14044.3	32.1995
14125.4	32.133
14206.9	32.0669
14288.9	32.0013
14371.4	31.9361
14454.4	31.8714
14537.8	31.8071
14621.8	31.7433
14706.2	31.68
14791.1	31.6171
14876.5	31.5546
14962.4	31.4926
15048.7	31.4311
15135.6	31.3699
15223	31.3092
15310.9	31.249
15399.3	31.1892
15488.2	31.1298
15577.6	31.0709
15667.5	31.0123
15758	30.9543
15848.9	30.8966
15940.4	30.8393
16032.5	30.7825
16125	30.7261
16218.1	30.6701
16311.7	30.6146
16405.9	30.5594
16500.6	30.5047
16595.9	30.4504
16691.7	30.3964
16788	30.3429
16885	30.2898
16982.4	30.2371
17080.5	30.1848
17179.1	30.1329
17278.3	30.0814
17378	30.0303
17478.3	29.9795
17579.2	29.9292
17680.7	29.8793
17782.8	29.8297
17885.5	29.7806
17988.7	29.7318
18092.6	29.6834
18197	29.6354
18302.1	29.5878
18407.7	29.5405
18514	29.4936
18620.9	29.4471
18728.4	29.401
18836.5	29.3552
18945.2	29.3099
19054.6	29.2648
19164.6	29.2202
19275.2	29.1759
19386.5	29.132
19498.4	29.0884
19611	29.0452
19724.2	29.0024
19838.1	28.9599
19952.6	28.9177
20067.8	28.876
20183.7	28.8345
20300.2	28.7934
20417.4	28.7527
20535.3	28.7123
20653.8	28.6723
20773	28.6326
20893	28.5932
21013.6	28.5542
21134.9	28.5156
21256.9	28.4772
21379.6	28.4392
21503	28.4016
21627.2	28.3642
21752	28.3272
21877.6	28.2906
22003.9	28.2542
22130.9	28.2182
22258.7	28.1809
22387.2	28.1425
22516.5	28.1045
22646.4	28.0667
22777.2	28.0293
22908.7	27.9922
23040.9	27.9554
23173.9	27.9189
23307.7	27.8828
23442.3	27.8469
23577.6	27.8113
23713.7	27.7761
23850.6	27.7411
23988.3	27.7065
24126.8	27.6721
24266.1	27.6381
24406.2	27.6043
24547.1	27.5708
24688.8	27.5377
24831.3	27.5048
24974.7	27.4722
25118.9	27.4399
25263.9	27.4079
25409.7	27.3762
25556.4	27.3448
25704	27.3136
25852.3	27.2828
26001.6	27.2522
26151.7	27.2219
26302.7	27.1919
26454.5	27.1621
26607.3	27.1327
26760.9	27.1035
26915.3	27.0745
27070.7	27.0459
27227	27.0175
27384.2	26.9894
27542.3	26.9616
27701.3	26.934
27861.2	26.9067
28022.1	26.8797
28183.8	26.8529
28346.5	26.8264
28510.2	26.8001
28674.8	26.7741
28840.3	26.7484
29006.8	26.7229
29174.3	26.6977
29342.7	26.6727
29512.1	26.648
29682.5	26.6235
29853.8	26.5993
30026.2	26.5753
30199.5	26.5516
30373.9	26.5281
30549.2	26.5049
30725.6	26.4819
30903	26.4591
31081.4	26.4366
31260.8	26.4144
31441.3	26.3923
31622.8	26.3706
31805.3	26.349
31989	26.3277
32173.6	26.3066
32359.4	26.2857
32546.2	26.2651
32734.1	26.2447
32923	26.2246
33113.1	26.2046
33304.3	26.1849
33496.5	26.1655
33689.9	26.1462
33884.4	26.1272
34080	26.1084
34276.8	26.0898
34474.7	26.0714
34673.7	26.0533
34873.9	26.0353
35075.2	26.0176
35277.7	26.0001
35481.3	25.9828
35686.2	25.9657
35892.2	25.9489
36099.4	25.9322
36307.8	25.9158
36517.4	25.8996
36728.2	25.8835
36940.3	25.8677
37153.5	25.8521
37368	25.8367
37583.7	25.8215
37800.7	25.8065
38018.9	25.7917
38238.4	25.7771
38459.2	25.7627
38681.2	25.7484
38904.5	25.7344
39129.1	25.7206
39355	25.707
39582.2	25.6936
39810.7	25.6803
40040.5	25.6673
40271.7	25.6544
40504.2	25.6418
40738	25.6293
40973.2	25.617
41209.8	25.6049
41447.7	25.593
41686.9	25.5812
41927.6	25.5697
42169.7	25.5583
42413.1	25.5471
42658	25.5361
42904.2	25.5253
43151.9	25.5146
43401	25.5041
43651.6	25.4938
43903.6	25.4837
44157	25.4737
44412	25.464
44668.4	25.4544
44926.2	25.4449
45185.6	25.4357
45446.5	25.4266
45708.8	25.4176
45972.7	25.4089
46238.1	25.4003
46505	25.3918
46773.5	25.3836
47043.5	25.3755
47315.1	25.3675
47588.3	25.3597
47863	25.3521
48139.3	25.3447
48417.2	25.3374
48696.8	25.3302
48977.9	25.3232
49260.6	25.3164
49545	25.3097
49831	25.3032
50118.7	25.2968
50408.1	25.2906
50699.1	25.2846
50991.8	25.2786
51286.1	25.2729
51582.2	25.2673
51880	25.2618
52179.5	25.2565
52480.7	25.2513
52783.7	25.2463
53088.4	25.2414
53394.9	25.2366
53703.2	25.232
54013.2	25.2276
54325	25.2233
54638.7	25.2191
54954.1	25.215
55271.3	25.2111
55590.4	25.2074
55911.4	25.2038
56234.1	25.2003
56558.8	25.1969
56885.3	25.1937
57213.7	25.1906
57544	25.1876
57876.2	25.1848
58210.3	25.1821
58546.4	25.1796
58884.4	25.1771
59224.3	25.1748
59566.2	25.1726
59910.1	25.1706
60256	25.1687
60603.8	25.1669
60953.7	25.1652
61305.6	25.1636
61659.5	25.1622
62015.5	25.1609
62373.5	25.1597
62733.6	25.1586
63095.7	25.1577
63460	25.1569
63826.3	25.1562
64194.8	25.1556
64565.4	25.1551
64938.2	25.1547
65313.1	25.1545
65690.1	25.1543
66069.3	25.1543
66450.8	25.1544
66834.4	25.1546
67220.2	25.1549
67608.3	25.1554
67998.6	25.1559
68391.2	25.1566
68786	25.1573
69183.1	25.1582
69582.5	25.1592
69984.2	25.1602
70388.2	25.1614
70794.6	25.1627
71203.3	25.1641
71614.3	25.1656
72027.8	25.1672
72443.6	25.1689
72861.8	25.1707
73282.5	25.1726
73705.5	25.1746
74131	25.1767
74559	25.1789
74989.4	25.1812
75422.3	25.1836
75857.8	25.1861
76295.7	25.1887
76736.1	25.1913
77179.2	25.1941
77624.7	25.197
78072.8	25.2
78523.6	25.203
78976.9	25.2062
79432.8	25.2094
79891.4	25.2127
80352.6	25.2161
80816.5	25.2197
81283.1	25.2233
81752.3	25.2269
82224.3	25.2307
82699	25.2346
83176.4	25.2385
83656.6	25.2426
84139.5	25.2467
84625.3	25.2509
85113.8	25.2552
85605.2	25.2595
86099.4	25.264
86596.4	25.2685
87096.4	25.2731
87599.2	25.2778
88104.9	25.2826
88613.5	25.2875
89125.1	25.2924
89639.6	25.2974
90157.1	25.3025
90677.6	25.3077
91201.1	25.3129
91727.6	25.3182
92257.1	25.3236
92789.7	25.3291
93325.4	25.3346
93864.2	25.3402
94406.1	25.3459
94951.1	25.3517
95499.3	25.3575
96050.6	25.3634
96605.1	25.3694
97162.8	25.3755
97723.7	25.3816
98287.9	25.3878
98855.3	25.394
99426	25.4004
100000	25.4068
100577	25.4132
101158	25.4197
101742	25.4263
102329	25.433
102920	25.4397
103514	25.4465
104112	25.4534
104713	25.4603
105317	25.4673
105925	25.4743
106537	25.4814
107152	25.4886
107771	25.4958
108393	25.5031
109018	25.5104
109648	25.5179
110281	25.5253
110917	25.5328
111558	25.5404
112202	25.5481
112850	25.5558
113501	25.5635
114156	25.5713
114815	25.5792
115478	25.5871
116145	25.5951
116815	25.6031
117490	25.6112
118168	25.6194
118850	25.6276
119536	25.6358
120226	25.6441
120921	25.6525
121619	25.6609
122321	25.6693
123027	25.6778
123737	25.6864
124451	25.695
125170	25.7036
125893	25.7123
126619	25.7211
127350	25.7299
128086	25.7387
128825	25.7476
129569	25.7566
130317	25.7655
131069	25.7746
131826	25.7836
132587	25.7928
133352	25.8019
134122	25.8111
134896	25.8204
135675	25.8297
136458	25.839
137246	25.8484
138038	25.8578
138835	25.8673
139637	25.8768
140443	25.8864
141254	25.896
142069	25.9056
142889	25.9153
143714	25.925
144544	25.9347
145378	25.9445
146218	25.9544
147062	25.9642
147911	25.9741
148765	25.9841
149624	25.994
150487	26.0041
151356	26.0141
152230	26.0242
153109	26.0343
153993	26.0445
154882	26.0547
155776	26.0649
156675	26.0752
157580	26.0855
158489	26.0958
159404	26.1062
160325	26.1166
161250	26.127
162181	26.1375
163117	26.148
164059	26.1585
165006	26.1691
165959	26.1797
166917	26.1903
167880	26.2009
168850	26.2116
169824	26.2223
170805	26.2331
171791	26.2438
172783	26.2546
173780	26.2655
174783	26.2763
175792	26.2872
176807	26.2981
177828	26.3091
178855	26.3201
179887	26.331
180926	26.3421
181970	26.3531
183021	26.3642
184077	26.3753
185140	26.3864
186209	26.3976
187284	26.4088
188365	26.42
189452	26.4312
190546	26.4425
191646	26.4537
192752	26.465
193865	26.4764
194984	26.4877
196110	26.4991
197242	26.5105
198381	26.5219
199526	26.5333
200678	26.5448
201837	26.5563
203002	26.5678
204174	26.5793
205353	26.5908
206538	26.6024
207730	26.614
208930	26.6256
210136	26.6372
211349	26.6489
212569	26.6606
213796	26.6722
215030	26.684
216272	26.6957
217520	26.7074
218776	26.7192
220039	26.731
221309	26.7428
222587	26.7546
223872	26.7664
225165	26.7783
226464	26.7901
227772	26.802
229087	26.8139
230409	26.8259
231739	26.8378
233077	26.8498
234423	26.8617
235776	26.8737
237137	26.8857
238506	26.8977
239883	26.9098
241268	26.9218
242661	26.9339
244062	26.9459
245471	26.958
246888	26.9701
248313	26.9823
249747	26.9944
251189	27.0065
252639	27.0187
254097	27.0309
255564	27.0431
257040	27.0553
258523	27.0675
260016	27.0797
261517	27.0919
263027	27.1042
264545	27.1165
266073	27.1287
267609	27.141
269153	27.1533
270707	27.1656
272270	27.1779
273842	27.1903
275423	27.2026
277013	27.215
278612	27.2273
280221	27.2397
281838	27.2521
283465	27.2645
285102	27.2769
286748	27.2893
288403	27.3018
290068	27.3142
291743	27.3266
293427	27.3391
295121	27.3516
296825	27.364
298538	27.3765
300262	27.389
301995	27.4015
303739	27.414
305492	27.4265
307256	27.439
309030	27.4516
310814	27.4641
312608	27.4767
314413	27.4892
316228	27.5018
318053	27.5144
319890	27.5269
321736	27.5395
323594	27.5521
325462	27.5647
327341	27.5773
329230	27.5899
331131	27.6025
333043	27.6152
334965	27.6278
336899	27.6404
338844	27.6531
340800	27.6657
342768	27.6784
344747	27.691
346737	27.7037
348739	27.7164
350752	27.7291
352777	27.7417
354813	27.7544
356862	27.7671
358922	27.7798
360994	27.7925
363078	27.8052
365174	27.8179
367282	27.8307
369403	27.8434
371535	27.8561
373680	27.8688
375837	27.8816
378007	27.8943
380189	27.907
382384	27.9198
384592	27.9325
386812	27.9453
389045	27.958
391291	27.9708
393550	27.9836
395822	27.9963
398107	28.0091
400405	28.0219
402717	28.0346
405042	28.0474
407380	28.0602
409732	28.073
412098	28.0858
414477	28.0985
416869	28.1113
419276	28.1241
421697	28.1369
424131	28.1497
426580	28.1625
429042	28.1753
431519	28.1881
434010	28.2009
436516	28.2137
439036	28.2265
441570	28.2393
444120	28.2522
446684	28.265
449262	28.2778
451856	28.2906
454465	28.3034
457088	28.3162
459727	28.3291
462381	28.3419
465050	28.3547
467735	28.3675
470435	28.3803
473151	28.3932
475883	28.406
478630	28.4188
481393	28.4316
484172	28.4445
486968	28.4573
489779	28.4701
492606	28.4829
495450	28.4958
498310	28.5086
501187	28.5214
504081	28.5342
506991	28.5471
509918	28.5599
512861	28.5727
515822	28.5855
518800	28.5984
521795	28.6112
524807	28.624
527837	28.6368
530884	28.6497
533949	28.6625
537032	28.6753
540132	28.6881
543250	28.701
546387	28.7138
549541	28.7266
552713	28.7394
555904	28.7522
559114	28.7651
562341	28.7779
565588	28.7907
568853	28.8035
572137	28.8163
575440	28.8291
578762	28.8419
582103	28.8547
585464	28.8675
588844	28.8803
592243	28.8932
595662	28.906
599101	28.9188
602560	28.9316
606038	28.9444
609537	28.9571
613056	28.9699
616595	28.9827
620155	28.9955
623735	29.0083
627336	29.0211
630957	29.0339
634600	29.0467
638263	29.0594
641948	29.0722
645654	29.085
649382	29.0978
653131	29.1105
656901	29.1233
660693	29.1361
664508	29.1488
668344	29.1616
672202	29.1744
676083	29.1871
679986	29.1999
683912	29.2126
687860	29.2254
691831	29.2381
695825	29.2509
699842	29.2636
703882	29.2764
707946	29.2891
712033	29.3018
716143	29.3146
720278	29.3273
724436	29.34
728618	29.3527
732825	29.3655
737055	29.3782
741310	29.3909
745590	29.4036
749894	29.4163
754223	29.429
758578	29.4417
762957	29.4544
767361	29.4671
771792	29.4798
776247	29.4925
780728	29.5052
785236	29.5179
789769	29.5305
794328	29.5432
798914	29.5559
803526	29.5686
808165	29.5812
812831	29.5939
817523	29.6066
822243	29.6192
826990	29.6319
831764	29.6445
836566	29.6572
841395	29.6698
846253	29.6824
851138	29.6951
856052	29.7077
860994	29.7203
865964	29.733
870964	29.7456
875992	29.7582
881049	29.7708
886135	29.7834
891251	29.796
896396	29.8086
901571	29.8212
906776	29.8338
912011	29.8464
917276	29.859
922571	29.8716
927897	29.8841
933254	29.8967
938642	29.9093
944061	29.9219
949511	29.9344
954993	29.947
960506	29.9595
966051	29.9721
971628	29.9846
977237	29.9972
982879	30.0097
988553	30.0222
994260	30.0348
1e+06	30.0473
1.00577e+06	30.0598
1.01158e+06	30.0723
1.01742e+06	30.0848
1.02329e+06	30.0974
1.0292e+06	30.1099
1.03514e+06	30.1224
1.04112e+06	30.1349
1.04713e+06	30.1473
1.05317e+06	30.1598
1.05925e+06	30.1723
1.06537e+06	30.1848
1.07152e+06	30.1973
1.07771e+06	30.2097
1.08393e+06	30.2222
1.09018e+06	30.2347
1.09648e+06	30.2471
1.10281e+06	30.2596
1.10917e+06	30.272
1.11558e+06	30.2845
1.12202e+06	30.2969
1.1285e+06	30.3093
1.13501e+06	30.3218
1.14156e+06	30.3342
1.14815e+06	30.3466
1.15478e+06	30.359
1.16145e+06	30.3714
1.16815e+06	30.3838
1.1749e+06	30.3962
1.18168e+06	30.4086
1.1885e+06	30.421
1.19536e+06	30.4334
1.20226e+06	30.4458
1.20921e+06	30.4582
1.21619e+06	30.4706
1.22321e+06	30.4829
1.23027e+06	30.4953
1.23737e+06	30.5077
1.24451e+06	30.52
1.2517e+06	30.5324
1.25893e+06	30.5447
1.26619e+06	30.5571
1.2735e+06	30.5694
1.28086e+06	30.5817
1.28825e+06	30.5941
1.29569e+06	30.6064
1.30317e+06	30.6187
1.31069e+06	30.631
1.31826e+06	30.6433
1.32587e+06	30.6556
1.33352e+06	30.6679
1.34122e+06	30.6802
1.34896e+06	30.6925
1.35675e+06	30.7048
1.36458e+06	30.7171
1.37246e+06	30.7294
1.38038e+06	30.7416
1.38835e+06	30.7539
1.39637e+06	30.7662
1.40443e+06	30.7784
1.41254e+06	30.7907
1.42069e+06	30.8029
1.42889e+06	30.8152
1.43714e+06	30.8274
1.44544e+06	30.8396
1.45378e+06	30.8519
1.46218e+06	30.8641
1.47062e+06	30.8763
1.47911e+06	30.8885
1.48765e+06	30.9007
1.49624e+06	30.9129
1.50487e+06	30.9251
1.51356e+06	30.9373
1.5223e+06	30.9495
1.53109e+06	30.9617
1.53993e+06	30.9739
1.54882e+06	30.986
1.55776e+06	30.9982
1.56675e+06	31.0104
1.5758e+06	31.0225
1.58489e+06	31.0347
1.59404e+06	31.0468
1.60325e+06	31.059
1.6125e+06	31.0711
1.62181e+06	31.0832
1.63117e+06	31.0954
1.64059e+06	31.1075
1.65006e+06	31.1196
1.65959e+06	31.1317
1.66917e+06	31.1438
1.6788e+06	31.1559
1.6885e+06	31.168
1.69824e+06	31.1801
1.70805e+06	31.1922
1.71791e+06	31.2043
1.72783e+06	31.2163
1.7378e+06	31.2284
1.74783e+06	31.2405
1.75792e+06	31.2525
1.76807e+06	31.2646
1.77828e+06	31.2766
1.78855e+06	31.2887
1.79887e+06	31.3007
1.80926e+06	31.3128
1.8197e+06	31.3248
1.83021e+06	31.3368
1.84077e+06	31.3488
1.8514e+06	31.3609
1.86209e+06	31.3729
1.87284e+06	31.3849
1.88365e+06	31.3969
1.89452e+06	31.4089
1.90546e+06	31.4209
1.91646e+06	31.4328
1.92752e+06	31.4448
1.93865e+06	31.4568
1.94984e+06	31.4688
1.9611e+06	31.4807
1.97242e+06	31.4927
1.98381e+06	31.5046
1.99526e+06	31.5166
2.00678e+06	31.5285
2.01837e+06	31.5405
2.03002e+06	31.5524
2.04174e+06	31.5643
2.05353e+06	31.5762
2.06538e+06	31.5881
2.0773e+06	31.6001
2.0893e+06	31.612
2.10136e+06	31.6239
2.11349e+06	31.6358
2.12569e+06	31.6476
2.13796e+06	31.6595
2.1503e+06	31.6714
2.16272e+06	31.6833
2.1752e+06	31.6952
2.18776e+06	31.707
2.20039e+06	31.7189
2.21309e+06	31.7307
2.22587e+06	31.7426
2.23872e+06	31.7544
2.25165e+06	31.7662
2.26464e+06	31.7781
2.27772e+06	31.7899
2.29087e+06	31.8017
2.30409e+06	31.8135
2.31739e+06	31.8253
2.33077e+06	31.8371
2.34423e+06	31.8489
2.35776e+06	31.8607
2.37137e+06	31.8725
2.38506e+06	31.8843
2.39883e+06	31.8961
2.41268e+06	31.9079
2.42661e+06	31.9196
2.44062e+06	31.9314
2.45471e+06	31.9431
2.46888e+06	31.9549
2.48313e+06	31.9666
2.49747e+06	31.9784
2.51189e+06	31.9901
2.52639e+06	32.0018
2.54097e+06	32.0136
2.55564e+06	32.0253
2.5704e+06	32.037
2.58523e+06	32.0487
2.60016e+06	32.0604
2.61517e+06	32.0721
2.63027e+06	32.0838
2.64545e+06	32.0955
2.66073e+06	32.1071
2.67609e+06	32.1188
2.69153e+06	32.1305
2.70707e+06	32.1422
2.7227e+06	32.1538
2.73842e+06	32.1655
2.75423e+06	32.1771
2.77013e+06	32.1887
2.78612e+06	32.2004
2.80221e+06	32.212
2.81838e+06	32.2236
2.83465e+06	32.2353
2.85102e+06	32.2469
2.86748e+06	32.2585
2.88403e+06	32.2701
2.90068e+06	32.2817
2.91743e+06	32.2933
2.93427e+06	32.3049
2.95121e+06	32.3164
2.96825e+06	32.328
2.98538e+06	32.3396
3.00262e+06	32.3511
3.01995e+06	32.3627
3.03739e+06	32.3743
3.05492e+06	32.3858
3.07256e+06	32.3974
3.0903e+06	32.4089
3.10814e+06	32.4204
3.12608e+06	32.4319
3.14413e+06	32.4435
3.16228e+06	32.455
3.18053e+06	32.4665
3.1989e+06	32.478
3.21736e+06	32.4895
3.23594e+06	32.501
3.25462e+06	32.5125
3.27341e+06	32.5239
3.2923e+06	32.5354
3.31131e+06	32.5469
3.33043e+06	32.5584
3.34965e+06	32.5698
3.36899e+06	32.5813
3.38844e+06	32.5927
3.408e+06	32.6042
3.42768e+06	32.6156
3.44747e+06	32.627
3.46737e+06	32.6384
3.48739e+06	32.6499
3.50752e+06	32.6613
3.52777e+06	32.6727
3.54813e+06	32.6841
3.56862e+06	32.6955
3.58922e+06	32.7069
3.60994e+06	32.7183
3.63078e+06	32.7296
3.65174e+06	32.741
3.67282e+06	32.7524
3.69403e+06	32.7637
3.71535e+06	32.7751
3.7368e+06	32.7865
3.75837e+06	32.7978
3.78007e+06	32.8091
3.80189e+06	32.8205
3.82384e+06	32.8318
3.84592e+06	32.8431
3.86812e+06	32.8544
3.89045e+06	32.8657
3.91291e+06	32.8771
3.9355e+06	32.8884
3.95822e+06	32.8996
3.98107e+06	32.9109
4.00405e+06	32.9222
4.02717e+06	32.9335
4.05042e+06	32.9448
4.0738e+06	32.956
4.09732e+06	32.9673
4.12098e+06	32.9785
4.14477e+06	32.9898
4.16869e+06	33.001
4.19276e+06	33.0123
4.21697e+06	33.0235
4.24131e+06	33.0347
4.2658e+06	33.0459
4.29042e+06	33.0572
4.31519e+06	33.0684
4.3401e+06	33.0796
4.36516e+06	33.0908
4.39036e+06	33.102
4.4157e+06	33.1131
4.4412e+06	33.1243
4.46684e+06	33.1355
4.49262e+06	33.1467
4.51856e+06	33.1578
4.54465e+06	33.169
4.57088e+06	33.1801
4.59727e+06	33.1913
4.62381e+06	33.2024
4.6505e+06	33.2135
4.67735e+06	33.2247
4.70435e+06	33.2358
4.73151e+06	33.2469
4.75883e+06	33.258
4.7863e+06	33.2691
4.81393e+06	33.2802
4.84172e+06	33.2913
4.86968e+06	33.3024
4.89779e+06	33.3135
4.92606e+06	33.3245
4.9545e+06	33.3356
4.9831e+06	33.3467
5.01187e+06	33.3577
5.04081e+06	33.3688
5.06991e+06	33.3798
5.09918e+06	33.3909
5.12861e+06	33.4019
5.15822e+06	33.4129
5.188e+06	33.4239
5.21795e+06	33.4349
5.24807e+06	33.446
5.27837e+06	33.457
5.30884e+06	33.4679
5.33949e+06	33.4789
5.37032e+06	33.4899
5.40132e+06	33.5009
5.4325e+06	33.5119
5.46387e+06	33.5228
5.49541e+06	33.5338
5.52713e+06	33.5448
5.55904e+06	33.5557
5.59114e+06	33.5666
5.62341e+06	33.5776
5.65588e+06	33.5885
5.68853e+06	33.5994
5.72137e+06	33.6104
5.7544e+06	33.6213
5.78762e+06	33.6322
5.82103e+06	33.6431
5.85464e+06	33.654
5.88844e+06	33.6649
5.92243e+06	33.6757
5.95662e+06	33.6866
5.99101e+06	33.6975
6.0256e+06	33.7083
6.06038e+06	33.7192
6.09537e+06	33.7301
6.13056e+06	33.7409
6.16595e+06	33.7517
6.20155e+06	33.7626
6.23735e+06	33.7734
6.27336e+06	33.7842
6.30957e+06	33.795
6.346e+06	33.8058
6.38263e+06	33.8167
6.41948e+06	33.8274
6.45654e+06	33.8382
6.49382e+06	33.849
6.53131e+06	33.8598
6.56901e+06	33.8706
6.60693e+06	33.8813
6.64508e+06	33.8921
6.68344e+06	33.9029
6.72202e+06	33.9136
6.76083e+06	33.9243
6.79986e+06	33.9351
6.83912e+06	33.9458
6.8786e+06	33.9565
6.91831e+06	33.9672
6.95825e+06	33.978
6.99842e+06	33.9887
7.03882e+06	33.9994
7.07946e+06	34.0101
7.12033e+06	34.0207
7.16143e+06	34.0314
7.20278e+06	34.0421
7.24436e+06	34.0528
7.28618e+06	34.0634
7.32825e+06	34.0741
7.37055e+06	34.0847
7.4131e+06	34.0954
7.4559e+06	34.106
7.49894e+06	34.1166
7.54223e+06	34.1272
7.58578e+06	34.1379
7.62957e+06	34.1485
7.67361e+06	34.1591
7.71792e+06	34.1697
7.76247e+06	34.1803
7.80728e+06	34.1909
7.85236e+06	34.2014
7.89769e+06	34.212
7.94328e+06	34.2226
7.98914e+06	34.2331
8.03526e+06	34.2437
8.08165e+06	34.2542
8.12831e+06	34.2648
8.17523e+06	34.2753
8.22243e+06	34.2858
8.2699e+06	34.2964
8.31764e+06	34.3069
8.36566e+06	34.3174
8.41395e+06	34.3279
8.46253e+06	34.3384
8.51138e+06	34.3489
8.56052e+06	34.3594
8.60994e+06	34.3698
8.65964e+06	34.3803
8.70964e+06	34.3908
8.75992e+06	34.4012
8.81049e+06	34.4117
8.86135e+06	34.4221
8.91251e+06	34.4326
8.96396e+06	34.443
9.01571e+06	34.4534
9.06776e+06	34.4638
9.12011e+06	34.4742
9.17276e+06	34.4847
9.22571e+06	34.4951
9.27897e+06	34.5054
9.33254e+06	34.5158
9.38642e+06	34.5262
9.44061e+06	34.5366
9.49511e+06	34.547
9.54993e+06	34.5573
9.60506e+06	34.5677
9.66051e+06	34.578
9.71628e+06	34.5884
9.77237e+06	34.5987
9.82879e+06	34.609
9.88553e+06	34.6193
9.9426e+06	34.6297
1e+07	34.64
