Stopping power dEdx from Ionisation for Na23[0.0] Z = 11 in Water, process name: ionIoni
E [MeV]	dEdx [MeV/mm]
0.001	22.6316
0.00100577	22.6972
0.00101158	22.763
0.00101742	22.829
0.00102329	22.8952
0.0010292	22.9615
0.00103514	23.0281
0.00104112	23.0948
0.00104713	23.1618
0.00105317	23.2289
0.00105925	23.2962
0.00106537	23.3638
0.00107152	23.4315
0.00107771	23.4994
0.00108393	23.5675
0.00109018	23.6358
0.00109648	23.7043
0.00110281	23.773
0.00110917	23.8419
0.00111558	23.911
0.00112202	23.9803
0.0011285	24.0498
0.00113501	24.1195
0.00114156	24.1894
0.00114815	24.2595
0.00115478	24.3298
0.00116145	24.4003
0.00116815	24.471
0.0011749	24.5419
0.00118168	24.613
0.0011885	24.6843
0.00119536	24.7558
0.00120226	24.8276
0.00120921	24.8995
0.00121619	24.9716
0.00122321	25.044
0.00123027	25.1165
0.00123737	25.1893
0.00124451	25.2623
0.0012517	25.3355
0.00125893	25.4089
0.00126619	25.4825
0.0012735	25.5563
0.00128086	25.6304
0.00128825	25.7046
0.00129569	25.7791
0.00130317	25.8537
0.00131069	25.9286
0.00131826	26.0037
0.00132587	26.0791
0.00133352	26.1546
0.00134122	26.2304
0.00134896	26.3064
0.00135675	26.3826
0.00136458	26.459
0.00137246	26.5356
0.00138038	26.6125
0.00138835	26.6896
0.00139637	26.7669
0.00140443	26.8444
0.00141254	26.9221
0.00142069	27.0001
0.00142889	27.0783
0.00143714	27.1567
0.00144544	27.2354
0.00145378	27.3142
0.00146218	27.3934
0.00147062	27.4727
0.00147911	27.5522
0.00148765	27.632
0.00149624	27.7121
0.00150487	27.7923
0.00151356	27.8728
0.0015223	27.9535
0.00153109	28.0344
0.00153993	28.1156
0.00154882	28.197
0.00155776	28.2787
0.00156675	28.3606
0.0015758	28.4427
0.00158489	28.525
0.00159404	28.6076
0.00160325	28.6905
0.0016125	28.7735
0.00162181	28.8568
0.00163117	28.9404
0.00164059	29.0242
0.00165006	29.1082
0.00165959	29.1925
0.00166917	29.277
0.0016788	29.3618
0.0016885	29.4468
0.00169824	29.532
0.00170805	29.6175
0.00171791	29.7033
0.00172783	29.7893
0.0017378	29.8755
0.00174783	29.962
0.00175792	30.0487
0.00176807	30.1357
0.00177828	30.2229
0.00178855	30.3104
0.00179887	30.3982
0.00180926	30.4861
0.0018197	30.5744
0.00183021	30.6629
0.00184077	30.7516
0.0018514	30.8407
0.00186209	30.9299
0.00187284	31.0195
0.00188365	31.1092
0.00189452	31.1993
0.00190546	31.2896
0.00191646	31.3801
0.00192752	31.471
0.00193865	31.562
0.00194984	31.6534
0.0019611	31.745
0.00197242	31.8369
0.00198381	31.929
0.00199526	32.0214
0.00200678	32.1141
0.00201837	32.207
0.00203002	32.3002
0.00204174	32.3937
0.00205353	32.4875
0.00206538	32.5815
0.0020773	32.6758
0.0020893	32.7703
0.00210136	32.8651
0.00211349	32.9602
0.00212569	33.0556
0.00213796	33.1513
0.0021503	33.2472
0.00216272	33.3434
0.0021752	33.4399
0.00218776	33.5367
0.00220039	33.6337
0.00221309	33.731
0.00222587	33.8286
0.00223872	33.9265
0.00225165	34.0246
0.00226464	34.1231
0.00227772	34.2218
0.00229087	34.3208
0.00230409	34.4201
0.00231739	34.5197
0.00233077	34.6196
0.00234423	34.7198
0.00235776	34.8202
0.00237137	34.9209
0.00238506	35.022
0.00239883	35.1233
0.00241268	35.2249
0.00242661	35.3268
0.00244062	35.429
0.00245471	35.5315
0.00246888	35.6343
0.00248313	35.7374
0.00249747	35.8408
0.00251189	35.9444
0.00252639	36.0484
0.00254097	36.1527
0.00255564	36.2573
0.0025704	36.3621
0.00258523	36.4673
0.00260016	36.5728
0.00261517	36.6786
0.00263027	36.7847
0.00264545	36.8911
0.00266073	36.9978
0.00267609	37.1048
0.00269153	37.2121
0.00270707	37.3198
0.0027227	37.4277
0.00273842	37.536
0.00275423	37.6445
0.00277013	37.7534
0.00278612	37.8626
0.00280221	37.9721
0.00281838	38.0819
0.00283465	38.1921
0.00285102	38.3025
0.00286748	38.4133
0.00288403	38.5244
0.00290068	38.6358
0.00291743	38.7476
0.00293427	38.8596
0.00295121	38.972
0.00296825	39.0847
0.00298538	39.1977
0.00300262	39.3111
0.00301995	39.4248
0.00303739	39.5388
0.00305492	39.6531
0.00307256	39.7678
0.0030903	39.8828
0.00310814	39.9981
0.00312608	40.1138
0.00314413	40.2298
0.00316228	40.3461
0.00318053	40.4628
0.0031989	40.5798
0.00321736	40.6971
0.00323594	40.8148
0.00325462	40.9328
0.00327341	41.0512
0.0032923	41.1699
0.00331131	41.2889
0.00333043	41.4083
0.00334965	41.528
0.00336899	41.6481
0.00338844	41.7685
0.003408	41.8893
0.00342768	42.0104
0.00344747	42.1319
0.00346737	42.2537
0.00348739	42.3758
0.00350752	42.4984
0.00352777	42.6212
0.00354813	42.7445
0.00356862	42.868
0.00358922	42.992
0.00360994	43.1163
0.00363078	43.2409
0.00365174	43.3659
0.00367282	43.4913
0.00369403	43.617
0.00371535	43.7431
0.0037368	43.8696
0.00375837	43.9964
0.00378007	44.1236
0.00380189	44.2511
0.00382384	44.3791
0.00384592	44.5073
0.00386812	44.636
0.00389045	44.765
0.00391291	44.8944
0.0039355	45.0242
0.00395822	45.1544
0.00398107	45.2849
0.00400405	45.4158
0.00402717	45.5471
0.00405042	45.6787
0.0040738	45.8108
0.00409732	45.9432
0.00412098	46.076
0.00414477	46.2092
0.00416869	46.3427
0.00419276	46.4767
0.00421697	46.611
0.00424131	46.7457
0.0042658	46.8809
0.00429042	47.0164
0.00431519	47.1522
0.0043401	47.2885
0.00436516	47.4252
0.00439036	47.5623
0.0044157	47.6997
0.0044412	47.8376
0.00446684	47.9759
0.00449262	48.1145
0.00451856	48.2536
0.00454465	48.393
0.00457088	48.5329
0.00459727	48.6732
0.00462381	48.8138
0.0046505	48.9549
0.00467735	49.0964
0.00470435	49.2383
0.00473151	49.3806
0.00475883	49.5233
0.0047863	49.6664
0.00481393	49.8099
0.00484172	49.9539
0.00486968	50.0982
0.00489779	50.243
0.00492606	50.3882
0.0049545	50.5338
0.0049831	50.6798
0.00501187	50.8263
0.00504081	50.9732
0.00506991	51.1205
0.00509918	51.2682
0.00512861	51.4163
0.00515822	51.5649
0.005188	51.8434
0.00521795	51.9929
0.00524807	52.1427
0.00527837	52.293
0.00530884	52.4437
0.00533949	52.5949
0.00537032	52.7465
0.00540132	52.8985
0.0054325	53.051
0.00546387	53.2039
0.00549541	53.3573
0.00552713	53.5111
0.00555904	53.6653
0.00559114	53.82
0.00562341	53.9751
0.00565588	54.1307
0.00568853	54.2867
0.00572137	54.4432
0.0057544	54.6001
0.00578762	54.7575
0.00582103	54.9153
0.00585464	55.0736
0.00588844	55.2324
0.00592243	55.3916
0.00595662	55.5512
0.00599101	55.7114
0.0060256	55.8719
0.00606038	56.033
0.00609537	56.1945
0.00613056	56.3565
0.00616595	56.5189
0.00620155	56.6818
0.00623735	56.8452
0.00627336	57.009
0.00630957	57.1734
0.006346	57.3382
0.00638263	57.5034
0.00641948	57.6692
0.00645654	57.8354
0.00649382	58.0021
0.00653131	58.1693
0.00656901	58.3369
0.00660693	58.5051
0.00664508	58.6737
0.00668344	58.8428
0.00672202	59.0125
0.00676083	59.1826
0.00679986	59.3531
0.00683912	59.5242
0.0068786	59.6958
0.00691831	59.8679
0.00695825	60.0404
0.00699842	60.2135
0.00703882	60.387
0.00707946	60.5611
0.00712033	60.7357
0.00716143	60.9107
0.00720278	61.0863
0.00724436	61.2624
0.00728618	61.4389
0.00732825	61.616
0.00737055	61.7936
0.0074131	61.9717
0.0074559	62.1504
0.00749894	62.3295
0.00754223	62.5092
0.00758578	62.6893
0.00762957	62.87
0.00767361	63.0512
0.00771792	63.233
0.00776247	63.4152
0.00780728	63.598
0.00785236	63.7813
0.00789769	63.9652
0.00794328	64.1496
0.00798914	64.3345
0.00803526	64.5199
0.00808165	64.7059
0.00812831	64.8924
0.00817523	65.0794
0.00822243	65.267
0.0082699	65.4551
0.00831764	65.6438
0.00836566	65.833
0.00841395	66.0228
0.00846253	66.2131
0.00851138	66.4039
0.00856052	66.5953
0.00860994	66.7873
0.00865964	66.9798
0.00870964	67.1728
0.00875992	67.3665
0.00881049	67.5606
0.00886135	67.7554
0.00891251	67.9507
0.00896396	68.1465
0.00901571	68.3429
0.00906776	68.5399
0.00912011	68.7375
0.00917276	68.9356
0.00922571	69.1343
0.00927897	69.3336
0.00933254	69.5334
0.00938642	69.7339
0.00944061	69.9349
0.00949511	70.1364
0.00954993	70.3386
0.00960506	70.5413
0.00966051	70.7447
0.00971628	70.9486
0.00977237	71.1531
0.00982879	71.3582
0.00988553	71.5638
0.0099426	71.7701
0.01	71.977
0.0100577	72.1845
0.0101158	72.3925
0.0101742	72.6012
0.0102329	72.8104
0.010292	73.0203
0.0103514	73.2308
0.0104112	73.4419
0.0104713	73.6536
0.0105317	73.8658
0.0105925	74.0788
0.0106537	74.2923
0.0107152	74.5064
0.0107771	74.7212
0.0108393	74.9366
0.0109018	75.1525
0.0109648	75.3692
0.0110281	75.5864
0.0110917	75.8043
0.0111558	76.0228
0.0112202	76.2419
0.011285	76.4617
0.0113501	76.682
0.0114156	76.9031
0.0114815	77.1247
0.0115478	77.347
0.0116145	77.57
0.0116815	77.7936
0.011749	78.0178
0.0118168	78.2427
0.011885	78.4682
0.0119536	78.6944
0.0120226	78.9212
0.0120921	79.1487
0.0121619	79.3768
0.0122321	79.6056
0.0123027	79.8351
0.0123737	80.0652
0.0124451	80.296
0.012517	80.5274
0.0125893	80.7595
0.0126619	80.9923
0.012735	81.2257
0.0128086	81.4599
0.0128825	81.6947
0.0129569	81.9301
0.0130317	82.1663
0.0131069	82.4031
0.0131826	82.6406
0.0132587	82.8788
0.0133352	83.1177
0.0134122	83.3573
0.0134896	83.5976
0.0135675	83.8385
0.0136458	84.0802
0.0137246	84.3225
0.0138038	84.5656
0.0138835	84.8093
0.0139637	85.0538
0.0140443	85.299
0.0141254	85.5448
0.0142069	85.7914
0.0142889	86.0387
0.0143714	86.2867
0.0144544	86.5354
0.0145378	86.7848
0.0146218	87.035
0.0147062	87.2858
0.0147911	87.5374
0.0148765	87.7897
0.0149624	88.0428
0.0150487	88.2965
0.0151356	88.551
0.015223	88.8063
0.0153109	89.0623
0.0153993	89.319
0.0154882	89.5764
0.0155776	89.8346
0.0156675	90.0935
0.015758	90.3532
0.0158489	90.6137
0.0159404	90.8748
0.0160325	91.1368
0.016125	91.3995
0.0162181	91.6629
0.0163117	91.9271
0.0164059	92.1921
0.0165006	92.4578
0.0165959	92.7243
0.0166917	92.9916
0.016788	93.2596
0.016885	93.5284
0.0169824	93.798
0.0170805	94.0684
0.0171791	94.3395
0.0172783	94.6114
0.017378	94.8842
0.0174783	95.1576
0.0175792	95.4319
0.0176807	95.707
0.0177828	95.9829
0.0178855	96.2595
0.0179887	96.537
0.0180926	96.8152
0.018197	97.0943
0.0183021	97.3742
0.0184077	97.6548
0.018514	97.9363
0.0186209	98.2186
0.0187284	98.5017
0.0188365	98.7856
0.0189452	99.0703
0.0190546	99.3559
0.0191646	99.6423
0.0192752	99.9295
0.0193865	100.218
0.0194984	100.506
0.019611	100.796
0.0197242	101.087
0.0198381	101.378
0.0199526	101.67
0.0200678	101.963
0.0201837	102.257
0.0203002	102.552
0.0204174	102.847
0.0205353	103.144
0.0206538	103.441
0.020773	103.739
0.020893	104.038
0.0210136	104.338
0.0211349	104.639
0.0212569	104.941
0.0213796	105.243
0.021503	105.546
0.0216272	105.851
0.021752	106.156
0.0218776	106.462
0.0220039	106.769
0.0221309	107.076
0.0222587	107.385
0.0223872	107.695
0.0225165	108.005
0.0226464	108.316
0.0227772	108.628
0.0229087	108.942
0.0230409	109.256
0.0231739	109.571
0.0233077	109.886
0.0234423	110.203
0.0235776	110.521
0.0237137	110.839
0.0238506	111.159
0.0239883	111.479
0.0241268	111.8
0.0242661	112.123
0.0244062	112.446
0.0245471	112.77
0.0246888	113.095
0.0248313	113.421
0.0249747	113.748
0.0251189	114.076
0.0252639	114.405
0.0254097	114.734
0.0255564	115.065
0.025704	115.397
0.0258523	115.729
0.0260016	116.063
0.0261517	116.398
0.0263027	116.733
0.0264545	117.069
0.0266073	117.407
0.0267609	117.745
0.0269153	118.085
0.0270707	118.425
0.027227	118.766
0.0273842	119.109
0.0275423	119.452
0.0277013	119.796
0.0278612	120.142
0.0280221	120.488
0.0281838	120.835
0.0283465	121.184
0.0285102	121.533
0.0286748	121.883
0.0288403	122.234
0.0290068	122.587
0.0291743	122.94
0.0293427	123.294
0.0295121	123.65
0.0296825	124.006
0.0298538	124.364
0.0300262	124.722
0.0301995	125.082
0.0303739	125.442
0.0305492	125.804
0.0307256	126.166
0.030903	126.53
0.0310814	126.895
0.0312608	127.261
0.0314413	127.627
0.0316228	127.995
0.0318053	128.364
0.031989	128.734
0.0321736	129.105
0.0323594	129.477
0.0325462	129.851
0.0327341	130.225
0.032923	130.6
0.0331131	130.977
0.0333043	131.354
0.0334965	131.733
0.0336899	132.112
0.0338844	132.493
0.03408	132.875
0.0342768	133.258
0.0344747	133.642
0.0346737	134.027
0.0348739	134.414
0.0350752	134.801
0.0352777	135.19
0.0354813	135.579
0.0356862	135.97
0.0358922	136.362
0.0360994	136.755
0.0363078	137.149
0.0365174	137.545
0.0367282	137.941
0.0369403	138.339
0.0371535	138.737
0.037368	139.137
0.0375837	139.538
0.0378007	139.941
0.0380189	140.344
0.0382384	140.748
0.0384592	141.154
0.0386812	141.561
0.0389045	141.969
0.0391291	142.378
0.039355	142.789
0.0395822	143.2
0.0398107	143.613
0.0400405	144.027
0.0402717	144.442
0.0405042	144.858
0.040738	145.276
0.0409732	145.695
0.0412098	146.115
0.0414477	146.536
0.0416869	146.958
0.0419276	147.382
0.0421697	147.807
0.0424131	148.233
0.042658	148.66
0.0429042	149.088
0.0431519	149.518
0.043401	149.949
0.0436516	150.381
0.0439036	150.815
0.044157	151.249
0.044412	151.685
0.0446684	152.123
0.0449262	152.561
0.0451856	153.001
0.0454465	153.442
0.0457088	153.884
0.0459727	154.328
0.0462381	154.772
0.046505	155.219
0.0467735	155.666
0.0470435	156.115
0.0473151	156.565
0.0475883	157.016
0.047863	157.469
0.0481393	157.922
0.0484172	158.378
0.0486968	158.834
0.0489779	159.292
0.0492606	159.751
0.049545	160.212
0.049831	160.673
0.0501187	161.136
0.0504081	161.601
0.0506991	162.067
0.0509918	162.534
0.0512861	163.002
0.0515822	163.472
0.05188	163.943
0.0521795	164.416
0.0524807	164.89
0.0527837	165.365
0.0530884	165.842
0.0533949	166.32
0.0537032	166.799
0.0540132	167.28
0.054325	167.762
0.0546387	168.246
0.0549541	168.731
0.0552713	169.217
0.0555904	169.705
0.0559114	170.194
0.0562341	170.684
0.0565588	171.176
0.0568853	171.67
0.0572137	172.165
0.057544	172.661
0.0578762	173.158
0.0582103	173.658
0.0585464	174.158
0.0588844	174.66
0.0592243	175.164
0.0595662	175.668
0.0599101	176.175
0.060256	176.683
0.0606038	177.192
0.0609537	177.703
0.0613056	178.215
0.0616595	178.728
0.0620155	179.244
0.0623735	179.76
0.0627336	180.278
0.0630957	180.798
0.06346	181.319
0.0638263	181.842
0.0641948	182.366
0.0645654	182.892
0.0649382	183.419
0.0653131	183.947
0.0656901	184.478
0.0660693	185.009
0.0664508	185.543
0.0668344	186.077
0.0672202	186.614
0.0676083	187.152
0.0679986	187.691
0.0683912	188.232
0.068786	188.775
0.0691831	189.319
0.0695825	189.864
0.0699842	190.412
0.0703882	190.961
0.0707946	191.511
0.0712033	192.063
0.0716143	192.617
0.0720278	193.172
0.0724436	193.729
0.0728618	194.287
0.0732825	194.847
0.0737055	195.409
0.074131	195.972
0.074559	196.537
0.0749894	197.103
0.0754223	197.671
0.0758578	198.241
0.0762957	198.813
0.0767361	199.386
0.0771792	199.96
0.0776247	200.537
0.0780728	201.115
0.0785236	201.694
0.0789769	202.276
0.0794328	202.859
0.0798914	203.443
0.0803526	204.03
0.0808165	204.618
0.0812831	205.208
0.0817523	205.799
0.0822243	206.392
0.082699	206.987
0.0831764	207.584
0.0836566	208.182
0.0841395	208.782
0.0846253	209.384
0.0851138	209.988
0.0856052	210.593
0.0860994	211.2
0.0865964	211.809
0.0870964	212.419
0.0875992	213.031
0.0881049	213.645
0.0886135	214.261
0.0891251	214.879
0.0896396	215.498
0.0901571	216.119
0.0906776	216.742
0.0912011	217.367
0.0917276	217.994
0.0922571	218.622
0.0927897	219.252
0.0933254	219.884
0.0938642	220.518
0.0944061	221.153
0.0949511	221.791
0.0954993	222.43
0.0960506	223.071
0.0966051	223.714
0.0971628	224.359
0.0977237	225.006
0.0982879	225.654
0.0988553	226.305
0.099426	226.957
0.1	227.611
0.100577	228.267
0.101158	228.925
0.101742	229.585
0.102329	230.247
0.10292	230.911
0.103514	231.576
0.104112	232.244
0.104713	232.913
0.105317	233.584
0.105925	234.258
0.106537	234.933
0.107152	235.61
0.107771	236.289
0.108393	236.97
0.109018	237.653
0.109648	238.338
0.110281	239.025
0.110917	239.714
0.111558	240.405
0.112202	241.098
0.11285	241.793
0.113501	242.49
0.114156	243.189
0.114815	243.89
0.115478	244.593
0.116145	245.298
0.116815	246.005
0.11749	246.714
0.118168	247.425
0.11885	248.138
0.119536	248.853
0.120226	249.571
0.120921	250.29
0.121619	251.012
0.122321	251.735
0.123027	252.461
0.123737	253.188
0.124451	253.918
0.12517	254.65
0.125893	255.384
0.126619	256.12
0.12735	256.858
0.128086	257.599
0.128825	258.341
0.129569	259.086
0.130317	259.833
0.131069	260.582
0.131826	261.333
0.132587	262.086
0.133352	262.841
0.134122	263.599
0.134896	264.359
0.135675	265.121
0.136458	265.885
0.137246	266.651
0.138038	267.42
0.138835	268.191
0.139637	268.964
0.140443	269.739
0.141254	270.516
0.142069	271.296
0.142889	272.078
0.143714	272.862
0.144544	273.649
0.145378	274.438
0.146218	275.229
0.147062	276.022
0.147911	276.818
0.148765	277.615
0.149624	278.416
0.150487	279.218
0.151356	280.023
0.15223	280.83
0.153109	281.64
0.153993	282.451
0.154882	283.266
0.155776	284.082
0.156675	284.901
0.15758	285.722
0.158489	286.546
0.159404	287.372
0.160325	288.2
0.16125	289.031
0.162181	289.864
0.163117	290.699
0.164059	291.537
0.165006	292.377
0.165959	293.22
0.166917	294.065
0.16788	294.913
0.16885	295.763
0.169824	296.615
0.170805	297.47
0.171791	298.328
0.172783	299.188
0.17378	300.05
0.174783	300.915
0.175792	301.782
0.176807	302.652
0.177828	303.524
0.178855	304.399
0.179887	305.277
0.180926	306.157
0.18197	307.039
0.183021	307.924
0.184077	308.812
0.18514	309.702
0.186209	310.594
0.187284	311.49
0.188365	312.388
0.189452	313.288
0.190546	314.191
0.191646	315.097
0.192752	316.005
0.193865	316.916
0.194984	317.829
0.19611	318.745
0.197242	319.664
0.198381	320.585
0.199526	321.509
0.200678	322.436
0.201837	323.366
0.203002	324.298
0.204174	325.232
0.205353	326.17
0.206538	327.11
0.20773	328.053
0.20893	328.998
0.210136	329.947
0.211349	330.898
0.212569	331.851
0.213796	332.808
0.21503	333.767
0.216272	334.729
0.21752	335.694
0.218776	336.662
0.220039	337.632
0.221309	338.605
0.222587	339.581
0.223872	340.56
0.225165	341.542
0.226464	342.526
0.227772	343.513
0.229087	344.504
0.230409	345.497
0.231739	346.492
0.233077	347.491
0.234423	348.493
0.235776	349.497
0.237137	350.505
0.238506	351.515
0.239883	352.528
0.241268	353.544
0.242661	354.563
0.244062	355.585
0.245471	356.61
0.246888	357.638
0.248313	358.669
0.249747	359.703
0.251189	360.739
0.252639	361.779
0.254097	362.822
0.255564	363.868
0.25704	364.917
0.258523	365.968
0.260016	367.023
0.261517	368.081
0.263027	369.142
0.264545	370.206
0.266073	371.273
0.267609	372.343
0.269153	373.417
0.270707	374.493
0.27227	375.572
0.273842	376.655
0.275423	377.741
0.277013	378.829
0.278612	379.921
0.280221	381.016
0.281838	382.115
0.283465	383.216
0.285102	384.321
0.286748	385.428
0.288403	386.539
0.290068	387.653
0.291743	388.771
0.293427	389.891
0.295121	391.015
0.296825	392.142
0.298538	393.273
0.300262	394.406
0.301995	395.543
0.303739	396.683
0.305492	397.826
0.307256	398.973
0.30903	400.123
0.310814	401.276
0.312608	402.433
0.314413	403.593
0.316228	404.756
0.318053	405.923
0.31989	407.093
0.321736	408.266
0.323594	409.443
0.325462	410.623
0.327341	411.807
0.32923	412.994
0.331131	414.184
0.333043	415.378
0.334965	416.575
0.336899	417.776
0.338844	418.98
0.3408	420.188
0.342768	421.399
0.344747	422.614
0.346737	423.832
0.348739	425.054
0.350752	426.279
0.352777	427.507
0.354813	428.74
0.356862	429.975
0.358922	431.215
0.360994	432.458
0.363078	433.704
0.365174	434.954
0.367282	436.208
0.369403	437.465
0.371535	438.726
0.37368	439.991
0.375837	441.259
0.378007	442.531
0.380189	443.807
0.382384	445.086
0.384592	446.369
0.386812	447.655
0.389045	448.946
0.391291	450.24
0.39355	451.537
0.395822	452.839
0.398107	454.144
0.400405	455.453
0.402717	456.766
0.405042	458.082
0.40738	459.403
0.409732	460.727
0.412098	462.055
0.414477	463.387
0.416869	464.722
0.419276	466.062
0.421697	467.405
0.424131	468.753
0.42658	470.104
0.429042	471.459
0.431519	472.818
0.43401	474.181
0.436516	475.547
0.439036	476.918
0.44157	478.293
0.44412	479.671
0.446684	481.054
0.449262	482.44
0.451856	483.831
0.454465	485.226
0.457088	486.624
0.459727	488.027
0.462381	489.434
0.46505	490.844
0.467735	492.259
0.470435	493.678
0.473151	495.101
0.475883	496.528
0.47863	497.959
0.481393	499.394
0.484172	500.834
0.486968	502.277
0.489779	503.725
0.492606	505.177
0.49545	506.633
0.49831	508.094
0.501187	509.558
0.504081	511.027
0.506991	512.5
0.509918	513.977
0.512861	515.458
0.515822	516.944
0.5188	518.434
0.521795	519.929
0.524807	521.427
0.527837	522.93
0.530884	524.437
0.533949	525.949
0.537032	527.465
0.540132	528.985
0.54325	530.51
0.546387	532.039
0.549541	533.573
0.552713	535.111
0.555904	536.653
0.559114	538.2
0.562341	539.751
0.565588	541.307
0.568853	542.867
0.572137	544.432
0.57544	546.033
0.578762	547.85
0.582103	549.677
0.585464	551.514
0.588844	553.361
0.592243	555.218
0.595662	557.086
0.599101	558.963
0.60256	560.852
0.606038	562.75
0.609537	564.659
0.613056	566.578
0.616595	568.507
0.620155	570.447
0.623735	572.398
0.627336	574.359
0.630957	576.33
0.6346	578.312
0.638263	580.305
0.641948	582.308
0.645654	584.322
0.649382	586.347
0.653131	588.382
0.656901	590.428
0.660693	592.485
0.664508	594.552
0.668344	596.63
0.672202	598.719
0.676083	600.819
0.679986	602.93
0.683912	605.051
0.68786	607.184
0.691831	609.292
0.695825	611.37
0.699842	613.458
0.703882	615.557
0.707946	617.667
0.712033	619.787
0.716143	621.917
0.720278	624.058
0.724436	626.21
0.728618	628.372
0.732825	630.544
0.737055	632.727
0.74131	634.921
0.74559	637.125
0.749894	639.34
0.754223	641.565
0.758578	643.8
0.762957	646.047
0.767361	648.303
0.771792	650.57
0.776247	652.848
0.780728	655.136
0.785236	657.434
0.789769	659.743
0.794328	662.063
0.798914	664.392
0.803526	666.732
0.808165	669.083
0.812831	671.444
0.817523	673.815
0.822243	676.196
0.82699	678.587
0.831764	680.989
0.836566	683.4
0.841395	685.822
0.846253	688.254
0.851138	690.696
0.856052	693.148
0.860994	695.61
0.865964	698.081
0.870964	700.563
0.875992	703.054
0.881049	705.555
0.886135	708.065
0.891251	710.585
0.896396	713.115
0.901571	715.654
0.906776	718.202
0.912011	720.759
0.917276	723.326
0.922571	725.892
0.927897	728.456
0.933254	731.03
0.938642	733.612
0.944061	736.203
0.949511	738.803
0.954993	741.413
0.960506	744.031
0.966051	746.658
0.971628	749.294
0.977237	751.939
0.982879	754.594
0.988553	757.257
0.99426	759.929
1	762.61
1.00577	765.301
1.01158	768
1.01742	770.709
1.02329	773.426
1.0292	776.153
1.03514	778.889
1.04112	781.634
1.04713	784.388
1.05317	787.151
1.05925	789.923
1.06537	792.705
1.07152	795.495
1.07771	798.295
1.08393	801.104
1.09018	803.922
1.09648	806.75
1.10281	809.587
1.10917	812.432
1.11558	815.287
1.12202	818.152
1.1285	821.025
1.13501	823.908
1.14156	826.801
1.14815	829.702
1.15478	832.612
1.16145	835.531
1.16815	838.46
1.1749	841.397
1.18168	844.344
1.1885	847.3
1.19536	850.265
1.20226	853.238
1.20921	856.221
1.21619	859.213
1.22321	862.214
1.23027	865.223
1.23737	868.241
1.24451	871.268
1.2517	874.304
1.25893	877.348
1.26619	880.4
1.2735	883.461
1.28086	886.531
1.28825	889.608
1.29569	892.694
1.30317	895.788
1.31069	898.89
1.31826	902
1.32587	905.118
1.33352	908.244
1.34122	911.377
1.34896	914.518
1.35675	917.667
1.36458	920.823
1.37246	923.986
1.38038	927.157
1.38835	930.335
1.39637	933.52
1.40443	936.712
1.41254	939.911
1.42069	943.117
1.42889	946.33
1.43714	949.551
1.44544	952.778
1.45378	956.012
1.46218	959.254
1.47062	962.502
1.47911	965.757
1.48765	969.019
1.49624	972.288
1.50487	975.564
1.51356	978.847
1.5223	982.137
1.53109	985.434
1.53993	988.737
1.54882	992.048
1.55776	995.365
1.56675	998.689
1.5758	1002.02
1.58489	1005.36
1.59404	1008.7
1.60325	1012.05
1.6125	1015.41
1.62181	1018.78
1.63117	1022.15
1.64059	1025.53
1.65006	1028.91
1.65959	1032.3
1.66917	1035.7
1.6788	1039.11
1.6885	1042.52
1.69824	1045.93
1.70805	1049.35
1.71791	1052.78
1.72783	1056.22
1.7378	1059.66
1.74783	1063.1
1.75792	1066.55
1.76807	1070.01
1.77828	1073.47
1.78855	1076.94
1.79887	1080.41
1.80926	1083.89
1.8197	1087.37
1.83021	1090.86
1.84077	1094.35
1.8514	1097.85
1.86209	1101.35
1.87284	1104.86
1.88365	1108.37
1.89452	1111.88
1.90546	1115.4
1.91646	1118.92
1.92752	1122.45
1.93865	1125.98
1.94984	1129.51
1.9611	1133.05
1.97242	1136.6
1.98381	1140.14
1.99526	1143.69
2.00678	1147.24
2.01837	1150.8
2.03002	1154.36
2.04174	1157.92
2.05353	1161.49
2.06538	1165.06
2.0773	1168.63
2.0893	1172.21
2.10136	1175.78
2.11349	1179.36
2.12569	1182.95
2.13796	1186.53
2.1503	1190.12
2.16272	1193.71
2.1752	1197.3
2.18776	1200.89
2.20039	1204.48
2.21309	1208.08
2.22587	1211.67
2.23872	1215.27
2.25165	1218.87
2.26464	1222.46
2.27772	1226.06
2.29087	1229.66
2.30409	1233.26
2.31739	1236.86
2.33077	1240.46
2.34423	1244.06
2.35776	1247.66
2.37137	1251.26
2.38506	1254.85
2.39883	1258.45
2.41268	1262.04
2.42661	1265.63
2.44062	1269.23
2.45471	1272.81
2.46888	1276.4
2.48313	1279.99
2.49747	1283.57
2.51189	1287.15
2.52639	1290.72
2.54097	1294.3
2.55564	1297.87
2.5704	1301.44
2.58523	1305
2.60016	1308.56
2.61517	1312.12
2.63027	1315.67
2.64545	1319.22
2.66073	1322.77
2.67609	1326.31
2.69153	1329.84
2.70707	1333.38
2.7227	1336.9
2.73842	1340.42
2.75423	1343.94
2.77013	1347.45
2.78612	1350.96
2.80221	1354.46
2.81838	1357.95
2.83465	1361.44
2.85102	1364.92
2.86748	1368.4
2.88403	1371.87
2.90068	1375.33
2.91743	1378.79
2.93427	1382.23
2.95121	1385.68
2.96825	1389.11
2.98538	1392.54
3.00262	1395.96
3.01995	1399.37
3.03739	1402.77
3.05492	1406.17
3.07256	1409.55
3.0903	1412.93
3.10814	1416.3
3.12608	1419.66
3.14413	1423.02
3.16228	1426.36
3.18053	1429.7
3.1989	1433.02
3.21736	1436.34
3.23594	1439.65
3.25462	1442.94
3.27341	1446.23
3.2923	1449.51
3.31131	1452.78
3.33043	1456.03
3.34965	1459.28
3.36899	1462.52
3.38844	1465.75
3.408	1468.96
3.42768	1472.17
3.44747	1475.36
3.46737	1478.5
3.48739	1481.62
3.50752	1484.73
3.52777	1487.82
3.54813	1490.91
3.56862	1493.98
3.58922	1497.03
3.60994	1500.08
3.63078	1503.11
3.65174	1506.13
3.67282	1509.14
3.69403	1512.13
3.71535	1515.11
3.7368	1518.08
3.75837	1521.03
3.78007	1523.96
3.80189	1526.88
3.82384	1529.79
3.84592	1532.68
3.86812	1535.56
3.89045	1538.42
3.91291	1541.26
3.9355	1544.09
3.95822	1546.9
3.98107	1549.69
4.00405	1552.47
4.02717	1555.23
4.05042	1557.98
4.0738	1560.7
4.09732	1563.41
4.12098	1566.1
4.14477	1568.77
4.16869	1571.43
4.19276	1574.06
4.21697	1576.68
4.24131	1579.28
4.2658	1581.85
4.29042	1584.41
4.31519	1586.95
4.3401	1589.47
4.36516	1591.97
4.39036	1594.45
4.4157	1596.91
4.4412	1599.35
4.46684	1601.77
4.49262	1604.17
4.51856	1606.55
4.54465	1608.9
4.57088	1611.24
4.59727	1613.55
4.62381	1615.86
4.6505	1618.15
4.67735	1620.41
4.70435	1622.66
4.73151	1624.88
4.75883	1627.08
4.7863	1629.26
4.81393	1631.42
4.84172	1633.55
4.86968	1635.67
4.89779	1637.75
4.92606	1639.82
4.9545	1641.87
4.9831	1643.89
5.01187	1645.89
5.04081	1647.86
5.06991	1649.82
5.09918	1651.75
5.12861	1653.65
5.15822	1655.54
5.188	1657.4
5.21795	1659.24
5.24807	1661.05
5.27837	1662.84
5.30884	1664.61
5.33949	1666.36
5.37032	1668.09
5.40132	1669.79
5.4325	1671.47
5.46387	1673.13
5.49541	1674.76
5.52713	1676.37
5.55904	1677.96
5.59114	1679.53
5.62341	1681.08
5.65588	1682.61
5.68853	1684.11
5.72137	1685.6
5.7544	1687.06
5.78762	1688.5
5.82103	1689.93
5.85464	1691.33
5.88844	1692.71
5.92243	1694.07
5.95662	1695.42
5.99101	1696.74
6.0256	1698.03
6.06038	1699.31
6.09537	1700.57
6.13056	1701.81
6.16595	1703.02
6.20155	1704.21
6.23735	1705.39
6.27336	1706.54
6.30957	1707.67
6.346	1708.78
6.38263	1709.87
6.41948	1710.94
6.45654	1711.98
6.49382	1713.01
6.53131	1714.02
6.56901	1715
6.60693	1715.96
6.64508	1716.91
6.68344	1717.83
6.72202	1718.74
6.76083	1719.62
6.79986	1720.48
6.83912	1721.33
6.8786	1722.15
6.91831	1722.96
6.95825	1723.75
6.99842	1724.52
7.03882	1725.28
7.07946	1726.01
7.12033	1726.72
7.16143	1727.42
7.20278	1728.09
7.24436	1728.75
7.28618	1729.38
7.32825	1730
7.37055	1730.59
7.4131	1731.17
7.4559	1731.72
7.49894	1732.26
7.54223	1732.78
7.58578	1733.27
7.62957	1733.75
7.67361	1734.2
7.71792	1734.64
7.76247	1735.05
7.80728	1735.45
7.85236	1735.82
7.89769	1736.18
7.94328	1736.52
7.98914	1736.83
8.03526	1737.13
8.08165	1737.4
8.12831	1737.66
8.17523	1737.9
8.22243	1738.12
8.2699	1738.31
8.31764	1738.49
8.36566	1738.65
8.41395	1738.8
8.46253	1738.92
8.51138	1739.02
8.56052	1739.11
8.60994	1739.18
8.65964	1739.23
8.70964	1739.26
8.75992	1739.28
8.81049	1739.27
8.86135	1739.26
8.91251	1739.22
8.96396	1739.17
9.01571	1739.1
9.06776	1739.02
9.12011	1738.92
9.17276	1738.81
9.22571	1738.68
9.27897	1738.52
9.33254	1738.35
9.38642	1738.17
9.44061	1737.97
9.49511	1737.75
9.54993	1737.52
9.60506	1737.28
9.66051	1737.02
9.71628	1736.75
9.77237	1736.46
9.82879	1736.16
9.88553	1735.85
9.9426	1735.52
10	1735.17
10.0577	1734.81
10.1158	1734.43
10.1742	1734.04
10.2329	1733.64
10.292	1733.22
10.3514	1732.78
10.4112	1732.33
10.4713	1731.87
10.5317	1731.38
10.5925	1730.89
10.6537	1730.38
10.7152	1729.85
10.7771	1729.32
10.8393	1728.76
10.9018	1728.19
10.9648	1727.61
11.0281	1727.01
11.0917	1726.4
11.1558	1725.77
11.2202	1725.13
11.285	1724.47
11.3501	1723.8
11.4156	1723.12
11.4815	1722.42
11.5478	1721.71
11.6145	1720.99
11.6815	1720.25
11.749	1719.5
11.8168	1718.73
11.885	1717.95
11.9536	1717.16
12.0226	1716.36
12.0921	1715.54
12.1619	1714.7
12.2321	1713.85
12.3027	1712.99
12.3737	1712.12
12.4451	1711.23
12.517	1710.32
12.5893	1709.41
12.6619	1708.48
12.735	1707.53
12.8086	1706.58
12.8825	1705.61
12.9569	1704.62
13.0317	1703.62
13.1069	1702.61
13.1826	1701.59
13.2587	1700.55
13.3352	1699.5
13.4122	1698.44
13.4896	1697.36
13.5675	1696.28
13.6458	1695.17
13.7246	1694.06
13.8038	1692.94
13.8835	1691.8
13.9637	1690.65
14.0443	1689.49
14.1254	1688.31
14.2069	1687.13
14.2889	1685.93
14.3714	1684.72
14.4544	1683.5
14.5378	1682.27
14.6218	1681.02
14.7062	1679.76
14.7911	1678.49
14.8765	1677.21
14.9624	1675.92
15.0487	1674.61
15.1356	1673.29
15.223	1671.96
15.3109	1670.62
15.3993	1669.27
15.4882	1667.91
15.5776	1666.53
15.6675	1665.14
15.758	1663.74
15.8489	1662.33
15.9404	1660.91
16.0325	1659.48
16.125	1658.03
16.2181	1656.58
16.3117	1655.11
16.4059	1653.63
16.5006	1652.15
16.5959	1650.65
16.6917	1649.14
16.788	1647.61
16.885	1646.08
16.9824	1644.54
17.0805	1642.99
17.1791	1641.42
17.2783	1639.85
17.378	1638.26
17.4783	1636.66
17.5792	1635.06
17.6807	1633.44
17.7828	1631.81
17.8855	1630.18
17.9887	1628.53
18.0926	1626.87
18.197	1625.2
18.3021	1623.53
18.4077	1621.84
18.514	1620.14
18.6209	1618.44
18.7284	1616.72
18.8365	1614.99
18.9452	1613.26
19.0546	1611.51
19.1646	1609.76
19.2752	1607.99
19.3865	1606.22
19.4984	1604.44
19.611	1602.64
19.7242	1600.84
19.8381	1599.03
19.9526	1597.2
20.0678	1595.37
20.1837	1593.53
20.3002	1591.68
20.4174	1589.82
20.5353	1587.95
20.6538	1586.07
20.773	1584.18
20.893	1582.28
21.0136	1580.37
21.1349	1578.45
21.2569	1576.52
21.3796	1574.59
21.503	1572.64
21.6272	1570.69
21.752	1568.72
21.8776	1566.75
22.0039	1564.77
22.1309	1562.78
22.2587	1560.78
22.3872	1558.77
22.5165	1556.76
22.6464	1554.73
22.7772	1552.7
22.9087	1550.66
23.0409	1548.61
23.1739	1546.56
23.3077	1544.49
23.4423	1542.42
23.5776	1540.34
23.7137	1538.26
23.8506	1536.16
23.9883	1534.06
24.1268	1531.95
24.2661	1529.83
24.4062	1527.71
24.5471	1525.57
24.6888	1523.43
24.8313	1521.28
24.9747	1519.13
25.1189	1516.96
25.2639	1514.79
25.4097	1512.61
25.5564	1510.43
25.704	1508.23
25.8523	1506.03
26.0016	1503.82
26.1517	1501.61
26.3027	1499.38
26.4545	1497.15
26.6073	1494.91
26.7609	1492.66
26.9153	1490.41
27.0707	1488.15
27.227	1485.88
27.3842	1483.6
27.5423	1481.32
27.7013	1479.03
27.8612	1476.73
28.0221	1474.42
28.1838	1472.11
28.3465	1469.79
28.5102	1467.46
28.6748	1465.12
28.8403	1462.78
29.0068	1460.43
29.1743	1458.08
29.3427	1455.71
29.5121	1453.34
29.6825	1450.97
29.8538	1448.58
30.0262	1446.19
30.1995	1443.79
30.3739	1441.39
30.5492	1438.98
30.7256	1436.56
30.903	1434.14
31.0814	1431.7
31.2608	1429.27
31.4413	1426.82
31.6228	1424.37
31.8053	1421.91
31.989	1419.45
32.1736	1416.98
32.3594	1414.51
32.5462	1412.02
32.7341	1409.53
32.923	1407.04
33.1131	1404.54
33.3043	1402.03
33.4965	1399.52
33.6899	1397
33.8844	1394.48
34.08	1391.95
34.2768	1389.41
34.4747	1386.87
34.6737	1384.34
34.8739	1381.8
35.0752	1379.25
35.2777	1376.7
35.4813	1374.15
35.6862	1371.59
35.8922	1369.02
36.0994	1366.45
36.3078	1363.87
36.5174	1361.29
36.7282	1358.71
36.9403	1356.12
37.1535	1353.52
37.368	1350.92
37.5837	1348.32
37.8007	1345.71
38.0189	1343.09
38.2384	1340.47
38.4592	1337.85
38.6812	1335.22
38.9045	1332.59
39.1291	1329.95
39.355	1327.31
39.5822	1324.67
39.8107	1322.02
40.0405	1319.36
40.2717	1316.7
40.5042	1314.04
40.738	1311.38
40.9732	1308.7
41.2098	1306.03
41.4477	1303.35
41.6869	1300.67
41.9276	1297.98
42.1697	1295.29
42.4131	1292.6
42.658	1289.9
42.9042	1287.2
43.1519	1284.5
43.401	1281.79
43.6516	1279.08
43.9036	1276.37
44.157	1273.65
44.412	1270.93
44.6684	1268.2
44.9262	1265.47
45.1856	1262.74
45.4465	1260.01
45.7088	1257.27
45.9727	1254.53
46.2381	1251.79
46.505	1249.03
46.7735	1246.28
47.0435	1243.52
47.3151	1240.76
47.5883	1238
47.863	1235.24
48.1393	1232.47
48.4172	1229.7
48.6968	1226.93
48.9779	1224.15
49.2606	1221.37
49.545	1218.59
49.831	1215.81
50.1187	1213.03
50.4081	1210.24
50.6991	1207.45
50.9918	1204.66
51.2861	1201.87
51.5822	1199.07
51.88	1196.27
52.1795	1193.47
52.4807	1190.67
52.7837	1187.87
53.0884	1185.07
53.3949	1182.26
53.7032	1179.45
54.0132	1176.64
54.325	1173.83
54.6387	1171.01
54.9541	1168.2
55.2713	1165.38
55.5904	1162.56
55.9114	1159.74
56.2341	1156.92
56.5588	1154.09
56.8853	1151.27
57.2137	1148.44
57.544	1145.61
57.8762	1142.78
58.2103	1139.95
58.5464	1137.11
58.8844	1134.28
59.2243	1131.44
59.5662	1128.6
59.9101	1125.76
60.256	1122.92
60.6038	1120.08
60.9537	1117.24
61.3056	1114.39
61.6595	1111.55
62.0155	1108.71
62.3735	1105.86
62.7336	1103.01
63.0957	1100.16
63.46	1097.32
63.8263	1094.47
64.1948	1091.62
64.5654	1088.77
64.9382	1085.92
65.3131	1083.07
65.6901	1080.22
66.0693	1077.36
66.4508	1074.51
66.8344	1071.66
67.2202	1068.81
67.6083	1065.96
67.9986	1063.11
68.3912	1060.25
68.786	1057.4
69.1831	1054.55
69.5825	1051.69
69.9842	1048.84
70.3882	1045.98
70.7946	1043.13
71.2033	1040.27
71.6143	1037.42
72.0278	1034.56
72.4436	1031.71
72.8618	1028.86
73.2825	1026
73.7055	1023.15
74.131	1020.3
74.559	1017.45
74.9894	1014.6
75.4223	1011.76
75.8578	1008.91
76.2957	1006.06
76.7361	1003.22
77.1792	1000.37
77.6247	997.529
78.0728	994.687
78.5236	991.847
78.9769	989.007
79.4328	986.169
79.8914	983.333
80.3526	980.497
80.8165	977.664
81.2831	974.831
81.7523	972
82.2243	969.171
82.699	966.343
83.1764	963.516
83.6566	960.691
84.1395	957.868
84.6253	955.046
85.1138	952.225
85.6052	949.406
86.0994	946.589
86.5964	943.773
87.0964	940.959
87.5992	938.146
88.1049	935.334
88.6135	932.524
89.1251	929.715
89.6396	926.908
90.1571	924.102
90.6776	921.297
91.2011	918.493
91.7276	915.69
92.2571	912.895
92.7897	910.106
93.3254	907.319
93.8642	904.533
94.4061	901.748
94.9511	898.965
95.4993	896.183
96.0506	893.403
96.6051	890.625
97.1628	887.849
97.7237	885.074
98.2879	882.302
98.8553	879.531
99.426	876.763
100	873.997
100.577	871.234
101.158	868.473
101.742	865.714
102.329	862.958
102.92	860.205
103.514	857.454
104.112	854.706
104.713	851.961
105.317	849.219
105.925	846.479
106.537	843.743
107.152	841.01
107.771	838.281
108.393	835.554
109.018	832.831
109.648	830.111
110.281	827.394
110.917	824.681
111.558	821.972
112.202	819.266
112.85	816.563
113.501	813.865
114.156	811.169
114.815	808.478
115.478	805.787
116.145	803.1
116.815	800.416
117.49	797.736
118.168	795.059
118.85	792.387
119.536	789.719
120.226	787.055
120.921	784.395
121.619	781.739
122.321	779.087
123.027	776.44
123.737	773.797
124.451	771.158
125.17	768.523
125.893	765.893
126.619	763.267
127.35	760.646
128.086	758.029
128.825	755.416
129.569	752.808
130.317	750.204
131.069	747.605
131.826	745.01
132.587	742.419
133.352	739.833
134.122	737.251
134.896	734.673
135.675	732.1
136.458	729.531
137.246	726.966
138.038	724.405
138.835	721.848
139.637	719.295
140.443	716.746
141.254	714.201
142.069	711.661
142.889	709.125
143.714	706.593
144.544	704.066
145.378	701.543
146.218	699.025
147.062	696.512
147.911	694.003
148.765	691.499
149.624	688.999
150.487	686.504
151.356	684.014
152.23	681.529
153.109	679.049
153.993	676.573
154.882	674.102
155.776	671.636
156.675	669.175
157.58	666.718
158.489	664.267
159.404	661.82
160.325	659.378
161.25	656.941
162.181	654.508
163.117	652.081
164.059	649.658
165.006	647.24
165.959	644.827
166.917	642.42
167.88	640.017
168.85	637.62
169.824	635.229
170.805	632.842
171.791	630.461
172.783	628.086
173.78	625.716
174.783	623.352
175.792	620.993
176.807	618.64
177.828	616.293
178.855	613.951
179.887	611.616
180.926	609.286
181.97	606.962
183.021	604.644
184.077	602.332
185.14	600.025
186.209	597.725
187.284	595.431
188.365	593.142
189.452	590.86
190.546	588.583
191.646	586.312
192.752	584.048
193.865	581.789
194.984	579.536
196.11	577.288
197.242	575.047
198.381	572.811
199.526	570.581
200.678	568.357
201.837	566.138
203.002	563.925
204.174	561.717
205.353	559.515
206.538	557.317
207.73	555.125
208.93	552.938
210.136	550.756
211.349	548.58
212.569	546.408
213.796	544.242
215.03	542.081
216.272	539.926
217.52	537.775
218.776	535.63
220.039	533.491
221.309	531.356
222.587	529.227
223.872	527.104
225.165	524.985
226.464	522.872
227.772	520.764
229.087	518.662
230.409	516.563
231.739	514.467
233.077	512.377
234.423	510.292
235.776	508.212
237.137	506.138
238.506	504.069
239.883	502.007
241.268	499.95
242.661	497.898
244.062	495.853
245.471	493.814
246.888	491.781
248.313	489.754
249.747	487.734
251.189	485.72
252.639	483.712
254.097	481.711
255.564	479.716
257.04	477.728
258.523	475.746
260.016	473.772
261.517	471.804
263.027	469.843
264.545	467.888
266.073	465.941
267.609	464.001
269.153	462.067
270.707	460.141
272.27	458.222
273.842	456.31
275.423	454.405
277.013	452.507
278.612	450.616
280.221	448.733
281.838	446.857
283.465	444.987
285.102	443.125
286.748	441.271
288.403	439.423
290.068	437.583
291.743	435.749
293.427	433.923
295.121	432.104
296.825	430.292
298.538	428.487
300.262	426.689
301.995	424.897
303.739	423.113
305.492	421.335
307.256	419.564
309.03	417.799
310.814	416.041
312.608	414.289
314.413	412.544
316.228	410.804
318.053	409.071
319.89	407.344
321.736	405.622
323.594	403.906
325.462	402.195
327.341	400.49
329.23	398.789
331.131	397.094
333.043	395.403
334.965	393.716
336.899	392.034
338.844	390.356
340.8	388.681
342.768	387.01
344.747	385.342
346.737	383.713
348.739	382.091
350.752	380.473
352.777	378.858
354.813	377.247
356.862	375.639
358.922	374.034
360.994	372.434
363.078	370.837
365.174	369.244
367.282	367.654
369.403	366.069
371.535	364.488
373.68	362.911
375.837	361.339
378.007	359.77
380.189	358.206
382.384	356.647
384.592	355.091
386.812	353.541
389.045	351.995
391.291	350.454
393.55	348.918
395.822	347.387
398.107	345.86
400.405	344.339
402.717	342.823
405.042	341.312
407.38	339.806
409.732	338.305
412.098	336.81
414.477	335.32
416.869	333.835
419.276	332.356
421.697	330.883
424.131	329.415
426.58	327.953
429.042	326.497
431.519	325.046
434.01	323.601
436.516	322.162
439.036	320.729
441.57	319.302
444.12	317.881
446.684	316.465
449.262	315.056
451.856	313.653
454.465	312.255
457.088	310.864
459.727	309.479
462.381	308.093
465.05	306.713
467.735	305.339
470.435	303.97
473.151	302.608
475.883	301.252
478.63	299.903
481.393	298.559
484.172	297.222
486.968	295.891
489.779	294.567
492.606	293.248
495.45	291.936
498.31	290.63
501.187	289.33
504.081	288.036
506.991	286.749
509.918	285.468
512.861	284.193
515.822	282.924
518.8	281.661
521.795	280.404
524.807	279.153
527.837	277.908
530.884	276.669
533.949	275.436
537.032	274.208
540.132	272.986
543.25	271.77
546.387	270.559
549.541	269.353
552.713	268.153
555.904	266.958
559.114	265.768
562.341	264.583
565.588	263.403
568.853	262.227
572.137	261.056
575.44	259.89
578.762	258.727
582.103	257.568
585.464	256.414
588.844	255.264
592.243	254.118
595.662	252.977
599.101	251.84
602.56	250.708
606.038	249.58
609.537	248.457
613.056	247.338
616.595	246.224
620.155	245.114
623.735	244.009
627.336	242.908
630.957	241.812
634.6	240.721
638.263	239.634
641.948	238.552
645.654	237.475
649.382	236.402
653.131	235.333
656.901	234.269
660.693	233.21
664.508	232.155
668.344	231.105
672.202	230.059
676.083	229.018
679.986	227.981
683.912	226.949
687.86	225.921
691.831	224.896
695.825	223.874
699.842	222.857
703.882	221.844
707.946	220.835
712.033	219.831
716.143	218.831
720.278	217.836
724.436	216.845
728.618	215.859
732.825	214.877
737.055	213.9
741.31	212.927
745.59	211.959
749.894	210.996
754.223	210.037
758.578	209.083
762.957	208.134
767.361	207.189
771.792	206.249
776.247	205.314
780.728	204.383
785.236	203.457
789.769	202.536
794.328	201.619
798.914	200.707
803.526	199.799
808.165	198.896
812.831	197.998
817.523	197.104
822.243	196.214
826.99	195.329
831.764	194.449
836.566	193.572
841.395	192.701
846.253	191.833
851.138	190.97
856.052	190.11
860.994	189.255
865.964	188.404
870.964	187.557
875.992	186.714
881.049	185.874
886.135	185.038
891.251	184.206
896.396	183.377
901.571	182.552
906.776	181.729
912.011	180.91
917.276	180.094
922.571	179.284
927.897	178.481
933.254	177.68
938.642	176.883
944.061	176.088
949.511	175.296
954.993	174.508
960.506	173.722
966.051	172.939
971.628	172.16
977.237	171.384
982.879	170.611
988.553	169.841
994.26	169.074
1000	168.31
1005.77	167.55
1011.58	166.793
1017.42	166.04
1023.29	165.289
1029.2	164.542
1035.14	163.799
1041.12	163.059
1047.13	162.322
1053.17	161.588
1059.25	160.858
1065.37	160.132
1071.52	159.409
1077.71	158.689
1083.93	157.972
1090.18	157.259
1096.48	156.55
1102.81	155.844
1109.17	155.141
1115.58	154.442
1122.02	153.746
1128.5	153.054
1135.01	152.364
1141.56	151.679
1148.15	150.996
1154.78	150.316
1161.45	149.638
1168.15	148.964
1174.9	148.293
1181.68	147.626
1188.5	146.961
1195.36	146.301
1202.26	145.643
1209.21	144.989
1216.19	144.338
1223.21	143.69
1230.27	143.046
1237.37	142.405
1244.51	141.767
1251.7	141.133
1258.93	140.501
1266.19	139.874
1273.5	139.249
1280.86	138.627
1288.25	138.009
1295.69	137.394
1303.17	136.782
1310.69	136.173
1318.26	135.567
1325.87	134.964
1333.52	134.364
1341.22	133.767
1348.96	133.173
1356.75	132.582
1364.58	131.993
1372.46	131.407
1380.38	130.824
1388.35	130.243
1396.37	129.665
1404.43	129.09
1412.54	128.517
1420.69	127.946
1428.89	127.378
1437.14	126.813
1445.44	126.251
1453.78	125.691
1462.18	125.134
1470.62	124.579
1479.11	124.028
1487.65	123.478
1496.24	122.932
1504.87	122.388
1513.56	121.847
1522.3	121.308
1531.09	120.772
1539.93	120.239
1548.82	119.708
1557.76	119.18
1566.75	118.654
1575.8	118.131
1584.89	117.611
1594.04	117.093
1603.25	116.577
1612.5	116.064
1621.81	115.554
1631.17	115.045
1640.59	114.54
1650.06	114.037
1659.59	113.536
1669.17	113.037
1678.8	112.542
1688.5	112.048
1698.24	111.557
1708.05	111.069
1717.91	110.583
1727.83	110.099
1737.8	109.618
1747.83	109.139
1757.92	108.663
1768.07	108.189
1778.28	107.717
1788.55	107.248
1798.87	106.781
1809.26	106.316
1819.7	105.854
1830.21	105.394
1840.77	104.936
1851.4	104.48
1862.09	104.026
1872.84	103.575
1883.65	103.126
1894.52	102.679
1905.46	102.234
1916.46	101.792
1927.52	101.351
1938.65	100.913
1949.84	100.477
1961.1	100.044
1972.42	99.6123
1983.81	99.1831
1995.26	98.756
2006.78	98.3311
2018.37	97.9083
2030.02	97.4878
2041.74	97.0693
2053.53	96.653
2065.38	96.2388
2077.3	95.8267
2089.3	95.4166
2101.36	95.0086
2113.49	94.6027
2125.69	94.1988
2137.96	93.7968
2150.3	93.3969
2162.72	92.999
2175.2	92.6029
2187.76	92.2088
2200.39	91.8166
2213.09	91.4263
2225.87	91.0222
2238.72	90.6073
2251.65	90.1943
2264.64	89.7834
2277.72	89.3745
2290.87	88.9675
2304.09	88.5621
2317.39	88.1579
2330.77	87.7556
2344.23	87.3552
2357.76	86.9566
2371.37	86.56
2385.06	86.1653
2398.83	85.7725
2412.68	85.3817
2426.61	84.9928
2440.62	84.6059
2454.71	84.221
2468.88	83.8381
2483.13	83.4573
2497.47	83.0784
2511.89	82.7017
2526.39	82.3269
2540.97	81.9543
2555.64	81.5837
2570.4	81.2152
2585.23	80.8488
2600.16	80.4844
2615.17	80.1222
2630.27	79.7622
2645.45	79.4042
2660.73	79.0484
2676.09	78.6946
2691.53	78.3431
2707.07	77.9936
2722.7	77.6463
2738.42	77.3012
2754.23	76.9581
2770.13	76.6172
2786.12	76.2785
2802.21	75.9418
2818.38	75.6073
2834.65	75.2749
2851.02	74.9446
2867.48	74.6164
2884.03	74.2904
2900.68	73.9663
2917.43	73.6444
2934.27	73.3245
2951.21	73.0067
2968.25	72.6908
2985.38	72.377
3002.62	72.0652
3019.95	71.7553
3037.39	71.4474
3054.92	71.1413
3072.56	70.8372
3090.3	70.5349
3108.14	70.2345
3126.08	69.9358
3144.13	69.6389
3162.28	69.3438
3180.53	69.0503
3198.9	68.7584
3217.36	68.4682
3235.94	68.1795
3254.62	67.8923
3273.41	67.6066
3292.3	67.3223
3311.31	67.0394
3330.43	66.7577
3349.65	66.4773
3368.99	66.198
3388.44	65.9199
3408	65.6427
3427.68	65.3666
3447.47	65.0913
3467.37	64.8242
3487.39	64.5591
3507.52	64.2949
3527.77	64.0316
3548.13	63.7691
3568.62	63.5076
3589.22	63.247
3609.94	62.9873
3630.78	62.7285
3651.74	62.4708
3672.82	62.214
3694.03	61.9582
3715.35	61.7034
3736.8	61.4496
3758.37	61.1968
3780.07	60.9451
3801.89	60.6944
3823.84	60.4448
3845.92	60.1962
3868.12	59.9488
3890.45	59.7024
3912.91	59.4571
3935.5	59.213
3958.22	58.9699
3981.07	58.7281
4004.05	58.4873
4027.17	58.2477
4050.42	58.0093
4073.8	57.7721
4097.32	57.536
4120.98	57.3012
4144.77	57.0675
4168.69	56.8351
4192.76	56.6039
4216.97	56.3739
4241.31	56.1451
4265.8	55.9176
4290.42	55.6913
4315.19	55.4663
4340.1	55.2426
4365.16	55.0201
4390.36	54.7989
4415.7	54.5789
4441.2	54.3603
4466.84	54.1429
4492.62	53.9268
4518.56	53.7119
4544.65	53.4984
4570.88	53.2862
4597.27	53.0752
4623.81	52.8644
4650.5	52.6547
4677.35	52.4463
4704.35	52.2392
4731.51	52.0334
4758.83	51.8289
4786.3	51.6257
4813.93	51.4237
4841.72	51.2231
4869.68	51.0238
4897.79	50.8257
4926.06	50.6289
4954.5	50.4334
4983.1	50.2392
5011.87	50.0462
5040.81	49.8545
5069.91	49.6641
5099.18	49.4749
5128.61	49.287
5158.22	49.1002
5188	48.9148
5217.95	48.7305
5248.07	48.5474
5278.37	48.3655
5308.84	48.1848
5339.49	48.0052
5370.32	47.8267
5401.32	47.6494
5432.5	47.4732
5463.87	47.2981
5495.41	47.124
5527.13	46.9509
5559.04	46.7789
5591.14	46.6078
5623.41	46.4378
5655.88	46.2686
5688.53	46.1003
5721.37	45.9329
5754.4	45.7664
5787.62	45.6005
5821.03	45.4355
5854.64	45.2713
5888.44	45.108
5922.43	44.9454
5956.62	44.7837
5991.01	44.6228
6025.6	44.4628
6060.38	44.3035
6095.37	44.1452
6130.56	43.9876
6165.95	43.8309
6201.55	43.6751
6237.35	43.5201
6273.36	43.3659
6309.57	43.2126
6346	43.0602
6382.63	42.9085
6419.48	42.7578
6456.54	42.6078
6493.82	42.4587
6531.31	42.3105
6569.01	42.163
6606.93	42.0164
6645.08	41.8707
6683.44	41.7257
6722.02	41.5816
6760.83	41.4382
6799.86	41.2957
6839.12	41.154
6878.6	41.013
6918.31	40.8727
6958.25	40.7329
6998.42	40.594
7038.82	40.4558
7079.46	40.3184
7120.33	40.1818
7161.43	40.046
7202.78	39.911
7244.36	39.7768
7286.18	39.6434
7328.25	39.5108
7370.55	39.379
7413.1	39.248
7455.9	39.1178
7498.94	38.9884
7542.23	38.8599
7585.78	38.7321
7629.57	38.6052
7673.61	38.4791
7717.92	38.3538
7762.47	38.2293
7807.28	38.1056
7852.36	37.9827
7897.69	37.8607
7943.28	37.7394
7989.14	37.6189
8035.26	37.4992
8081.65	37.3804
8128.31	37.2623
8175.23	37.1449
8222.43	37.0284
8269.9	36.9126
8317.64	36.7976
8365.66	36.6833
8413.95	36.5698
8462.53	36.457
8511.38	36.3449
8560.52	36.2335
8609.94	36.1228
8659.64	36.0128
8709.64	35.9035
8759.92	35.7948
8810.49	35.6868
8861.35	35.5794
8912.51	35.4726
8963.96	35.3664
9015.71	35.2607
9067.76	35.1556
9120.11	35.0511
9172.76	34.947
9225.71	34.844
9278.97	34.7419
9332.54	34.6404
9386.42	34.5393
9440.61	34.4388
9495.11	34.3387
9549.93	34.2391
9605.06	34.1401
9660.51	34.0415
9716.28	33.9435
9772.37	33.846
9828.79	33.749
9885.53	33.6526
9942.6	33.5566
10000	33.4612
10057.7	33.3664
10115.8	33.2721
10174.2	33.1783
10232.9	33.085
10292	32.9924
10351.4	32.9002
10411.2	32.8086
10471.3	32.7176
10531.7	32.6271
10592.5	32.5372
10653.7	32.4478
10715.2	32.3589
10777.1	32.2707
10839.3	32.1829
10901.8	32.0958
10964.8	32.0092
11028.1	31.9231
11091.7	31.8376
11155.8	31.7526
11220.2	31.6682
11285	31.5843
11350.1	31.501
11415.6	31.4181
11481.5	31.3359
11547.8	31.254
11614.5	31.1725
11681.5	31.0916
11749	31.0112
11816.8	30.9314
11885	30.8521
11953.6	30.7733
12022.6	30.695
12092.1	30.6173
12161.9	30.5401
12232.1	30.4634
12302.7	30.3872
12373.7	30.3116
12445.1	30.2365
12517	30.1619
12589.3	30.0878
12661.9	30.0143
12735	29.9412
12808.6	29.8687
12882.5	29.7966
12956.9	29.7251
13031.7	29.654
13106.9	29.5834
13182.6	29.5133
13258.7	29.4437
13335.2	29.3745
13412.2	29.3058
13489.6	29.2376
13567.5	29.1698
13645.8	29.1024
13724.6	29.0355
13803.8	28.9689
13883.5	28.9028
13963.7	28.837
14044.3	28.7717
14125.4	28.7067
14206.9	28.6422
14288.9	28.5781
14371.4	28.5144
14454.4	28.4511
14537.8	28.3882
14621.8	28.3257
14706.2	28.2637
14791.1	28.202
14876.5	28.1408
14962.4	28.08
15048.7	28.0196
15135.6	27.9596
15223	27.9
15310.9	27.8408
15399.3	27.782
15488.2	27.7236
15577.6	27.6657
15667.5	27.6081
15758	27.5509
15848.9	27.4941
15940.4	27.4378
16032.5	27.3817
16125	27.3261
16218.1	27.2709
16311.7	27.216
16405.9	27.1615
16500.6	27.1074
16595.9	27.0537
16691.7	27.0003
16788	26.9474
16885	26.8948
16982.4	26.8426
17080.5	26.7907
17179.1	26.7393
17278.3	26.6882
17378	26.6374
17478.3	26.5871
17579.2	26.5371
17680.7	26.4875
17782.8	26.4382
17885.5	26.3893
17988.7	26.3408
18092.6	26.2926
18197	26.2448
18302.1	26.1973
18407.7	26.1501
18514	26.1033
18620.9	26.0568
18728.4	26.0106
18836.5	25.9648
18945.2	25.9193
19054.6	25.8741
19164.6	25.8292
19275.2	25.7847
19386.5	25.7405
19498.4	25.6967
19611	25.6532
19724.2	25.61
19838.1	25.5671
19952.6	25.5245
20067.8	25.4822
20183.7	25.4403
20300.2	25.3987
20417.4	25.3574
20535.3	25.3164
20653.8	25.2756
20773	25.2352
20893	25.1951
21013.6	25.1553
21134.9	25.1157
21256.9	25.0764
21379.6	25.0374
21503	24.9986
21627.2	24.9601
21752	24.9219
21877.6	24.8839
22003.9	24.8461
22130.9	24.8086
22258.7	24.7713
22387.2	24.7342
22516.5	24.6973
22646.4	24.6605
22777.2	24.624
22908.7	24.5876
23040.9	24.5508
23173.9	24.513
23307.7	24.4754
23442.3	24.4381
23577.6	24.4011
23713.7	24.3643
23850.6	24.3278
23988.3	24.2916
24126.8	24.2557
24266.1	24.22
24406.2	24.1846
24547.1	24.1495
24688.8	24.1146
24831.3	24.08
24974.7	24.0457
25118.9	24.0116
25263.9	23.9778
25409.7	23.9442
25556.4	23.9109
25704	23.8778
25852.3	23.845
26001.6	23.8125
26151.7	23.7802
26302.7	23.7481
26454.5	23.7163
26607.3	23.6847
26760.9	23.6534
26915.3	23.6223
27070.7	23.5915
27227	23.5609
27384.2	23.5306
27542.3	23.5004
27701.3	23.4706
27861.2	23.4409
28022.1	23.4115
28183.8	23.3823
28346.5	23.3534
28510.2	23.3246
28674.8	23.2962
28840.3	23.2679
29006.8	23.2398
29174.3	23.212
29342.7	23.1844
29512.1	23.1571
29682.5	23.1299
29853.8	23.103
30026.2	23.0763
30199.5	23.0498
30373.9	23.0235
30549.2	22.9974
30725.6	22.9716
30903	22.9459
31081.4	22.9205
31260.8	22.8952
31441.3	22.8702
31622.8	22.8454
31805.3	22.8208
31989	22.7964
32173.6	22.7722
32359.4	22.7482
32546.2	22.7244
32734.1	22.7008
32923	22.6774
33113.1	22.6542
33304.3	22.6312
33496.5	22.6084
33689.9	22.5858
33884.4	22.5633
34080	22.5411
34276.8	22.519
34474.7	22.4972
34673.7	22.4755
34873.9	22.454
35075.2	22.4327
35277.7	22.4116
35481.3	22.3907
35686.2	22.3699
35892.2	22.3493
36099.4	22.3289
36307.8	22.3087
36517.4	22.2887
36728.2	22.2688
36940.3	22.2492
37153.5	22.2296
37368	22.2103
37583.7	22.1911
37800.7	22.1721
38018.9	22.1533
38238.4	22.1347
38459.2	22.1162
38681.2	22.0979
38904.5	22.0797
39129.1	22.0617
39355	22.0439
39582.2	22.0262
39810.7	22.0087
40040.5	21.9914
40271.7	21.9742
40504.2	21.9572
40738	21.9403
40973.2	21.9236
41209.8	21.907
41447.7	21.8906
41686.9	21.8744
41927.6	21.8583
42169.7	21.8423
42413.1	21.8265
42658	21.8109
42904.2	21.7954
43151.9	21.7801
43401	21.7649
43651.6	21.7498
43903.6	21.7349
44157	21.7201
44412	21.7055
44668.4	21.691
44926.2	21.6767
45185.6	21.6625
45446.5	21.6484
45708.8	21.6345
45972.7	21.6207
46238.1	21.607
46505	21.5935
46773.5	21.5802
47043.5	21.5669
47315.1	21.5538
47588.3	21.5408
47863	21.528
48139.3	21.5152
48417.2	21.5026
48696.8	21.4902
48977.9	21.4778
49260.6	21.4656
49545	21.4535
49831	21.4416
50118.7	21.4297
50408.1	21.418
50699.1	21.4064
50991.8	21.395
51286.1	21.3836
51582.2	21.3724
51880	21.3613
52179.5	21.3503
52480.7	21.3394
52783.7	21.3287
53088.4	21.318
53394.9	21.3075
53703.2	21.2971
54013.2	21.2868
54325	21.2766
54638.7	21.2665
54954.1	21.2565
55271.3	21.2467
55590.4	21.2369
55911.4	21.2273
56234.1	21.2177
56558.8	21.2083
56885.3	21.199
57213.7	21.1898
57544	21.1807
57876.2	21.1717
58210.3	21.1628
58546.4	21.154
58884.4	21.1453
59224.3	21.1367
59566.2	21.1282
59910.1	21.1198
60256	21.1115
60603.8	21.1032
60953.7	21.0951
61305.6	21.0871
61659.5	21.0792
62015.5	21.0714
62373.5	21.0637
62733.6	21.056
63095.7	21.0485
63460	21.041
63826.3	21.0337
64194.8	21.0264
64565.4	21.0192
64938.2	21.0121
65313.1	21.0051
65690.1	20.9982
66069.3	20.9914
66450.8	20.9847
66834.4	20.978
67220.2	20.9714
67608.3	20.9649
67998.6	20.9585
68391.2	20.9522
68786	20.946
69183.1	20.9398
69582.5	20.9338
69984.2	20.9278
70388.2	20.9219
70794.6	20.916
71203.3	20.9103
71614.3	20.9046
72027.8	20.899
72443.6	20.8935
72861.8	20.888
73282.5	20.8826
73705.5	20.8773
74131	20.8721
74559	20.867
74989.4	20.8619
75422.3	20.8569
75857.8	20.8519
76295.7	20.8471
76736.1	20.8423
77179.2	20.8376
77624.7	20.8329
78072.8	20.8283
78523.6	20.8238
78976.9	20.8194
79432.8	20.815
79891.4	20.8107
80352.6	20.8064
80816.5	20.8022
81283.1	20.7981
81752.3	20.794
82224.3	20.7901
82699	20.7861
83176.4	20.7823
83656.6	20.7784
84139.5	20.7747
84625.3	20.771
85113.8	20.7674
85605.2	20.7638
86099.4	20.7603
86596.4	20.7569
87096.4	20.7535
87599.2	20.7502
88104.9	20.7469
88613.5	20.7437
89125.1	20.7405
89639.6	20.7374
90157.1	20.7343
90677.6	20.7314
91201.1	20.7284
91727.6	20.7255
92257.1	20.7227
92789.7	20.7199
93325.4	20.7172
93864.2	20.7145
94406.1	20.7119
94951.1	20.7093
95499.3	20.7068
96050.6	20.7043
96605.1	20.7018
97162.8	20.6995
97723.7	20.6971
98287.9	20.6948
98855.3	20.6926
99426	20.6904
100000	20.6883
100577	20.6862
101158	20.6841
101742	20.6821
102329	20.6801
102920	20.6782
103514	20.6763
104112	20.6745
104713	20.6727
105317	20.671
105925	20.6693
106537	20.6676
107152	20.666
107771	20.6644
108393	20.6628
109018	20.6613
109648	20.6599
110281	20.6584
110917	20.6571
111558	20.6557
112202	20.6544
112850	20.6531
113501	20.6519
114156	20.6507
114815	20.6495
115478	20.6484
116145	20.6473
116815	20.6462
117490	20.6452
118168	20.6442
118850	20.6433
119536	20.6423
120226	20.6415
120921	20.6406
121619	20.6398
122321	20.639
123027	20.6382
123737	20.6375
124451	20.6368
125170	20.6361
125893	20.6355
126619	20.6349
127350	20.6343
128086	20.6337
128825	20.6332
129569	20.6327
130317	20.6323
131069	20.6318
131826	20.6314
132587	20.631
133352	20.6307
134122	20.6304
134896	20.6301
135675	20.6298
136458	20.6295
137246	20.6293
138038	20.6291
138835	20.6289
139637	20.6288
140443	20.6286
141254	20.6285
142069	20.6285
142889	20.6284
143714	20.6284
144544	20.6283
145378	20.6284
146218	20.6284
147062	20.6284
147911	20.6285
148765	20.6286
149624	20.6287
150487	20.6289
151356	20.629
152230	20.6292
153109	20.6294
153993	20.6296
154882	20.6298
155776	20.6301
156675	20.6304
157580	20.6307
158489	20.631
159404	20.6313
160325	20.6316
161250	20.632
162181	20.6324
163117	20.6328
164059	20.6332
165006	20.6336
165959	20.634
166917	20.6345
167880	20.635
168850	20.6355
169824	20.636
170805	20.6365
171791	20.637
172783	20.6376
173780	20.6381
174783	20.6387
175792	20.6393
176807	20.6399
177828	20.6405
178855	20.6411
179887	20.6418
180926	20.6424
181970	20.6431
183021	20.6438
184077	20.6445
185140	20.6452
186209	20.6459
187284	20.6466
188365	20.6474
189452	20.6481
190546	20.6489
191646	20.6496
192752	20.6504
193865	20.6512
194984	20.652
196110	20.6528
197242	20.6536
198381	20.6545
199526	20.6553
200678	20.6562
201837	20.657
203002	20.6579
204174	20.6587
205353	20.6596
206538	20.6605
207730	20.6614
208930	20.6623
210136	20.6632
211349	20.6641
212569	20.6651
213796	20.666
215030	20.6669
216272	20.6679
217520	20.6688
218776	20.6698
220039	20.6708
221309	20.6717
222587	20.6727
223872	20.6737
225165	20.6747
226464	20.6757
227772	20.6767
229087	20.6777
230409	20.6787
231739	20.6797
233077	20.6807
234423	20.6818
235776	20.6828
237137	20.6838
238506	20.6849
239883	20.6859
241268	20.687
242661	20.688
244062	20.6891
245471	20.6901
246888	20.6912
248313	20.6923
249747	20.6933
251189	20.6944
252639	20.6955
254097	20.6965
255564	20.6976
257040	20.6987
258523	20.6998
260016	20.7009
261517	20.702
263027	20.703
264545	20.7041
266073	20.7052
267609	20.7063
269153	20.7074
270707	20.7085
272270	20.7096
273842	20.7107
275423	20.7118
277013	20.7129
278612	20.714
280221	20.7151
281838	20.7162
283465	20.7174
285102	20.7185
286748	20.7196
288403	20.7207
290068	20.7218
291743	20.7229
293427	20.724
295121	20.7251
296825	20.7262
298538	20.7273
300262	20.7284
301995	20.7295
303739	20.7307
305492	20.7318
307256	20.7329
309030	20.734
310814	20.7351
312608	20.7362
314413	20.7373
316228	20.7384
318053	20.7395
319890	20.7406
321736	20.7417
323594	20.7428
325462	20.7439
327341	20.745
329230	20.7461
331131	20.7472
333043	20.7482
334965	20.7493
336899	20.7504
338844	20.7515
340800	20.7526
342768	20.7537
344747	20.7547
346737	20.7558
348739	20.7569
350752	20.758
352777	20.759
354813	20.7601
356862	20.7612
358922	20.7622
360994	20.7633
363078	20.7643
365174	20.7654
367282	20.7664
369403	20.7675
371535	20.7685
373680	20.7696
375837	20.7706
378007	20.7717
380189	20.7727
382384	20.7737
384592	20.7747
386812	20.7758
389045	20.7768
391291	20.7778
393550	20.7788
395822	20.7798
398107	20.7808
400405	20.7818
402717	20.7828
405042	20.7838
407380	20.7848
409732	20.7858
412098	20.7868
414477	20.7878
416869	20.7888
419276	20.7897
421697	20.7907
424131	20.7917
426580	20.7926
429042	20.7936
431519	20.7945
434010	20.7955
436516	20.7964
439036	20.7974
441570	20.7983
444120	20.7993
446684	20.8002
449262	20.8011
451856	20.802
454465	20.8029
457088	20.8039
459727	20.8048
462381	20.8057
465050	20.8066
467735	20.8075
470435	20.8084
473151	20.8092
475883	20.8101
478630	20.811
481393	20.8119
484172	20.8127
486968	20.8136
489779	20.8145
492606	20.8153
495450	20.8162
498310	20.817
501187	20.8178
504081	20.8187
506991	20.8195
509918	20.8203
512861	20.8212
515822	20.822
518800	20.8228
521795	20.8236
524807	20.8244
527837	20.8252
530884	20.826
533949	20.8268
537032	20.8276
540132	20.8283
543250	20.8291
546387	20.8299
549541	20.8306
552713	20.8314
555904	20.8321
559114	20.8329
562341	20.8336
565588	20.8344
568853	20.8351
572137	20.8358
575440	20.8366
578762	20.8373
582103	20.838
585464	20.8387
588844	20.8394
592243	20.8401
595662	20.8408
599101	20.8415
602560	20.8422
606038	20.8428
609537	20.8435
613056	20.8442
616595	20.8449
620155	20.8455
623735	20.8462
627336	20.8468
630957	20.8475
634600	20.8481
638263	20.8487
641948	20.8494
645654	20.85
649382	20.8506
653131	20.8512
656901	20.8518
660693	20.8524
664508	20.853
668344	20.8536
672202	20.8542
676083	20.8548
679986	20.8554
683912	20.8559
687860	20.8565
691831	20.8571
695825	20.8576
699842	20.8582
703882	20.8587
707946	20.8593
712033	20.8598
716143	20.8603
720278	20.8609
724436	20.8614
728618	20.8619
732825	20.8624
737055	20.8629
741310	20.8634
745590	20.8639
749894	20.8644
754223	20.8649
758578	20.8654
762957	20.8659
767361	20.8663
771792	20.8668
776247	20.8673
780728	20.8677
785236	20.8682
789769	20.8686
794328	20.8691
798914	20.8695
803526	20.8699
808165	20.8704
812831	20.8708
817523	20.8712
822243	20.8716
826990	20.872
831764	20.8725
836566	20.8729
841395	20.8733
846253	20.8736
851138	20.874
856052	20.8744
860994	20.8748
865964	20.8752
870964	20.8755
875992	20.8759
881049	20.8763
886135	20.8766
891251	20.877
896396	20.8773
901571	20.8777
906776	20.878
912011	20.8783
917276	20.8787
922571	20.879
927897	20.8793
933254	20.8796
938642	20.8799
944061	20.8802
949511	20.8805
954993	20.8808
960506	20.8811
966051	20.8814
971628	20.8817
977237	20.882
982879	20.8823
988553	20.8826
994260	20.8828
1e+06	20.8831
1.00577e+06	20.8834
1.01158e+06	20.8836
1.01742e+06	20.8839
1.02329e+06	20.8841
1.0292e+06	20.8844
1.03514e+06	20.8846
1.04112e+06	20.8848
1.04713e+06	20.8851
1.05317e+06	20.8853
1.05925e+06	20.8855
1.06537e+06	20.8857
1.07152e+06	20.886
1.07771e+06	20.8862
1.08393e+06	20.8864
1.09018e+06	20.8866
1.09648e+06	20.8868
1.10281e+06	20.887
1.10917e+06	20.8872
1.11558e+06	20.8874
1.12202e+06	20.8876
1.1285e+06	20.8878
1.13501e+06	20.8879
1.14156e+06	20.8881
1.14815e+06	20.8883
1.15478e+06	20.8885
1.16145e+06	20.8886
1.16815e+06	20.8888
1.1749e+06	20.889
1.18168e+06	20.8891
1.1885e+06	20.8893
1.19536e+06	20.8894
1.20226e+06	20.8896
1.20921e+06	20.8897
1.21619e+06	20.8898
1.22321e+06	20.89
1.23027e+06	20.8901
1.23737e+06	20.8902
1.24451e+06	20.8904
1.2517e+06	20.8905
1.25893e+06	20.8906
1.26619e+06	20.8907
1.2735e+06	20.8908
1.28086e+06	20.891
1.28825e+06	20.8911
1.29569e+06	20.8912
1.30317e+06	20.8913
1.31069e+06	20.8914
1.31826e+06	20.8915
1.32587e+06	20.8916
1.33352e+06	20.8917
1.34122e+06	20.8917
1.34896e+06	20.8918
1.35675e+06	20.8919
1.36458e+06	20.892
1.37246e+06	20.8921
1.38038e+06	20.8921
1.38835e+06	20.8922
1.39637e+06	20.8923
1.40443e+06	20.8924
1.41254e+06	20.8924
1.42069e+06	20.8925
1.42889e+06	20.8925
1.43714e+06	20.8926
1.44544e+06	20.8927
1.45378e+06	20.8927
1.46218e+06	20.8928
1.47062e+06	20.8928
1.47911e+06	20.8928
1.48765e+06	20.8929
1.49624e+06	20.8929
1.50487e+06	20.893
1.51356e+06	20.893
1.5223e+06	20.893
1.53109e+06	20.8931
1.53993e+06	20.8931
1.54882e+06	20.8931
1.55776e+06	20.8932
1.56675e+06	20.8932
1.5758e+06	20.8932
1.58489e+06	20.8932
1.59404e+06	20.8932
1.60325e+06	20.8933
1.6125e+06	20.8933
1.62181e+06	20.8933
1.63117e+06	20.8933
1.64059e+06	20.8933
1.65006e+06	20.8933
1.65959e+06	20.8933
1.66917e+06	20.8933
1.6788e+06	20.8933
1.6885e+06	20.8933
1.69824e+06	20.8933
1.70805e+06	20.8933
1.71791e+06	20.8933
1.72783e+06	20.8933
1.7378e+06	20.8933
1.74783e+06	20.8933
1.75792e+06	20.8933
1.76807e+06	20.8933
1.77828e+06	20.8933
1.78855e+06	20.8932
1.79887e+06	20.8932
1.80926e+06	20.8932
1.8197e+06	20.8932
1.83021e+06	20.8932
1.84077e+06	20.8932
1.8514e+06	20.8931
1.86209e+06	20.8931
1.87284e+06	20.8931
1.88365e+06	20.8931
1.89452e+06	20.893
1.90546e+06	20.893
1.91646e+06	20.893
1.92752e+06	20.893
1.93865e+06	20.8929
1.94984e+06	20.8929
1.9611e+06	20.8929
1.97242e+06	20.8929
1.98381e+06	20.8928
1.99526e+06	20.8928
2.00678e+06	20.8928
2.01837e+06	20.8927
2.03002e+06	20.8927
2.04174e+06	20.8927
2.05353e+06	20.8926
2.06538e+06	20.8926
2.0773e+06	20.8926
2.0893e+06	20.8925
2.10136e+06	20.8925
2.11349e+06	20.8925
2.12569e+06	20.8924
2.13796e+06	20.8924
2.1503e+06	20.8924
2.16272e+06	20.8923
2.1752e+06	20.8923
2.18776e+06	20.8923
2.20039e+06	20.8922
2.21309e+06	20.8922
2.22587e+06	20.8921
2.23872e+06	20.8921
2.25165e+06	20.8921
2.26464e+06	20.892
2.27772e+06	20.892
2.29087e+06	20.892
2.30409e+06	20.8919
2.31739e+06	20.8919
2.33077e+06	20.8919
2.34423e+06	20.8918
2.35776e+06	20.8918
2.37137e+06	20.8918
2.38506e+06	20.8917
2.39883e+06	20.8917
2.41268e+06	20.8917
2.42661e+06	20.8916
2.44062e+06	20.8916
2.45471e+06	20.8916
2.46888e+06	20.8915
2.48313e+06	20.8915
2.49747e+06	20.8915
2.51189e+06	20.8915
2.52639e+06	20.8914
2.54097e+06	20.8914
2.55564e+06	20.8914
2.5704e+06	20.8913
2.58523e+06	20.8913
2.60016e+06	20.8913
2.61517e+06	20.8913
2.63027e+06	20.8912
2.64545e+06	20.8912
2.66073e+06	20.8912
2.67609e+06	20.8911
2.69153e+06	20.8911
2.70707e+06	20.8911
2.7227e+06	20.8911
2.73842e+06	20.891
2.75423e+06	20.891
2.77013e+06	20.891
2.78612e+06	20.891
2.80221e+06	20.8909
2.81838e+06	20.8909
2.83465e+06	20.8909
2.85102e+06	20.8909
2.86748e+06	20.8908
2.88403e+06	20.8908
2.90068e+06	20.8908
2.91743e+06	20.8908
2.93427e+06	20.8907
2.95121e+06	20.8907
2.96825e+06	20.8907
2.98538e+06	20.8907
3.00262e+06	20.8906
3.01995e+06	20.8906
3.03739e+06	20.8906
3.05492e+06	20.8906
3.07256e+06	20.8906
3.0903e+06	20.8905
3.10814e+06	20.8905
3.12608e+06	20.8905
3.14413e+06	20.8905
3.16228e+06	20.8904
3.18053e+06	20.8904
3.1989e+06	20.8904
3.21736e+06	20.8904
3.23594e+06	20.8904
3.25462e+06	20.8903
3.27341e+06	20.8903
3.2923e+06	20.8903
3.31131e+06	20.8903
3.33043e+06	20.8903
3.34965e+06	20.8902
3.36899e+06	20.8902
3.38844e+06	20.8902
3.408e+06	20.8902
3.42768e+06	20.8902
3.44747e+06	20.8902
3.46737e+06	20.8901
3.48739e+06	20.8901
3.50752e+06	20.8901
3.52777e+06	20.8901
3.54813e+06	20.8901
3.56862e+06	20.89
3.58922e+06	20.89
3.60994e+06	20.89
3.63078e+06	20.89
3.65174e+06	20.89
3.67282e+06	20.89
3.69403e+06	20.8899
3.71535e+06	20.8899
3.7368e+06	20.8899
3.75837e+06	20.8899
3.78007e+06	20.8899
3.80189e+06	20.8899
3.82384e+06	20.8898
3.84592e+06	20.8898
3.86812e+06	20.8898
3.89045e+06	20.8898
3.91291e+06	20.8898
3.9355e+06	20.8898
3.95822e+06	20.8898
3.98107e+06	20.8897
4.00405e+06	20.8897
4.02717e+06	20.8897
4.05042e+06	20.8897
4.0738e+06	20.8897
4.09732e+06	20.8897
4.12098e+06	20.8896
4.14477e+06	20.8896
4.16869e+06	20.8896
4.19276e+06	20.8896
4.21697e+06	20.8896
4.24131e+06	20.8896
4.2658e+06	20.8896
4.29042e+06	20.8896
4.31519e+06	20.8895
4.3401e+06	20.8895
4.36516e+06	20.8895
4.39036e+06	20.8895
4.4157e+06	20.8895
4.4412e+06	20.8895
4.46684e+06	20.8895
4.49262e+06	20.8894
4.51856e+06	20.8894
4.54465e+06	20.8894
4.57088e+06	20.8894
4.59727e+06	20.8894
4.62381e+06	20.8894
4.6505e+06	20.8894
4.67735e+06	20.8894
4.70435e+06	20.8894
4.73151e+06	20.8893
4.75883e+06	20.8893
4.7863e+06	20.8893
4.81393e+06	20.8893
4.84172e+06	20.8893
4.86968e+06	20.8893
4.89779e+06	20.8893
4.92606e+06	20.8893
4.9545e+06	20.8893
4.9831e+06	20.8892
5.01187e+06	20.8892
5.04081e+06	20.8892
5.06991e+06	20.8892
5.09918e+06	20.8892
5.12861e+06	20.8892
5.15822e+06	20.8892
5.188e+06	20.8892
5.21795e+06	20.8892
5.24807e+06	20.8891
5.27837e+06	20.8891
5.30884e+06	20.8891
5.33949e+06	20.8891
5.37032e+06	20.8891
5.40132e+06	20.8891
5.4325e+06	20.8891
5.46387e+06	20.8891
5.49541e+06	20.8891
5.52713e+06	20.8891
5.55904e+06	20.8891
5.59114e+06	20.889
5.62341e+06	20.889
5.65588e+06	20.889
5.68853e+06	20.889
5.72137e+06	20.889
5.7544e+06	20.889
5.78762e+06	20.889
5.82103e+06	20.889
5.85464e+06	20.889
5.88844e+06	20.889
5.92243e+06	20.889
5.95662e+06	20.8889
5.99101e+06	20.8889
6.0256e+06	20.8889
6.06038e+06	20.8889
6.09537e+06	20.8889
6.13056e+06	20.8889
6.16595e+06	20.8889
6.20155e+06	20.8889
6.23735e+06	20.8889
6.27336e+06	20.8889
6.30957e+06	20.8889
6.346e+06	20.8889
6.38263e+06	20.8888
6.41948e+06	20.8888
6.45654e+06	20.8888
6.49382e+06	20.8888
6.53131e+06	20.8888
6.56901e+06	20.8888
6.60693e+06	20.8888
6.64508e+06	20.8888
6.68344e+06	20.8888
6.72202e+06	20.8888
6.76083e+06	20.8888
6.79986e+06	20.8888
6.83912e+06	20.8888
6.8786e+06	20.8888
6.91831e+06	20.8887
6.95825e+06	20.8887
6.99842e+06	20.8887
7.03882e+06	20.8887
7.07946e+06	20.8887
7.12033e+06	20.8887
7.16143e+06	20.8887
7.20278e+06	20.8887
7.24436e+06	20.8887
7.28618e+06	20.8887
7.32825e+06	20.8887
7.37055e+06	20.8887
7.4131e+06	20.8887
7.4559e+06	20.8887
7.49894e+06	20.8887
7.54223e+06	20.8887
7.58578e+06	20.8886
7.62957e+06	20.8886
7.67361e+06	20.8886
7.71792e+06	20.8886
7.76247e+06	20.8886
7.80728e+06	20.8886
7.85236e+06	20.8886
7.89769e+06	20.8886
7.94328e+06	20.8886
7.98914e+06	20.8886
8.03526e+06	20.8886
8.08165e+06	20.8886
8.12831e+06	20.8886
8.17523e+06	20.8886
8.22243e+06	20.8886
8.2699e+06	20.8886
8.31764e+06	20.8886
8.36566e+06	20.8885
8.41395e+06	20.8885
8.46253e+06	20.8885
8.51138e+06	20.8885
8.56052e+06	20.8885
8.60994e+06	20.8885
8.65964e+06	20.8885
8.70964e+06	20.8885
8.75992e+06	20.8885
8.81049e+06	20.8885
8.86135e+06	20.8885
8.91251e+06	20.8885
8.96396e+06	20.8885
9.01571e+06	20.8885
9.06776e+06	20.8885
9.12011e+06	20.8885
9.17276e+06	20.8885
9.22571e+06	20.8885
9.27897e+06	20.8885
9.33254e+06	20.8885
9.38642e+06	20.8884
9.44061e+06	20.8884
9.49511e+06	20.8884
9.54993e+06	20.8884
9.60506e+06	20.8884
9.66051e+06	20.8884
9.71628e+06	20.8884
9.77237e+06	20.8884
9.82879e+06	20.8884
9.88553e+06	20.8884
9.9426e+06	20.8884
1e+07	20.8884
