Stopping power dEdx from Ionisation for Ne20[0.0] Z = 10 in Water, process name: ionIoni
E [MeV]	dEdx [MeV/mm]
0.001	23.5232
0.00100577	23.5914
0.00101158	23.6598
0.00101742	23.7284
0.00102329	23.7972
0.0010292	23.8662
0.00103514	23.9354
0.00104112	24.0048
0.00104713	24.0744
0.00105317	24.1442
0.00105925	24.2142
0.00106537	24.2844
0.00107152	24.3548
0.00107771	24.4254
0.00108393	24.4962
0.00109018	24.5672
0.00109648	24.6384
0.00110281	24.7099
0.00110917	24.7815
0.00111558	24.8533
0.00112202	24.9254
0.0011285	24.9976
0.00113501	25.0701
0.00114156	25.1427
0.00114815	25.2156
0.00115478	25.2887
0.00116145	25.362
0.00116815	25.4355
0.0011749	25.5092
0.00118168	25.5831
0.0011885	25.6573
0.00119536	25.7316
0.00120226	25.8062
0.00120921	25.881
0.00121619	25.956
0.00122321	26.0312
0.00123027	26.1066
0.00123737	26.1823
0.00124451	26.2582
0.0012517	26.3343
0.00125893	26.4106
0.00126619	26.4871
0.0012735	26.5638
0.00128086	26.6408
0.00128825	26.718
0.00129569	26.7954
0.00130317	26.8731
0.00131069	26.9509
0.00131826	27.029
0.00132587	27.1073
0.00133352	27.1859
0.00134122	27.2646
0.00134896	27.3436
0.00135675	27.4228
0.00136458	27.5023
0.00137246	27.582
0.00138038	27.6619
0.00138835	27.742
0.00139637	27.8224
0.00140443	27.903
0.00141254	27.9838
0.00142069	28.0649
0.00142889	28.1461
0.00143714	28.2277
0.00144544	28.3094
0.00145378	28.3914
0.00146218	28.4737
0.00147062	28.5562
0.00147911	28.6389
0.00148765	28.7218
0.00149624	28.805
0.00150487	28.8884
0.00151356	28.9721
0.0015223	29.056
0.00153109	29.1402
0.00153993	29.2246
0.00154882	29.3092
0.00155776	29.3941
0.00156675	29.4792
0.0015758	29.5646
0.00158489	29.6502
0.00159404	29.7361
0.00160325	29.8222
0.0016125	29.9086
0.00162181	29.9952
0.00163117	30.082
0.00164059	30.1692
0.00165006	30.2565
0.00165959	30.3441
0.00166917	30.432
0.0016788	30.5201
0.0016885	30.6085
0.00169824	30.6971
0.00170805	30.786
0.00171791	30.8751
0.00172783	30.9645
0.0017378	31.0542
0.00174783	31.1441
0.00175792	31.2343
0.00176807	31.3247
0.00177828	31.4154
0.00178855	31.5064
0.00179887	31.5976
0.00180926	31.6891
0.0018197	31.7808
0.00183021	31.8728
0.00184077	31.9651
0.0018514	32.0576
0.00186209	32.1504
0.00187284	32.2435
0.00188365	32.3368
0.00189452	32.4305
0.00190546	32.5243
0.00191646	32.6185
0.00192752	32.7129
0.00193865	32.8076
0.00194984	32.9026
0.0019611	32.9978
0.00197242	33.0933
0.00198381	33.1891
0.00199526	33.2852
0.00200678	33.3815
0.00201837	33.4781
0.00203002	33.575
0.00204174	33.6722
0.00205353	33.7697
0.00206538	33.8674
0.0020773	33.9655
0.0020893	34.0638
0.00210136	34.1623
0.00211349	34.2612
0.00212569	34.3604
0.00213796	34.4598
0.0021503	34.5595
0.00216272	34.6596
0.0021752	34.7599
0.00218776	34.8605
0.00220039	34.9613
0.00221309	35.0625
0.00222587	35.164
0.00223872	35.2657
0.00225165	35.3678
0.00226464	35.4701
0.00227772	35.5728
0.00229087	35.6757
0.00230409	35.779
0.00231739	35.8825
0.00233077	35.9863
0.00234423	36.0905
0.00235776	36.1949
0.00237137	36.2996
0.00238506	36.4046
0.00239883	36.51
0.00241268	36.6156
0.00242661	36.7216
0.00244062	36.8278
0.00245471	36.9344
0.00246888	37.0412
0.00248313	37.1484
0.00249747	37.2559
0.00251189	37.3637
0.00252639	37.4718
0.00254097	37.5802
0.00255564	37.6889
0.0025704	37.7979
0.00258523	37.9073
0.00260016	38.017
0.00261517	38.1269
0.00263027	38.2372
0.00264545	38.3479
0.00266073	38.4588
0.00267609	38.5701
0.00269153	38.6816
0.00270707	38.7935
0.0027227	38.9057
0.00273842	39.0183
0.00275423	39.1312
0.00277013	39.2444
0.00278612	39.3579
0.00280221	39.4717
0.00281838	39.5859
0.00283465	39.7004
0.00285102	39.8152
0.00286748	39.9304
0.00288403	40.0459
0.00290068	40.1617
0.00291743	40.2779
0.00293427	40.3944
0.00295121	40.5112
0.00296825	40.6284
0.00298538	40.7459
0.00300262	40.8638
0.00301995	40.982
0.00303739	41.1005
0.00305492	41.2194
0.00307256	41.3386
0.0030903	41.4581
0.00310814	41.578
0.00312608	41.6983
0.00314413	41.8189
0.00316228	41.9398
0.00318053	42.0611
0.0031989	42.1827
0.00321736	42.3047
0.00323594	42.4271
0.00325462	42.5498
0.00327341	42.6728
0.0032923	42.7962
0.00331131	42.92
0.00333043	43.0441
0.00334965	43.1686
0.00336899	43.2934
0.00338844	43.4186
0.003408	43.5441
0.00342768	43.67
0.00344747	43.7963
0.00346737	43.923
0.00348739	44.05
0.00350752	44.1773
0.00352777	44.3051
0.00354813	44.4332
0.00356862	44.5617
0.00358922	44.6905
0.00360994	44.8197
0.00363078	44.9493
0.00365174	45.0793
0.00367282	45.2096
0.00369403	45.3403
0.00371535	45.4714
0.0037368	45.6029
0.00375837	45.7348
0.00378007	45.867
0.00380189	45.9996
0.00382384	46.1326
0.00384592	46.266
0.00386812	46.3997
0.00389045	46.5339
0.00391291	46.6684
0.0039355	46.8033
0.00395822	46.9386
0.00398107	47.0743
0.00400405	47.2104
0.00402717	47.3469
0.00405042	47.4838
0.0040738	47.621
0.00409732	47.7587
0.00412098	47.8968
0.00414477	48.0352
0.00416869	48.1741
0.00419276	48.3133
0.00421697	48.453
0.00424131	48.5931
0.0042658	48.7335
0.00429042	48.8744
0.00431519	49.0157
0.0043401	49.1574
0.00436516	49.2995
0.00439036	49.442
0.0044157	49.5849
0.0044412	49.7282
0.00446684	49.8719
0.00449262	50.0161
0.00451856	50.1607
0.00454465	50.3057
0.00457088	50.4511
0.00459727	50.5969
0.00462381	50.7431
0.0046505	50.8898
0.00467735	51.0369
0.00470435	51.1844
0.00473151	51.3323
0.00475883	51.4807
0.0047863	51.6295
0.00481393	51.7787
0.00484172	51.9283
0.00486968	52.0784
0.00489779	52.2289
0.00492606	52.3799
0.0049545	52.5313
0.0049831	52.6831
0.00501187	52.8353
0.00504081	52.988
0.00506991	53.1412
0.00509918	53.2947
0.00512861	53.4488
0.00515822	53.6032
0.005188	53.7581
0.00521795	53.9135
0.00524807	54.0693
0.00527837	54.2255
0.00530884	54.3822
0.00533949	54.5394
0.00537032	54.697
0.00540132	54.8551
0.0054325	55.0136
0.00546387	55.1726
0.00549541	55.332
0.00552713	55.4919
0.00555904	55.6522
0.00559114	55.813
0.00562341	56.1143
0.00565588	56.2761
0.00568853	56.4383
0.00572137	56.6009
0.0057544	56.7641
0.00578762	56.9277
0.00582103	57.0918
0.00585464	57.2563
0.00588844	57.4214
0.00592243	57.5869
0.00595662	57.7529
0.00599101	57.9193
0.0060256	58.0863
0.00606038	58.2537
0.00609537	58.4216
0.00613056	58.59
0.00616595	58.7589
0.00620155	58.9283
0.00623735	59.0981
0.00627336	59.2685
0.00630957	59.4393
0.006346	59.6106
0.00638263	59.7824
0.00641948	59.9548
0.00645654	60.1276
0.00649382	60.3009
0.00653131	60.4747
0.00656901	60.649
0.00660693	60.8238
0.00664508	60.9991
0.00668344	61.1749
0.00672202	61.3513
0.00676083	61.5281
0.00679986	61.7055
0.00683912	61.8833
0.0068786	62.0617
0.00691831	62.2406
0.00695825	62.42
0.00699842	62.5999
0.00703882	62.7803
0.00707946	62.9613
0.00712033	63.1428
0.00716143	63.3248
0.00720278	63.5073
0.00724436	63.6903
0.00728618	63.8739
0.00732825	64.058
0.00737055	64.2427
0.0074131	64.4278
0.0074559	64.6136
0.00749894	64.7998
0.00754223	64.9866
0.00758578	65.1739
0.00762957	65.3617
0.00767361	65.5501
0.00771792	65.7391
0.00776247	65.9286
0.00780728	66.1186
0.00785236	66.3092
0.00789769	66.5003
0.00794328	66.692
0.00798914	66.8842
0.00803526	67.077
0.00808165	67.2703
0.00812831	67.4642
0.00817523	67.6587
0.00822243	67.8537
0.0082699	68.0493
0.00831764	68.2454
0.00836566	68.4421
0.00841395	68.6394
0.00846253	68.8373
0.00851138	69.0357
0.00856052	69.2347
0.00860994	69.4342
0.00865964	69.6344
0.00870964	69.8351
0.00875992	70.0364
0.00881049	70.2382
0.00886135	70.4407
0.00891251	70.6437
0.00896396	70.8474
0.00901571	71.0516
0.00906776	71.2564
0.00912011	71.4617
0.00917276	71.6677
0.00922571	71.8743
0.00927897	72.0815
0.00933254	72.2892
0.00938642	72.4976
0.00944061	72.7066
0.00949511	72.9161
0.00954993	73.1263
0.00960506	73.3371
0.00966051	73.5485
0.00971628	73.7605
0.00977237	73.9731
0.00982879	74.1863
0.00988553	74.4001
0.0099426	74.6146
0.01	74.8296
0.0100577	75.0453
0.0101158	75.2616
0.0101742	75.4786
0.0102329	75.6961
0.010292	75.9143
0.0103514	76.1331
0.0104112	76.3526
0.0104713	76.5726
0.0105317	76.7934
0.0105925	77.0147
0.0106537	77.2367
0.0107152	77.4593
0.0107771	77.6826
0.0108393	77.9065
0.0109018	78.131
0.0109648	78.3562
0.0110281	78.5821
0.0110917	78.8086
0.0111558	79.0358
0.0112202	79.2636
0.011285	79.492
0.0113501	79.7212
0.0114156	79.9509
0.0114815	80.1814
0.0115478	80.4125
0.0116145	80.6443
0.0116815	80.8767
0.011749	81.1099
0.0118168	81.3436
0.011885	81.5781
0.0119536	81.8132
0.0120226	82.0491
0.0120921	82.2856
0.0121619	82.5227
0.0122321	82.7606
0.0123027	82.9991
0.0123737	83.2384
0.0124451	83.4783
0.012517	83.7189
0.0125893	83.9602
0.0126619	84.2022
0.012735	84.4449
0.0128086	84.6883
0.0128825	84.9324
0.0129569	85.1773
0.0130317	85.4228
0.0131069	85.669
0.0131826	85.9159
0.0132587	86.1636
0.0133352	86.4119
0.0134122	86.661
0.0134896	86.9108
0.0135675	87.1613
0.0136458	87.4125
0.0137246	87.6645
0.0138038	87.9172
0.0138835	88.1706
0.0139637	88.4247
0.0140443	88.6796
0.0141254	88.9352
0.0142069	89.1915
0.0142889	89.4486
0.0143714	89.7064
0.0144544	89.965
0.0145378	90.2243
0.0146218	90.4844
0.0147062	90.7452
0.0147911	91.0068
0.0148765	91.2691
0.0149624	91.5321
0.0150487	91.796
0.0151356	92.0606
0.015223	92.3259
0.0153109	92.592
0.0153993	92.8589
0.0154882	93.1266
0.0155776	93.395
0.0156675	93.6642
0.015758	93.9342
0.0158489	94.2049
0.0159404	94.4765
0.0160325	94.7488
0.016125	95.0219
0.0162181	95.2958
0.0163117	95.5704
0.0164059	95.8459
0.0165006	96.1222
0.0165959	96.3992
0.0166917	96.6771
0.016788	96.9558
0.016885	97.2352
0.0169824	97.5155
0.0170805	97.7966
0.0171791	98.0785
0.0172783	98.3612
0.017378	98.6447
0.0174783	98.929
0.0175792	99.2142
0.0176807	99.5001
0.0177828	99.7869
0.0178855	100.075
0.0179887	100.363
0.0180926	100.652
0.018197	100.942
0.0183021	101.233
0.0184077	101.525
0.018514	101.818
0.0186209	102.111
0.0187284	102.406
0.0188365	102.701
0.0189452	102.997
0.0190546	103.294
0.0191646	103.591
0.0192752	103.89
0.0193865	104.189
0.0194984	104.49
0.019611	104.791
0.0197242	105.093
0.0198381	105.396
0.0199526	105.7
0.0200678	106.004
0.0201837	106.31
0.0203002	106.616
0.0204174	106.924
0.0205353	107.232
0.0206538	107.541
0.020773	107.851
0.020893	108.162
0.0210136	108.473
0.0211349	108.786
0.0212569	109.1
0.0213796	109.414
0.021503	109.73
0.0216272	110.046
0.021752	110.363
0.0218776	110.681
0.0220039	111
0.0221309	111.32
0.0222587	111.641
0.0223872	111.963
0.0225165	112.285
0.0226464	112.609
0.0227772	112.934
0.0229087	113.259
0.0230409	113.586
0.0231739	113.913
0.0233077	114.241
0.0234423	114.571
0.0235776	114.901
0.0237137	115.232
0.0238506	115.564
0.0239883	115.897
0.0241268	116.231
0.0242661	116.566
0.0244062	116.902
0.0245471	117.239
0.0246888	117.577
0.0248313	117.916
0.0249747	118.256
0.0251189	118.597
0.0252639	118.939
0.0254097	119.282
0.0255564	119.625
0.025704	119.97
0.0258523	120.316
0.0260016	120.663
0.0261517	121.011
0.0263027	121.359
0.0264545	121.709
0.0266073	122.06
0.0267609	122.412
0.0269153	122.765
0.0270707	123.119
0.027227	123.473
0.0273842	123.829
0.0275423	124.186
0.0277013	124.544
0.0278612	124.903
0.0280221	125.263
0.0281838	125.624
0.0283465	125.986
0.0285102	126.35
0.0286748	126.714
0.0288403	127.079
0.0290068	127.445
0.0291743	127.813
0.0293427	128.181
0.0295121	128.55
0.0296825	128.921
0.0298538	129.293
0.0300262	129.665
0.0301995	130.039
0.0303739	130.414
0.0305492	130.79
0.0307256	131.167
0.030903	131.545
0.0310814	131.924
0.0312608	132.304
0.0314413	132.686
0.0316228	133.068
0.0318053	133.452
0.031989	133.836
0.0321736	134.222
0.0323594	134.609
0.0325462	134.997
0.0327341	135.386
0.032923	135.776
0.0331131	136.168
0.0333043	136.56
0.0334965	136.954
0.0336899	137.348
0.0338844	137.744
0.03408	138.141
0.0342768	138.54
0.0344747	138.939
0.0346737	139.339
0.0348739	139.741
0.0350752	140.144
0.0352777	140.548
0.0354813	140.953
0.0356862	141.359
0.0358922	141.767
0.0360994	142.175
0.0363078	142.585
0.0365174	142.996
0.0367282	143.408
0.0369403	143.821
0.0371535	144.236
0.037368	144.652
0.0375837	145.069
0.0378007	145.487
0.0380189	145.906
0.0382384	146.327
0.0384592	146.748
0.0386812	147.171
0.0389045	147.596
0.0391291	148.021
0.039355	148.448
0.0395822	148.876
0.0398107	149.305
0.0400405	149.735
0.0402717	150.167
0.0405042	150.6
0.040738	151.034
0.0409732	151.469
0.0412098	151.906
0.0414477	152.343
0.0416869	152.783
0.0419276	153.223
0.0421697	153.665
0.0424131	154.107
0.042658	154.552
0.0429042	154.997
0.0431519	155.444
0.043401	155.892
0.0436516	156.341
0.0439036	156.792
0.044157	157.244
0.044412	157.697
0.0446684	158.152
0.0449262	158.607
0.0451856	159.065
0.0454465	159.523
0.0457088	159.983
0.0459727	160.444
0.0462381	160.907
0.046505	161.37
0.0467735	161.835
0.0470435	162.302
0.0473151	162.77
0.0475883	163.239
0.047863	163.709
0.0481393	164.181
0.0484172	164.655
0.0486968	165.129
0.0489779	165.605
0.0492606	166.082
0.049545	166.561
0.049831	167.041
0.0501187	167.523
0.0504081	168.006
0.0506991	168.49
0.0509918	168.975
0.0512861	169.463
0.0515822	169.951
0.05188	170.441
0.0521795	170.932
0.0524807	171.425
0.0527837	171.919
0.0530884	172.414
0.0533949	172.911
0.0537032	173.41
0.0540132	173.91
0.054325	174.411
0.0546387	174.914
0.0549541	175.418
0.0552713	175.923
0.0555904	176.43
0.0559114	176.939
0.0562341	177.449
0.0565588	177.961
0.0568853	178.473
0.0572137	178.988
0.057544	179.504
0.0578762	180.021
0.0582103	180.54
0.0585464	181.06
0.0588844	181.582
0.0592243	182.106
0.0595662	182.631
0.0599101	183.157
0.060256	183.685
0.0606038	184.214
0.0609537	184.745
0.0613056	185.278
0.0616595	185.812
0.0620155	186.348
0.0623735	186.885
0.0627336	187.423
0.0630957	187.964
0.06346	188.505
0.0638263	189.049
0.0641948	189.594
0.0645654	190.14
0.0649382	190.688
0.0653131	191.238
0.0656901	191.789
0.0660693	192.342
0.0664508	192.896
0.0668344	193.452
0.0672202	194.01
0.0676083	194.569
0.0679986	195.13
0.0683912	195.692
0.068786	196.256
0.0691831	196.822
0.0695825	197.389
0.0699842	197.958
0.0703882	198.529
0.0707946	199.101
0.0712033	199.675
0.0716143	200.251
0.0720278	200.828
0.0724436	201.407
0.0728618	201.987
0.0732825	202.569
0.0737055	203.153
0.074131	203.739
0.074559	204.326
0.0749894	204.915
0.0754223	205.506
0.0758578	206.098
0.0762957	206.692
0.0767361	207.288
0.0771792	207.885
0.0776247	208.484
0.0780728	209.085
0.0785236	209.688
0.0789769	210.292
0.0794328	210.899
0.0798914	211.506
0.0803526	212.116
0.0808165	212.727
0.0812831	213.341
0.0817523	213.956
0.0822243	214.572
0.082699	215.191
0.0831764	215.811
0.0836566	216.433
0.0841395	217.057
0.0846253	217.683
0.0851138	218.31
0.0856052	218.939
0.0860994	219.57
0.0865964	220.203
0.0870964	220.838
0.0875992	221.474
0.0881049	222.113
0.0886135	222.753
0.0891251	223.395
0.0896396	224.039
0.0901571	224.685
0.0906776	225.332
0.0912011	225.982
0.0917276	226.633
0.0922571	227.286
0.0927897	227.942
0.0933254	228.599
0.0938642	229.258
0.0944061	229.918
0.0949511	230.581
0.0954993	231.246
0.0960506	231.912
0.0966051	232.581
0.0971628	233.251
0.0977237	233.923
0.0982879	234.598
0.0988553	235.274
0.099426	235.952
0.1	236.632
0.100577	237.314
0.101158	237.998
0.101742	238.684
0.102329	239.372
0.10292	240.062
0.103514	240.754
0.104112	241.448
0.104713	242.144
0.105317	242.842
0.105925	243.542
0.106537	244.244
0.107152	244.948
0.107771	245.654
0.108393	246.362
0.109018	247.072
0.109648	247.784
0.110281	248.498
0.110917	249.215
0.111558	249.933
0.112202	250.653
0.11285	251.376
0.113501	252.1
0.114156	252.827
0.114815	253.556
0.115478	254.287
0.116145	255.02
0.116815	255.755
0.11749	256.492
0.118168	257.231
0.11885	257.973
0.119536	258.716
0.120226	259.462
0.120921	260.21
0.121619	260.96
0.122321	261.712
0.123027	262.466
0.123737	263.223
0.124451	263.982
0.12517	264.742
0.125893	265.506
0.126619	266.271
0.12735	267.038
0.128086	267.808
0.128825	268.58
0.129569	269.354
0.130317	270.13
0.131069	270.909
0.131826	271.69
0.132587	272.473
0.133352	273.258
0.134122	274.046
0.134896	274.836
0.135675	275.628
0.136458	276.423
0.137246	277.219
0.138038	278.018
0.138835	278.82
0.139637	279.623
0.140443	280.429
0.141254	281.238
0.142069	282.048
0.142889	282.861
0.143714	283.677
0.144544	284.494
0.145378	285.314
0.146218	286.137
0.147062	286.961
0.147911	287.789
0.148765	288.618
0.149624	289.45
0.150487	290.284
0.151356	291.121
0.15223	291.96
0.153109	292.802
0.153993	293.646
0.154882	294.492
0.155776	295.341
0.156675	296.192
0.15758	297.046
0.158489	297.902
0.159404	298.761
0.160325	299.622
0.16125	300.486
0.162181	301.352
0.163117	302.22
0.164059	303.091
0.165006	303.965
0.165959	304.841
0.166917	305.72
0.16788	306.601
0.16885	307.485
0.169824	308.371
0.170805	309.26
0.171791	310.151
0.172783	311.045
0.17378	311.942
0.174783	312.841
0.175792	313.743
0.176807	314.647
0.177828	315.554
0.178855	316.463
0.179887	317.376
0.180926	318.29
0.18197	319.208
0.183021	320.128
0.184077	321.051
0.18514	321.976
0.186209	322.904
0.187284	323.835
0.188365	324.768
0.189452	325.704
0.190546	326.643
0.191646	327.585
0.192752	328.529
0.193865	329.476
0.194984	330.426
0.19611	331.378
0.197242	332.333
0.198381	333.291
0.199526	334.252
0.200678	335.215
0.201837	336.181
0.203002	337.15
0.204174	338.122
0.205353	339.097
0.206538	340.074
0.20773	341.054
0.20893	342.037
0.210136	343.023
0.211349	344.012
0.212569	345.004
0.213796	345.998
0.21503	346.995
0.216272	347.995
0.21752	348.999
0.218776	350.004
0.220039	351.013
0.221309	352.025
0.222587	353.04
0.223872	354.057
0.225165	355.078
0.226464	356.101
0.227772	357.128
0.229087	358.157
0.230409	359.189
0.231739	360.225
0.233077	361.263
0.234423	362.304
0.235776	363.349
0.237137	364.396
0.238506	365.446
0.239883	366.5
0.241268	367.556
0.242661	368.616
0.244062	369.678
0.245471	370.744
0.246888	371.812
0.248313	372.884
0.249747	373.959
0.251189	375.037
0.252639	376.118
0.254097	377.202
0.255564	378.289
0.25704	379.379
0.258523	380.473
0.260016	381.569
0.261517	382.669
0.263027	383.772
0.264545	384.878
0.266073	385.988
0.267609	387.1
0.269153	388.216
0.270707	389.335
0.27227	390.457
0.273842	391.583
0.275423	392.711
0.277013	393.843
0.278612	394.979
0.280221	396.117
0.281838	397.259
0.283465	398.404
0.285102	399.552
0.286748	400.704
0.288403	401.859
0.290068	403.017
0.291743	404.179
0.293427	405.344
0.295121	406.512
0.296825	407.684
0.298538	408.859
0.300262	410.038
0.301995	411.219
0.303739	412.405
0.305492	413.593
0.307256	414.786
0.30903	415.981
0.310814	417.18
0.312608	418.383
0.314413	419.589
0.316228	420.798
0.318053	422.011
0.31989	423.227
0.321736	424.447
0.323594	425.671
0.325462	426.898
0.327341	428.128
0.32923	429.362
0.331131	430.6
0.333043	431.841
0.334965	433.085
0.336899	434.334
0.338844	435.586
0.3408	436.841
0.342768	438.1
0.344747	439.363
0.346737	440.63
0.348739	441.9
0.350752	443.173
0.352777	444.451
0.354813	445.732
0.356862	447.017
0.358922	448.305
0.360994	449.597
0.363078	450.893
0.365174	452.193
0.367282	453.496
0.369403	454.803
0.371535	456.114
0.37368	457.429
0.375837	458.747
0.378007	460.07
0.380189	461.396
0.382384	462.726
0.384592	464.059
0.386812	465.397
0.389045	466.738
0.391291	468.084
0.39355	469.433
0.395822	470.786
0.398107	472.143
0.400405	473.504
0.402717	474.869
0.405042	476.238
0.40738	477.61
0.409732	478.987
0.412098	480.368
0.414477	481.752
0.416869	483.141
0.419276	484.533
0.421697	485.93
0.424131	487.331
0.42658	488.735
0.429042	490.144
0.431519	491.557
0.43401	492.974
0.436516	494.394
0.439036	495.82
0.44157	497.249
0.44412	498.682
0.446684	500.119
0.449262	501.561
0.451856	503.007
0.454465	504.456
0.457088	505.91
0.459727	507.369
0.462381	508.831
0.46505	510.298
0.467735	511.769
0.470435	513.244
0.473151	514.723
0.475883	516.207
0.47863	517.695
0.481393	519.187
0.484172	520.683
0.486968	522.184
0.489779	523.689
0.492606	525.199
0.49545	526.712
0.49831	528.231
0.501187	529.845
0.504081	531.598
0.506991	533.36
0.509918	535.132
0.512861	536.914
0.515822	538.706
0.5188	540.507
0.521795	542.318
0.524807	544.139
0.527837	545.97
0.530884	547.811
0.533949	549.661
0.537032	551.522
0.540132	553.392
0.54325	555.272
0.546387	557.163
0.549541	559.063
0.552713	560.974
0.555904	562.894
0.559114	564.825
0.562341	566.766
0.565588	568.717
0.568853	570.678
0.572137	572.649
0.57544	574.63
0.578762	576.622
0.582103	578.624
0.585464	580.636
0.588844	582.658
0.592243	584.691
0.595662	586.733
0.599101	588.786
0.60256	590.789
0.606038	592.78
0.609537	594.78
0.613056	596.791
0.616595	598.811
0.620155	600.841
0.623735	602.881
0.627336	604.931
0.630957	606.99
0.6346	609.059
0.638263	611.139
0.641948	613.228
0.645654	615.326
0.649382	617.435
0.653131	619.553
0.656901	621.681
0.660693	623.819
0.664508	625.966
0.668344	628.124
0.672202	630.291
0.676083	632.467
0.679986	634.653
0.683912	636.849
0.68786	639.055
0.691831	641.27
0.695825	643.494
0.699842	645.728
0.703882	647.971
0.707946	650.224
0.712033	652.486
0.716143	654.758
0.720278	657.039
0.724436	659.329
0.728618	661.628
0.732825	663.936
0.737055	666.254
0.74131	668.58
0.74559	670.916
0.749894	673.26
0.754223	675.613
0.758578	677.975
0.762957	680.346
0.767361	682.725
0.771792	685.113
0.776247	687.509
0.780728	689.914
0.785236	692.327
0.789769	694.748
0.794328	697.177
0.798914	699.615
0.803526	702.043
0.808165	704.474
0.812831	706.912
0.817523	709.359
0.822243	711.813
0.82699	714.275
0.831764	716.744
0.836566	719.221
0.841395	721.706
0.846253	724.199
0.851138	726.699
0.856052	729.207
0.860994	731.722
0.865964	734.246
0.870964	736.776
0.875992	739.315
0.881049	741.861
0.886135	744.414
0.891251	746.975
0.896396	749.544
0.901571	752.12
0.906776	754.704
0.912011	757.295
0.917276	759.894
0.922571	762.5
0.927897	765.114
0.933254	767.735
0.938642	770.364
0.944061	773
0.949511	775.644
0.954993	778.294
0.960506	780.953
0.966051	783.618
0.971628	786.291
0.977237	788.971
0.982879	791.659
0.988553	794.353
0.99426	797.056
1	799.765
1.00577	802.48
1.01158	805.203
1.01742	807.932
1.02329	810.669
1.0292	813.413
1.03514	816.164
1.04112	818.923
1.04713	821.688
1.05317	824.46
1.05925	827.239
1.06537	830.026
1.07152	832.819
1.07771	835.619
1.08393	838.426
1.09018	841.24
1.09648	844.06
1.10281	846.888
1.10917	849.722
1.11558	852.563
1.12202	855.411
1.1285	858.265
1.13501	861.127
1.14156	863.994
1.14815	866.869
1.15478	869.75
1.16145	872.637
1.16815	875.532
1.1749	878.432
1.18168	881.339
1.1885	884.253
1.19536	887.173
1.20226	890.099
1.20921	893.032
1.21619	895.971
1.22321	898.916
1.23027	901.867
1.23737	904.825
1.24451	907.788
1.2517	910.758
1.25893	913.733
1.26619	916.714
1.2735	919.701
1.28086	922.694
1.28825	925.692
1.29569	928.696
1.30317	931.706
1.31069	934.721
1.31826	937.741
1.32587	940.766
1.33352	943.797
1.34122	946.833
1.34896	949.874
1.35675	952.92
1.36458	955.97
1.37246	959.026
1.38038	962.086
1.38835	965.151
1.39637	968.221
1.40443	971.294
1.41254	974.373
1.42069	977.455
1.42889	980.542
1.43714	983.634
1.44544	986.729
1.45378	989.828
1.46218	992.932
1.47062	996.039
1.47911	999.15
1.48765	1002.27
1.49624	1005.38
1.50487	1008.51
1.51356	1011.63
1.5223	1014.76
1.53109	1017.9
1.53993	1021.03
1.54882	1024.17
1.55776	1027.31
1.56675	1030.46
1.5758	1033.61
1.58489	1036.76
1.59404	1039.92
1.60325	1043.08
1.6125	1046.24
1.62181	1049.4
1.63117	1052.57
1.64059	1055.74
1.65006	1058.91
1.65959	1062.09
1.66917	1065.26
1.6788	1068.44
1.6885	1071.62
1.69824	1074.81
1.70805	1077.99
1.71791	1081.18
1.72783	1084.37
1.7378	1087.56
1.74783	1090.75
1.75792	1093.94
1.76807	1097.14
1.77828	1100.34
1.78855	1103.53
1.79887	1106.73
1.80926	1109.93
1.8197	1113.13
1.83021	1116.33
1.84077	1119.54
1.8514	1122.74
1.86209	1125.94
1.87284	1129.14
1.88365	1132.35
1.89452	1135.55
1.90546	1138.75
1.91646	1141.95
1.92752	1145.15
1.93865	1148.35
1.94984	1151.55
1.9611	1154.75
1.97242	1157.94
1.98381	1161.13
1.99526	1164.32
2.00678	1167.52
2.01837	1170.71
2.03002	1173.89
2.04174	1177.08
2.05353	1180.26
2.06538	1183.44
2.0773	1186.62
2.0893	1189.79
2.10136	1192.96
2.11349	1196.13
2.12569	1199.29
2.13796	1202.45
2.1503	1205.6
2.16272	1208.75
2.1752	1211.9
2.18776	1215.04
2.20039	1218.18
2.21309	1221.31
2.22587	1224.44
2.23872	1227.56
2.25165	1230.68
2.26464	1233.79
2.27772	1236.89
2.29087	1239.99
2.30409	1243.09
2.31739	1246.18
2.33077	1249.26
2.34423	1252.33
2.35776	1255.4
2.37137	1258.46
2.38506	1261.52
2.39883	1264.57
2.41268	1267.61
2.42661	1270.64
2.44062	1273.67
2.45471	1276.69
2.46888	1279.7
2.48313	1282.7
2.49747	1285.69
2.51189	1288.68
2.52639	1291.66
2.54097	1294.63
2.55564	1297.59
2.5704	1300.54
2.58523	1303.48
2.60016	1306.42
2.61517	1309.34
2.63027	1312.26
2.64545	1315.16
2.66073	1318.06
2.67609	1320.94
2.69153	1323.82
2.70707	1326.69
2.7227	1329.54
2.73842	1332.39
2.75423	1335.22
2.77013	1338.05
2.78612	1340.86
2.80221	1343.66
2.81838	1346.46
2.83465	1349.24
2.85102	1352.01
2.86748	1354.77
2.88403	1357.52
2.90068	1360.25
2.91743	1362.98
2.93427	1365.69
2.95121	1368.4
2.96825	1371.09
2.98538	1373.77
3.00262	1376.43
3.01995	1379.03
3.03739	1381.62
3.05492	1384.2
3.07256	1386.77
3.0903	1389.32
3.10814	1391.86
3.12608	1394.39
3.14413	1396.9
3.16228	1399.4
3.18053	1401.89
3.1989	1404.36
3.21736	1406.82
3.23594	1409.26
3.25462	1411.69
3.27341	1414.1
3.2923	1416.5
3.31131	1418.88
3.33043	1421.25
3.34965	1423.6
3.36899	1425.94
3.38844	1428.26
3.408	1430.56
3.42768	1432.85
3.44747	1435.12
3.46737	1437.37
3.48739	1439.61
3.50752	1441.83
3.52777	1444.03
3.54813	1446.22
3.56862	1448.39
3.58922	1450.54
3.60994	1452.67
3.63078	1454.78
3.65174	1456.88
3.67282	1458.96
3.69403	1461.02
3.71535	1463.06
3.7368	1465.08
3.75837	1467.08
3.78007	1469.07
3.80189	1471.03
3.82384	1472.98
3.84592	1474.91
3.86812	1476.81
3.89045	1478.7
3.91291	1480.57
3.9355	1482.42
3.95822	1484.25
3.98107	1486.06
4.00405	1487.85
4.02717	1489.63
4.05042	1491.4
4.0738	1493.15
4.09732	1494.87
4.12098	1496.58
4.14477	1498.26
4.16869	1499.93
4.19276	1501.57
4.21697	1503.19
4.24131	1504.8
4.2658	1506.38
4.29042	1507.94
4.31519	1509.48
4.3401	1511
4.36516	1512.5
4.39036	1513.98
4.4157	1515.44
4.4412	1516.87
4.46684	1518.29
4.49262	1519.68
4.51856	1521.06
4.54465	1522.41
4.57088	1523.74
4.59727	1525.05
4.62381	1526.35
4.6505	1527.62
4.67735	1528.87
4.70435	1530.1
4.73151	1531.31
4.75883	1532.5
4.7863	1533.67
4.81393	1534.82
4.84172	1535.95
4.86968	1537.06
4.89779	1538.16
4.92606	1539.23
4.9545	1540.29
4.9831	1541.32
5.01187	1542.34
5.04081	1543.34
5.06991	1544.33
5.09918	1545.29
5.12861	1546.24
5.15822	1547.17
5.188	1548.08
5.21795	1548.98
5.24807	1549.85
5.27837	1550.71
5.30884	1551.54
5.33949	1552.36
5.37032	1553.16
5.40132	1553.95
5.4325	1554.71
5.46387	1555.46
5.49541	1556.18
5.52713	1556.89
5.55904	1557.58
5.59114	1558.26
5.62341	1558.91
5.65588	1559.55
5.68853	1560.16
5.72137	1560.76
5.7544	1561.35
5.78762	1561.91
5.82103	1562.46
5.85464	1562.99
5.88844	1563.5
5.92243	1563.99
5.95662	1564.47
5.99101	1564.93
6.0256	1565.38
6.06038	1565.81
6.09537	1566.22
6.13056	1566.62
6.16595	1567
6.20155	1567.36
6.23735	1567.71
6.27336	1568.04
6.30957	1568.35
6.346	1568.65
6.38263	1568.93
6.41948	1569.19
6.45654	1569.43
6.49382	1569.66
6.53131	1569.86
6.56901	1570.06
6.60693	1570.23
6.64508	1570.39
6.68344	1570.53
6.72202	1570.65
6.76083	1570.75
6.79986	1570.84
6.83912	1570.91
6.8786	1570.96
6.91831	1571
6.95825	1571.02
6.99842	1571.02
7.03882	1571
7.07946	1570.97
7.12033	1570.92
7.16143	1570.86
7.20278	1570.78
7.24436	1570.68
7.28618	1570.56
7.32825	1570.43
7.37055	1570.29
7.4131	1570.12
7.4559	1569.95
7.49894	1569.75
7.54223	1569.55
7.58578	1569.32
7.62957	1569.08
7.67361	1568.83
7.71792	1568.56
7.76247	1568.28
7.80728	1567.99
7.85236	1567.68
7.89769	1567.36
7.94328	1567.03
7.98914	1566.68
8.03526	1566.31
8.08165	1565.93
8.12831	1565.54
8.17523	1565.13
8.22243	1564.71
8.2699	1564.28
8.31764	1563.84
8.36566	1563.38
8.41395	1562.91
8.46253	1562.43
8.51138	1561.94
8.56052	1561.43
8.60994	1560.92
8.65964	1560.38
8.70964	1559.84
8.75992	1559.29
8.81049	1558.72
8.86135	1558.14
8.91251	1557.54
8.96396	1556.94
9.01571	1556.32
9.06776	1555.69
9.12011	1555.04
9.17276	1554.39
9.22571	1553.72
9.27897	1553.03
9.33254	1552.34
9.38642	1551.63
9.44061	1550.91
9.49511	1550.18
9.54993	1549.43
9.60506	1548.68
9.66051	1547.91
9.71628	1547.12
9.77237	1546.33
9.82879	1545.52
9.88553	1544.7
9.9426	1543.87
10	1543.03
10.0577	1542.17
10.1158	1541.31
10.1742	1540.43
10.2329	1539.54
10.292	1538.64
10.3514	1537.73
10.4112	1536.8
10.4713	1535.87
10.5317	1534.92
10.5925	1533.96
10.6537	1532.98
10.7152	1532
10.7771	1531
10.8393	1529.99
10.9018	1528.97
10.9648	1527.94
11.0281	1526.9
11.0917	1525.84
11.1558	1524.78
11.2202	1523.7
11.285	1522.61
11.3501	1521.5
11.4156	1520.39
11.4815	1519.27
11.5478	1518.13
11.6145	1516.98
11.6815	1515.82
11.749	1514.66
11.8168	1513.48
11.885	1512.28
11.9536	1511.08
12.0226	1509.87
12.0921	1508.65
12.1619	1507.42
12.2321	1506.17
12.3027	1504.92
12.3737	1503.65
12.4451	1502.38
12.517	1501.1
12.5893	1499.8
12.6619	1498.5
12.735	1497.18
12.8086	1495.86
12.8825	1494.52
12.9569	1493.17
13.0317	1491.82
13.1069	1490.45
13.1826	1489.08
13.2587	1487.69
13.3352	1486.3
13.4122	1484.89
13.4896	1483.48
13.5675	1482.05
13.6458	1480.62
13.7246	1479.18
13.8038	1477.73
13.8835	1476.27
13.9637	1474.8
14.0443	1473.32
14.1254	1471.83
14.2069	1470.33
14.2889	1468.83
14.3714	1467.32
14.4544	1465.79
14.5378	1464.26
14.6218	1462.72
14.7062	1461.17
14.7911	1459.61
14.8765	1458.04
14.9624	1456.47
15.0487	1454.88
15.1356	1453.29
15.223	1451.68
15.3109	1450.07
15.3993	1448.45
15.4882	1446.82
15.5776	1445.18
15.6675	1443.53
15.758	1441.87
15.8489	1440.2
15.9404	1438.53
16.0325	1436.84
16.125	1435.15
16.2181	1433.45
16.3117	1431.73
16.4059	1430.01
16.5006	1428.28
16.5959	1426.55
16.6917	1424.8
16.788	1423.04
16.885	1421.28
16.9824	1419.51
17.0805	1417.73
17.1791	1415.94
17.2783	1414.14
17.378	1412.34
17.4783	1410.53
17.5792	1408.71
17.6807	1406.88
17.7828	1405.05
17.8855	1403.21
17.9887	1401.36
18.0926	1399.51
18.197	1397.64
18.3021	1395.77
18.4077	1393.9
18.514	1392.02
18.6209	1390.13
18.7284	1388.23
18.8365	1386.33
18.9452	1384.42
19.0546	1382.5
19.1646	1380.58
19.2752	1378.64
19.3865	1376.71
19.4984	1374.76
19.611	1372.81
19.7242	1370.85
19.8381	1368.89
19.9526	1366.92
20.0678	1364.94
20.1837	1362.96
20.3002	1360.96
20.4174	1358.96
20.5353	1356.96
20.6538	1354.95
20.773	1352.93
20.893	1350.9
21.0136	1348.87
21.1349	1346.83
21.2569	1344.79
21.3796	1342.74
21.503	1340.68
21.6272	1338.61
21.752	1336.54
21.8776	1334.46
22.0039	1332.38
22.1309	1330.29
22.2587	1328.19
22.3872	1326.09
22.5165	1323.98
22.6464	1321.86
22.7772	1319.74
22.9087	1317.61
23.0409	1315.47
23.1739	1313.33
23.3077	1311.18
23.4423	1309.03
23.5776	1306.86
23.7137	1304.7
23.8506	1302.52
23.9883	1300.35
24.1268	1298.16
24.2661	1295.97
24.4062	1293.77
24.5471	1291.57
24.6888	1289.36
24.8313	1287.14
24.9747	1284.92
25.1189	1282.69
25.2639	1280.46
25.4097	1278.22
25.5564	1275.98
25.704	1273.73
25.8523	1271.47
26.0016	1269.21
26.1517	1266.94
26.3027	1264.67
26.4545	1262.39
26.6073	1260.11
26.7609	1257.82
26.9153	1255.52
27.0707	1253.22
27.227	1250.92
27.3842	1248.61
27.5423	1246.29
27.7013	1243.97
27.8612	1241.65
28.0221	1239.32
28.1838	1236.98
28.3465	1234.64
28.5102	1232.29
28.6748	1229.94
28.8403	1227.59
29.0068	1225.23
29.1743	1222.86
29.3427	1220.49
29.5121	1218.12
29.6825	1215.74
29.8538	1213.36
30.0262	1210.98
30.1995	1208.6
30.3739	1206.22
30.5492	1203.83
30.7256	1201.44
30.903	1199.05
31.0814	1196.65
31.2608	1194.25
31.4413	1191.84
31.6228	1189.43
31.8053	1187.02
31.989	1184.6
32.1736	1182.18
32.3594	1179.76
32.5462	1177.33
32.7341	1174.9
32.923	1172.46
33.1131	1170.03
33.3043	1167.58
33.4965	1165.14
33.6899	1162.69
33.8844	1160.24
34.08	1157.78
34.2768	1155.33
34.4747	1152.87
34.6737	1150.4
34.8739	1147.93
35.0752	1145.46
35.2777	1142.99
35.4813	1140.52
35.6862	1138.04
35.8922	1135.56
36.0994	1133.07
36.3078	1130.58
36.5174	1128.1
36.7282	1125.6
36.9403	1123.11
37.1535	1120.61
37.368	1118.11
37.5837	1115.61
37.8007	1113.11
38.0189	1110.6
38.2384	1108.09
38.4592	1105.58
38.6812	1103.07
38.9045	1100.55
39.1291	1098.03
39.355	1095.51
39.5822	1092.99
39.8107	1090.47
40.0405	1087.94
40.2717	1085.41
40.5042	1082.87
40.738	1080.33
40.9732	1077.79
41.2098	1075.25
41.4477	1072.71
41.6869	1070.17
41.9276	1067.62
42.1697	1065.07
42.4131	1062.52
42.658	1059.97
42.9042	1057.42
43.1519	1054.87
43.401	1052.31
43.6516	1049.76
43.9036	1047.2
44.157	1044.64
44.412	1042.08
44.6684	1039.52
44.9262	1036.96
45.1856	1034.4
45.4465	1031.83
45.7088	1029.27
45.9727	1026.7
46.2381	1024.14
46.505	1021.57
46.7735	1019
47.0435	1016.43
47.3151	1013.86
47.5883	1011.29
47.863	1008.72
48.1393	1006.15
48.4172	1003.57
48.6968	1001
48.9779	998.424
49.2606	995.848
49.545	993.272
49.831	990.695
50.1187	988.117
50.4081	985.538
50.6991	982.959
50.9918	980.379
51.2861	977.799
51.5822	975.218
51.88	972.636
52.1795	970.055
52.4807	967.473
52.7837	964.891
53.0884	962.308
53.3949	959.726
53.7032	957.143
54.0132	954.561
54.325	951.978
54.6387	949.396
54.9541	946.813
55.2713	944.231
55.5904	941.649
55.9114	939.067
56.2341	936.486
56.5588	933.905
56.8853	931.324
57.2137	928.744
57.544	926.164
57.8762	923.584
58.2103	921.006
58.5464	918.427
58.8844	915.849
59.2243	913.272
59.5662	910.695
59.9101	908.119
60.256	905.541
60.6038	902.964
60.9537	900.387
61.3056	897.81
61.6595	895.235
62.0155	892.661
62.3735	890.087
62.7336	887.515
63.0957	884.943
63.46	882.373
63.8263	879.804
64.1948	877.237
64.5654	874.67
64.9382	872.105
65.3131	869.542
65.6901	866.98
66.0693	864.42
66.4508	861.861
66.8344	859.304
67.2202	856.748
67.6083	854.194
67.9986	851.642
68.3912	849.092
68.786	846.544
69.1831	843.998
69.5825	841.453
69.9842	838.91
70.3882	836.37
70.7946	833.831
71.2033	831.295
71.6143	828.76
72.0278	826.228
72.4436	823.697
72.8618	821.169
73.2825	818.642
73.7055	816.118
74.131	813.596
74.559	811.076
74.9894	808.558
75.4223	806.042
75.8578	803.527
76.2957	801.015
76.7361	798.505
77.1792	795.997
77.6247	793.491
78.0728	790.986
78.5236	788.484
78.9769	785.983
79.4328	783.484
79.8914	780.986
80.3526	778.498
80.8165	776.015
81.2831	773.534
81.7523	771.054
82.2243	768.577
82.699	766.101
83.1764	763.627
83.6566	761.156
84.1395	758.687
84.6253	756.22
85.1138	753.756
85.6052	751.294
86.0994	748.834
86.5964	746.378
87.0964	743.924
87.5992	741.473
88.1049	739.024
88.6135	736.579
89.1251	734.137
89.6396	731.697
90.1571	729.261
90.6776	726.828
91.2011	724.399
91.7276	721.972
92.2571	719.549
92.7897	717.13
93.3254	714.714
93.8642	712.302
94.4061	709.893
94.9511	707.488
95.4993	705.087
96.0506	702.689
96.6051	700.295
97.1628	697.905
97.7237	695.519
98.2879	693.137
98.8553	690.759
99.426	688.384
100	686.014
100.577	683.644
101.158	681.278
101.742	678.917
102.329	676.559
102.92	674.206
103.514	671.857
104.112	669.512
104.713	667.171
105.317	664.834
105.925	662.502
106.537	660.175
107.152	657.851
107.771	655.532
108.393	653.217
109.018	650.907
109.648	648.601
110.281	646.3
110.917	644.003
111.558	641.71
112.202	639.421
112.85	637.137
113.501	634.857
114.156	632.582
114.815	630.31
115.478	628.043
116.145	625.78
116.815	623.521
117.49	621.266
118.168	619.015
118.85	616.768
119.536	614.525
120.226	612.285
120.921	610.049
121.619	607.817
122.321	605.589
123.027	603.364
123.737	601.144
124.451	598.927
125.17	596.715
125.893	594.507
126.619	592.303
127.35	590.103
128.086	587.908
128.825	585.717
129.569	583.531
130.317	581.349
131.069	579.172
131.826	577
132.587	574.832
133.352	572.669
134.122	570.511
134.896	568.358
135.675	566.21
136.458	564.067
137.246	561.928
138.038	559.795
138.835	557.667
139.637	555.543
140.443	553.425
141.254	551.312
142.069	549.204
142.889	547.101
143.714	545.004
144.544	542.911
145.378	540.824
146.218	538.742
147.062	536.666
147.911	534.594
148.765	532.528
149.624	530.468
150.487	528.412
151.356	526.362
152.23	524.317
153.109	522.278
153.993	520.244
154.882	518.215
155.776	516.191
156.675	514.172
157.58	512.159
158.489	510.15
159.404	508.147
160.325	506.149
161.25	504.155
162.181	502.167
163.117	500.183
164.059	498.205
165.006	496.232
165.959	494.264
166.917	492.302
167.88	490.345
168.85	488.393
169.824	486.446
170.805	484.505
171.791	482.569
172.783	480.639
173.78	478.714
174.783	476.795
175.792	474.881
176.807	472.973
177.828	471.07
178.855	469.173
179.887	467.281
180.926	465.395
181.97	463.514
183.021	461.639
184.077	459.769
185.14	457.905
186.209	456.046
187.284	454.193
188.365	452.345
189.452	450.502
190.546	448.665
191.646	446.833
192.752	445.006
193.865	443.185
194.984	441.368
196.11	439.557
197.242	437.75
198.381	435.948
199.526	434.151
200.678	432.357
201.837	430.566
203.002	428.78
204.174	426.999
205.353	425.222
206.538	423.451
207.73	421.684
208.93	419.922
210.136	418.166
211.349	416.415
212.569	414.669
213.796	412.929
215.03	411.194
216.272	409.465
217.52	407.741
218.776	406.023
220.039	404.31
221.309	402.604
222.587	400.903
223.872	399.208
225.165	397.519
226.464	395.836
227.772	394.158
229.087	392.487
230.409	390.823
231.739	389.164
233.077	387.511
234.423	385.865
235.776	384.225
237.137	382.591
238.506	380.963
239.883	379.342
241.268	377.727
242.661	376.119
244.062	374.517
245.471	372.921
246.888	371.331
248.313	369.748
249.747	368.171
251.189	366.601
252.639	365.037
254.097	363.479
255.564	361.928
257.04	360.383
258.523	358.843
260.016	357.311
261.517	355.784
263.027	354.263
264.545	352.749
266.073	351.24
267.609	349.737
269.153	348.24
270.707	346.749
272.27	345.263
273.842	343.783
275.423	342.309
277.013	340.839
278.612	339.375
280.221	337.916
281.838	336.462
283.465	335.013
285.102	333.568
286.748	332.128
288.403	330.692
290.068	329.26
291.743	327.832
293.427	326.408
295.121	324.988
296.825	323.571
298.538	322.156
300.262	320.75
301.995	319.377
303.739	318.006
305.492	316.638
307.256	315.273
309.03	313.912
310.814	312.553
312.608	311.198
314.413	309.846
316.228	308.497
318.053	307.152
319.89	305.811
321.736	304.473
323.594	303.139
325.462	301.808
327.341	300.482
329.23	299.159
331.131	297.84
333.043	296.525
334.965	295.214
336.899	293.908
338.844	292.605
340.8	291.307
342.768	290.013
344.747	288.723
346.737	287.438
348.739	286.157
350.752	284.881
352.777	283.609
354.813	282.342
356.862	281.079
358.922	279.822
360.994	278.569
363.078	277.32
365.174	276.077
367.282	274.839
369.403	273.605
371.535	272.376
373.68	271.153
375.837	269.934
378.007	268.721
380.189	267.512
382.384	266.309
384.592	265.111
386.812	263.918
389.045	262.731
391.291	261.548
393.55	260.371
395.822	259.199
398.107	258.032
400.405	256.869
402.717	255.706
405.042	254.549
407.38	253.397
409.732	252.25
412.098	251.108
414.477	249.972
416.869	248.841
419.276	247.716
421.697	246.596
424.131	245.481
426.58	244.371
429.042	243.267
431.519	242.169
434.01	241.075
436.516	239.988
439.036	238.905
441.57	237.828
444.12	236.756
446.684	235.689
449.262	234.628
451.856	233.571
454.465	232.52
457.088	231.474
459.727	230.433
462.381	229.397
465.05	228.367
467.735	227.341
470.435	226.319
473.151	225.303
475.883	224.291
478.63	223.284
481.393	222.282
484.172	221.283
486.968	220.29
489.779	219.3
492.606	218.314
495.45	217.333
498.31	216.355
501.187	215.38
504.081	214.41
506.991	213.442
509.918	212.479
512.861	211.519
515.822	210.563
518.8	209.611
521.795	208.662
524.807	207.717
527.837	206.776
530.884	205.839
533.949	204.906
537.032	203.977
540.132	203.051
543.25	202.13
546.387	201.212
549.541	200.298
552.713	199.388
555.904	198.482
559.114	197.58
562.341	196.682
565.588	195.788
568.853	194.897
572.137	194.011
575.44	193.128
578.762	192.249
582.103	191.374
585.464	190.503
588.844	189.635
592.243	188.772
595.662	187.912
599.101	187.055
602.56	186.201
606.038	185.35
609.537	184.503
613.056	183.659
616.595	182.819
620.155	181.983
623.735	181.15
627.336	180.322
630.957	179.497
634.6	178.676
638.263	177.859
641.948	177.045
645.654	176.236
649.382	175.43
653.131	174.628
656.901	173.831
660.693	173.037
664.508	172.247
668.344	171.461
672.202	170.679
676.083	169.9
679.986	169.126
683.912	168.356
687.86	167.589
691.831	166.827
695.825	166.068
699.842	165.314
703.882	164.563
707.946	163.816
712.033	163.073
716.143	162.333
720.278	161.597
724.436	160.865
728.618	160.137
732.825	159.413
737.055	158.691
741.31	157.974
745.59	157.26
749.894	156.549
754.223	155.842
758.578	155.138
762.957	154.438
767.361	153.74
771.792	153.046
776.247	152.354
780.728	151.666
785.236	150.98
789.769	150.297
794.328	149.617
798.914	148.939
803.526	148.268
808.165	147.601
812.831	146.936
817.523	146.274
822.243	145.614
826.99	144.957
831.764	144.302
836.566	143.65
841.395	143.001
846.253	142.354
851.138	141.71
856.052	141.068
860.994	140.43
865.964	139.794
870.964	139.16
875.992	138.53
881.049	137.902
886.135	137.277
891.251	136.655
896.396	136.035
901.571	135.419
906.776	134.805
912.011	134.194
917.276	133.586
922.571	132.981
927.897	132.379
933.254	131.779
938.642	131.182
944.061	130.589
949.511	129.998
954.993	129.41
960.506	128.825
966.051	128.242
971.628	127.663
977.237	127.086
982.879	126.512
988.553	125.941
994.26	125.372
1000	124.807
1005.77	124.242
1011.58	123.681
1017.42	123.122
1023.29	122.566
1029.2	122.013
1035.14	121.462
1041.12	120.914
1047.13	120.369
1053.17	119.827
1059.25	119.287
1065.37	118.75
1071.52	118.216
1077.71	117.685
1083.93	117.156
1090.18	116.63
1096.48	116.107
1102.81	115.586
1109.17	115.068
1115.58	114.553
1122.02	114.041
1128.5	113.531
1135.01	113.023
1141.56	112.519
1148.15	112.016
1154.78	111.517
1161.45	111.019
1168.15	110.525
1174.9	110.032
1181.68	109.542
1188.5	109.054
1195.36	108.569
1202.26	108.085
1209.21	107.604
1216.19	107.125
1223.21	106.648
1230.27	106.173
1237.37	105.701
1244.51	105.231
1251.7	104.762
1258.93	104.297
1266.19	103.833
1273.5	103.372
1280.86	102.912
1288.25	102.456
1295.69	102.001
1303.17	101.548
1310.69	101.098
1318.26	100.65
1325.87	100.204
1333.52	99.7609
1341.22	99.3195
1348.96	98.8804
1356.75	98.4434
1364.58	98.0086
1372.46	97.5759
1380.38	97.1453
1388.35	96.7169
1396.37	96.2906
1404.43	95.8663
1412.54	95.444
1420.69	95.0239
1428.89	94.6058
1437.14	94.1897
1445.44	93.7757
1453.78	93.3637
1462.18	92.9538
1470.62	92.546
1479.11	92.1402
1487.65	91.7364
1496.24	91.3347
1504.87	90.9349
1513.56	90.5372
1522.3	90.1415
1531.09	89.7477
1539.93	89.3559
1548.82	88.966
1557.76	88.578
1566.75	88.1919
1575.8	87.8077
1584.89	87.4254
1594.04	87.0448
1603.25	86.666
1612.5	86.289
1621.81	85.9138
1631.17	85.5403
1640.59	85.1687
1650.06	84.7988
1659.59	84.4307
1669.17	84.0644
1678.8	83.6999
1688.5	83.3373
1698.24	82.9764
1708.05	82.6174
1717.91	82.2601
1727.83	81.9047
1737.8	81.5511
1747.83	81.1993
1757.92	80.8492
1768.07	80.501
1778.28	80.1545
1788.55	79.8098
1798.87	79.4669
1809.26	79.1257
1819.7	78.7863
1830.21	78.4485
1840.77	78.1125
1851.4	77.7782
1862.09	77.4456
1872.84	77.1146
1883.65	76.7853
1894.52	76.4576
1905.46	76.1316
1916.46	75.8071
1927.52	75.4841
1938.65	75.1435
1949.84	74.8003
1961.1	74.4588
1972.42	74.119
1983.81	73.7808
1995.26	73.4441
2006.78	73.1087
2018.37	72.7744
2030.02	72.4417
2041.74	72.1106
2053.53	71.781
2065.38	71.4531
2077.3	71.1267
2089.3	70.802
2101.36	70.4789
2113.49	70.1574
2125.69	69.8376
2137.96	69.5195
2150.3	69.203
2162.72	68.8882
2175.2	68.5751
2187.76	68.2637
2200.39	67.9541
2213.09	67.6461
2225.87	67.3399
2238.72	67.0354
2251.65	66.7327
2264.64	66.4317
2277.72	66.1325
2290.87	65.835
2304.09	65.5393
2317.39	65.2454
2330.77	64.9532
2344.23	64.6629
2357.76	64.3743
2371.37	64.0874
2385.06	63.8024
2398.83	63.5191
2412.68	63.2376
2426.61	62.9579
2440.62	62.6799
2454.71	62.4038
2468.88	62.1293
2483.13	61.8566
2497.47	61.5857
2511.89	61.3165
2526.39	61.049
2540.97	60.7833
2555.64	60.5192
2570.4	60.2568
2585.23	59.9961
2600.16	59.7371
2615.17	59.4797
2630.27	59.2239
2645.45	58.9697
2660.73	58.7172
2676.09	58.4661
2691.53	58.2166
2707.07	57.9686
2722.7	57.7221
2738.42	57.4771
2754.23	57.2334
2770.13	56.9912
2786.12	56.7502
2802.21	56.5106
2818.38	56.2723
2834.65	56.0352
2851.02	55.7993
2867.48	55.5646
2884.03	55.3309
2900.68	55.0983
2917.43	54.8667
2934.27	54.6361
2951.21	54.4063
2968.25	54.1774
2985.38	53.9492
3002.62	53.7228
3019.95	53.5031
3037.39	53.2841
3054.92	53.0657
3072.56	52.8481
3090.3	52.6313
3108.14	52.4151
3126.08	52.1998
3144.13	51.9852
3162.28	51.7714
3180.53	51.5584
3198.9	51.3461
3217.36	51.1347
3235.94	50.9241
3254.62	50.7144
3273.41	50.5055
3292.3	50.2974
3311.31	50.0902
3330.43	49.8839
3349.65	49.6784
3368.99	49.4739
3388.44	49.2702
3408	49.0675
3427.68	48.8656
3447.47	48.6648
3467.37	48.4648
3487.39	48.2658
3507.52	48.0678
3527.77	47.8707
3548.13	47.6746
3568.62	47.4795
3589.22	47.2853
3609.94	47.0922
3630.78	46.9
3651.74	46.7089
3672.82	46.5188
3694.03	46.3297
3715.35	46.1417
3736.8	45.9547
3758.37	45.7687
3780.07	45.5838
3801.89	45.3999
3823.84	45.2171
3845.92	45.0354
3868.12	44.8547
3890.45	44.6751
3912.91	44.4965
3935.5	44.3191
3958.22	44.1427
3981.07	43.9674
4004.05	43.7929
4027.17	43.6187
4050.42	43.4456
4073.8	43.2735
4097.32	43.1025
4120.98	42.9326
4144.77	42.7638
4168.69	42.5961
4192.76	42.4294
4216.97	42.2639
4241.31	42.0994
4265.8	41.9359
4290.42	41.7736
4315.19	41.6123
4340.1	41.4521
4365.16	41.2929
4390.36	41.1348
4415.7	40.9777
4441.2	40.8217
4466.84	40.6667
4492.62	40.5128
4518.56	40.3598
4544.65	40.2079
4570.88	40.0569
4597.27	39.9069
4623.81	39.7579
4650.5	39.6099
4677.35	39.4628
4704.35	39.3166
4731.51	39.1713
4758.83	39.0269
4786.3	38.8833
4813.93	38.7407
4841.72	38.5988
4869.68	38.4578
4897.79	38.3175
4926.06	38.178
4954.5	38.0392
4983.1	37.9011
5011.87	37.7637
5040.81	37.6269
5069.91	37.4908
5099.18	37.3553
5128.61	37.2205
5158.22	37.0863
5188	36.9529
5217.95	36.8201
5248.07	36.688
5278.37	36.5566
5308.84	36.4259
5339.49	36.2959
5370.32	36.1665
5401.32	36.0379
5432.5	35.9099
5463.87	35.7827
5495.41	35.6561
5527.13	35.5302
5559.04	35.4051
5591.14	35.2806
5623.41	35.1568
5655.88	35.0337
5688.53	34.9113
5721.37	34.7895
5754.4	34.6685
5787.62	34.5481
5821.03	34.4284
5854.64	34.3094
5888.44	34.1911
5922.43	34.0734
5956.62	33.9563
5991.01	33.8399
6025.6	33.724
6060.38	33.6086
6095.37	33.4939
6130.56	33.3798
6165.95	33.2664
6201.55	33.1536
6237.35	33.0415
6273.36	32.9301
6309.57	32.8193
6346	32.7092
6382.63	32.5997
6419.48	32.491
6456.54	32.3829
6493.82	32.2754
6531.31	32.1687
6569.01	32.0626
6606.93	31.9572
6645.08	31.8525
6683.44	31.7484
6722.02	31.645
6760.83	31.5423
6799.86	31.4403
6839.12	31.3389
6878.6	31.2382
6918.31	31.1382
6958.25	31.0388
6998.42	30.9401
7038.82	30.842
7079.46	30.7446
7120.33	30.6478
7161.43	30.5517
7202.78	30.4562
7244.36	30.3613
7286.18	30.267
7328.25	30.1734
7370.55	30.0803
7413.1	29.9879
7455.9	29.896
7498.94	29.8047
7542.23	29.714
7585.78	29.6238
7629.57	29.5342
7673.61	29.445
7717.92	29.3564
7762.47	29.2683
7807.28	29.1807
7852.36	29.0935
7897.69	29.0068
7943.28	28.9206
7989.14	28.8347
8035.26	28.7499
8081.65	28.6657
8128.31	28.5819
8175.23	28.4985
8222.43	28.4155
8269.9	28.3329
8317.64	28.2507
8365.66	28.169
8413.95	28.0877
8462.53	28.0068
8511.38	27.9263
8560.52	27.8463
8609.94	27.7667
8659.64	27.6875
8709.64	27.6088
8759.92	27.5305
8810.49	27.4527
8861.35	27.3753
8912.51	27.2983
8963.96	27.2218
9015.71	27.1458
9067.76	27.0702
9120.11	26.9951
9172.76	26.9204
9225.71	26.8462
9278.97	26.7724
9332.54	26.6991
9386.42	26.6263
9440.61	26.5539
9495.11	26.482
9549.93	26.4105
9605.06	26.3395
9660.51	26.2689
9716.28	26.1988
9772.37	26.1291
9828.79	26.0599
9885.53	25.9911
9942.6	25.9228
10000	25.8549
10057.7	25.7873
10115.8	25.7201
10174.2	25.6533
10232.9	25.587
10292	25.5211
10351.4	25.4557
10411.2	25.3907
10471.3	25.3261
10531.7	25.262
10592.5	25.1983
10653.7	25.1351
10715.2	25.0722
10777.1	25.0099
10839.3	24.9479
10901.8	24.8864
10964.8	24.8253
11028.1	24.7646
11091.7	24.7044
11155.8	24.6445
11220.2	24.5851
11285	24.5261
11350.1	24.4675
11415.6	24.4093
11481.5	24.3515
11547.8	24.2941
11614.5	24.237
11681.5	24.1804
11749	24.1241
11816.8	24.0682
11885	24.0126
11953.6	23.9574
12022.6	23.9025
12092.1	23.848
12161.9	23.7937
12232.1	23.7399
12302.7	23.6863
12373.7	23.6331
12445.1	23.5803
12517	23.5277
12589.3	23.4755
12661.9	23.4237
12735	23.3722
12808.6	23.321
12882.5	23.2702
12956.9	23.2197
13031.7	23.1696
13106.9	23.1198
13182.6	23.0703
13258.7	23.0212
13335.2	22.9724
13412.2	22.924
13489.6	22.8759
13567.5	22.8281
13645.8	22.7806
13724.6	22.7335
13803.8	22.6867
13883.5	22.6402
13963.7	22.594
14044.3	22.5481
14125.4	22.5026
14206.9	22.4573
14288.9	22.4124
14371.4	22.3678
14454.4	22.3235
14537.8	22.2795
14621.8	22.2358
14706.2	22.1924
14791.1	22.1493
14876.5	22.1066
14962.4	22.0641
15048.7	22.022
15135.6	21.9802
15223	21.9386
15310.9	21.8974
15399.3	21.8565
15488.2	21.8159
15577.6	21.7755
15667.5	21.7355
15758	21.6958
15848.9	21.6563
15940.4	21.6171
16032.5	21.5782
16125	21.5396
16218.1	21.5013
16311.7	21.4632
16405.9	21.4254
16500.6	21.3879
16595.9	21.3507
16691.7	21.3137
16788	21.277
16885	21.2406
16982.4	21.2045
17080.5	21.1686
17179.1	21.133
17278.3	21.0977
17378	21.0626
17478.3	21.0278
17579.2	20.9932
17680.7	20.9589
17782.8	20.9249
17885.5	20.8911
17988.7	20.8576
18092.6	20.8243
18197	20.7912
18302.1	20.7584
18407.7	20.7258
18514	20.6934
18620.9	20.6613
18728.4	20.6293
18836.5	20.5976
18945.2	20.5661
19054.6	20.5348
19164.6	20.5037
19275.2	20.4727
19386.5	20.442
19498.4	20.4114
19611	20.3809
19724.2	20.3506
19838.1	20.3205
19952.6	20.2905
20067.8	20.2597
20183.7	20.2285
20300.2	20.1976
20417.4	20.1668
20535.3	20.1363
20653.8	20.106
20773	20.076
20893	20.0461
21013.6	20.0165
21134.9	19.9871
21256.9	19.958
21379.6	19.929
21503	19.9003
21627.2	19.8718
21752	19.8435
21877.6	19.8154
22003.9	19.7875
22130.9	19.7599
22258.7	19.7324
22387.2	19.7052
22516.5	19.6781
22646.4	19.6513
22777.2	19.6247
22908.7	19.5983
23040.9	19.5721
23173.9	19.5461
23307.7	19.5203
23442.3	19.4947
23577.6	19.4693
23713.7	19.4441
23850.6	19.4191
23988.3	19.3942
24126.8	19.3696
24266.1	19.3452
24406.2	19.321
24547.1	19.2969
24688.8	19.2731
24831.3	19.2494
24974.7	19.2259
25118.9	19.2026
25263.9	19.1795
25409.7	19.1566
25556.4	19.1339
25704	19.1113
25852.3	19.089
26001.6	19.0668
26151.7	19.0448
26302.7	19.023
26454.5	19.0013
26607.3	18.9798
26760.9	18.9585
26915.3	18.9374
27070.7	18.9164
27227	18.8957
27384.2	18.8751
27542.3	18.8546
27701.3	18.8343
27861.2	18.8142
28022.1	18.7943
28183.8	18.7745
28346.5	18.7549
28510.2	18.7355
28674.8	18.7162
28840.3	18.6971
29006.8	18.6781
29174.3	18.6594
29342.7	18.6407
29512.1	18.6222
29682.5	18.6039
29853.8	18.5858
30026.2	18.5678
30199.5	18.5499
30373.9	18.5322
30549.2	18.5147
30725.6	18.4973
30903	18.48
31081.4	18.4629
31260.8	18.446
31441.3	18.4292
31622.8	18.4125
31805.3	18.396
31989	18.3797
32173.6	18.3635
32359.4	18.3474
32546.2	18.3315
32734.1	18.3157
32923	18.3001
33113.1	18.2846
33304.3	18.2692
33496.5	18.254
33689.9	18.2389
33884.4	18.2239
34080	18.2091
34276.8	18.1944
34474.7	18.1799
34673.7	18.1655
34873.9	18.1512
35075.2	18.137
35277.7	18.123
35481.3	18.1091
35686.2	18.0954
35892.2	18.0817
36099.4	18.0682
36307.8	18.0548
36517.4	18.0416
36728.2	18.0285
36940.3	18.0155
37153.5	18.0026
37368	17.9898
37583.7	17.9772
37800.7	17.9647
38018.9	17.9523
38238.4	17.94
38459.2	17.9278
38681.2	17.9158
38904.5	17.9039
39129.1	17.8921
39355	17.8804
39582.2	17.8688
39810.7	17.8573
40040.5	17.846
40271.7	17.8347
40504.2	17.8236
40738	17.8126
40973.2	17.8017
41209.8	17.7909
41447.7	17.7802
41686.9	17.7696
41927.6	17.7592
42169.7	17.7488
42413.1	17.7385
42658	17.7284
42904.2	17.7183
43151.9	17.7084
43401	17.6985
43651.6	17.6888
43903.6	17.6791
44157	17.6696
44412	17.6602
44668.4	17.6508
44926.2	17.6416
45185.6	17.6324
45446.5	17.6234
45708.8	17.6144
45972.7	17.6056
46238.1	17.5968
46505	17.5882
46773.5	17.5796
47043.5	17.5711
47315.1	17.5627
47588.3	17.5544
47863	17.5462
48139.3	17.5381
48417.2	17.5301
48696.8	17.5222
48977.9	17.5143
49260.6	17.5066
49545	17.4989
49831	17.4913
50118.7	17.4838
50408.1	17.4764
50699.1	17.4691
50991.8	17.4618
51286.1	17.4547
51582.2	17.4476
51880	17.4406
52179.5	17.4337
52480.7	17.4269
52783.7	17.4201
53088.4	17.4134
53394.9	17.4069
53703.2	17.4003
54013.2	17.3939
54325	17.3875
54638.7	17.3813
54954.1	17.3751
55271.3	17.3689
55590.4	17.3629
55911.4	17.3569
56234.1	17.351
56558.8	17.3452
56885.3	17.3394
57213.7	17.3337
57544	17.3281
57876.2	17.3226
58210.3	17.3171
58546.4	17.3117
58884.4	17.3064
59224.3	17.3011
59566.2	17.2959
59910.1	17.2908
60256	17.2857
60603.8	17.2807
60953.7	17.2758
61305.6	17.2709
61659.5	17.2661
62015.5	17.2614
62373.5	17.2567
62733.6	17.2521
63095.7	17.2476
63460	17.2431
63826.3	17.2387
64194.8	17.2343
64565.4	17.2301
64938.2	17.2258
65313.1	17.2216
65690.1	17.2175
66069.3	17.2135
66450.8	17.2095
66834.4	17.2055
67220.2	17.2017
67608.3	17.1978
67998.6	17.1941
68391.2	17.1904
68786	17.1867
69183.1	17.1831
69582.5	17.1796
69984.2	17.1761
70388.2	17.1726
70794.6	17.1692
71203.3	17.1659
71614.3	17.1626
72027.8	17.1594
72443.6	17.1562
72861.8	17.1531
73282.5	17.15
73705.5	17.147
74131	17.144
74559	17.1411
74989.4	17.1382
75422.3	17.1354
75857.8	17.1326
76295.7	17.1299
76736.1	17.1272
77179.2	17.1246
77624.7	17.122
78072.8	17.1194
78523.6	17.1169
78976.9	17.1144
79432.8	17.112
79891.4	17.1097
80352.6	17.1073
80816.5	17.1051
81283.1	17.1028
81752.3	17.1006
82224.3	17.0985
82699	17.0963
83176.4	17.0943
83656.6	17.0922
84139.5	17.0902
84625.3	17.0883
85113.8	17.0864
85605.2	17.0845
86099.4	17.0827
86596.4	17.0809
87096.4	17.0791
87599.2	17.0774
88104.9	17.0757
88613.5	17.0741
89125.1	17.0725
89639.6	17.0709
90157.1	17.0694
90677.6	17.0679
91201.1	17.0664
91727.6	17.065
92257.1	17.0636
92789.7	17.0622
93325.4	17.0609
93864.2	17.0596
94406.1	17.0583
94951.1	17.0571
95499.3	17.0559
96050.6	17.0547
96605.1	17.0536
97162.8	17.0525
97723.7	17.0514
98287.9	17.0504
98855.3	17.0494
99426	17.0484
100000	17.0474
100577	17.0465
101158	17.0456
101742	17.0448
102329	17.0439
102920	17.0431
103514	17.0423
104112	17.0416
104713	17.0409
105317	17.0402
105925	17.0395
106537	17.0389
107152	17.0382
107771	17.0376
108393	17.0371
109018	17.0365
109648	17.036
110281	17.0355
110917	17.0351
111558	17.0346
112202	17.0342
112850	17.0338
113501	17.0334
114156	17.0331
114815	17.0327
115478	17.0324
116145	17.0322
116815	17.0319
117490	17.0316
118168	17.0314
118850	17.0312
119536	17.0311
120226	17.0309
120921	17.0308
121619	17.0306
122321	17.0305
123027	17.0305
123737	17.0304
124451	17.0304
125170	17.0303
125893	17.0303
126619	17.0304
127350	17.0304
128086	17.0304
128825	17.0305
129569	17.0306
130317	17.0307
131069	17.0308
131826	17.031
132587	17.0311
133352	17.0313
134122	17.0315
134896	17.0317
135675	17.0319
136458	17.0321
137246	17.0324
138038	17.0326
138835	17.0329
139637	17.0332
140443	17.0335
141254	17.0338
142069	17.0342
142889	17.0345
143714	17.0349
144544	17.0352
145378	17.0356
146218	17.036
147062	17.0364
147911	17.0368
148765	17.0373
149624	17.0377
150487	17.0382
151356	17.0387
152230	17.0391
153109	17.0396
153993	17.0401
154882	17.0407
155776	17.0412
156675	17.0417
157580	17.0423
158489	17.0428
159404	17.0434
160325	17.044
161250	17.0445
162181	17.0451
163117	17.0457
164059	17.0464
165006	17.047
165959	17.0476
166917	17.0483
167880	17.0489
168850	17.0496
169824	17.0502
170805	17.0509
171791	17.0516
172783	17.0523
173780	17.053
174783	17.0537
175792	17.0544
176807	17.0551
177828	17.0558
178855	17.0566
179887	17.0573
180926	17.058
181970	17.0588
183021	17.0596
184077	17.0603
185140	17.0611
186209	17.0619
187284	17.0626
188365	17.0634
189452	17.0642
190546	17.065
191646	17.0658
192752	17.0666
193865	17.0674
194984	17.0683
196110	17.0691
197242	17.0699
198381	17.0707
199526	17.0716
200678	17.0724
201837	17.0732
203002	17.0741
204174	17.0749
205353	17.0758
206538	17.0767
207730	17.0775
208930	17.0784
210136	17.0793
211349	17.0801
212569	17.081
213796	17.0819
215030	17.0828
216272	17.0836
217520	17.0845
218776	17.0854
220039	17.0863
221309	17.0872
222587	17.0881
223872	17.089
225165	17.0899
226464	17.0908
227772	17.0917
229087	17.0926
230409	17.0935
231739	17.0944
233077	17.0953
234423	17.0962
235776	17.0971
237137	17.098
238506	17.0989
239883	17.0998
241268	17.1008
242661	17.1017
244062	17.1026
245471	17.1035
246888	17.1044
248313	17.1053
249747	17.1063
251189	17.1072
252639	17.1081
254097	17.109
255564	17.1099
257040	17.1108
258523	17.1118
260016	17.1127
261517	17.1136
263027	17.1145
264545	17.1154
266073	17.1163
267609	17.1173
269153	17.1182
270707	17.1191
272270	17.12
273842	17.1209
275423	17.1218
277013	17.1227
278612	17.1237
280221	17.1246
281838	17.1255
283465	17.1264
285102	17.1273
286748	17.1282
288403	17.1291
290068	17.13
291743	17.1309
293427	17.1318
295121	17.1327
296825	17.1336
298538	17.1345
300262	17.1354
301995	17.1363
303739	17.1371
305492	17.138
307256	17.1389
309030	17.1398
310814	17.1407
312608	17.1416
314413	17.1424
316228	17.1433
318053	17.1442
319890	17.145
321736	17.1459
323594	17.1468
325462	17.1476
327341	17.1485
329230	17.1493
331131	17.1502
333043	17.1511
334965	17.1519
336899	17.1527
338844	17.1536
340800	17.1544
342768	17.1553
344747	17.1561
346737	17.1569
348739	17.1578
350752	17.1586
352777	17.1594
354813	17.1602
356862	17.1611
358922	17.1619
360994	17.1627
363078	17.1635
365174	17.1643
367282	17.1651
369403	17.1659
371535	17.1667
373680	17.1675
375837	17.1683
378007	17.1691
380189	17.1698
382384	17.1706
384592	17.1714
386812	17.1722
389045	17.1729
391291	17.1737
393550	17.1745
395822	17.1752
398107	17.176
400405	17.1767
402717	17.1775
405042	17.1782
407380	17.1789
409732	17.1797
412098	17.1804
414477	17.1811
416869	17.1819
419276	17.1826
421697	17.1833
424131	17.184
426580	17.1847
429042	17.1854
431519	17.1861
434010	17.1868
436516	17.1875
439036	17.1882
441570	17.1889
444120	17.1896
446684	17.1903
449262	17.1909
451856	17.1916
454465	17.1923
457088	17.1929
459727	17.1936
462381	17.1943
465050	17.1949
467735	17.1955
470435	17.1962
473151	17.1968
475883	17.1975
478630	17.1981
481393	17.1987
484172	17.1993
486968	17.2
489779	17.2006
492606	17.2012
495450	17.2018
498310	17.2024
501187	17.203
504081	17.2036
506991	17.2042
509918	17.2048
512861	17.2053
515822	17.2059
518800	17.2065
521795	17.2071
524807	17.2076
527837	17.2082
530884	17.2087
533949	17.2093
537032	17.2098
540132	17.2104
543250	17.2109
546387	17.2115
549541	17.212
552713	17.2125
555904	17.213
559114	17.2135
562341	17.2141
565588	17.2146
568853	17.2151
572137	17.2156
575440	17.2161
578762	17.2166
582103	17.2171
585464	17.2175
588844	17.218
592243	17.2185
595662	17.219
599101	17.2194
602560	17.2199
606038	17.2204
609537	17.2208
613056	17.2213
616595	17.2217
620155	17.2222
623735	17.2226
627336	17.223
630957	17.2235
634600	17.2239
638263	17.2243
641948	17.2247
645654	17.2252
649382	17.2256
653131	17.226
656901	17.2264
660693	17.2268
664508	17.2272
668344	17.2276
672202	17.2279
676083	17.2283
679986	17.2287
683912	17.2291
687860	17.2295
691831	17.2298
695825	17.2302
699842	17.2305
703882	17.2309
707946	17.2313
712033	17.2316
716143	17.2319
720278	17.2323
724436	17.2326
728618	17.2329
732825	17.2333
737055	17.2336
741310	17.2339
745590	17.2342
749894	17.2345
754223	17.2349
758578	17.2352
762957	17.2355
767361	17.2358
771792	17.2361
776247	17.2363
780728	17.2366
785236	17.2369
789769	17.2372
794328	17.2375
798914	17.2377
803526	17.238
808165	17.2383
812831	17.2385
817523	17.2388
822243	17.239
826990	17.2393
831764	17.2395
836566	17.2398
841395	17.24
846253	17.2403
851138	17.2405
856052	17.2407
860994	17.2409
865964	17.2412
870964	17.2414
875992	17.2416
881049	17.2418
886135	17.242
891251	17.2422
896396	17.2424
901571	17.2426
906776	17.2428
912011	17.243
917276	17.2432
922571	17.2434
927897	17.2436
933254	17.2438
938642	17.2439
944061	17.2441
949511	17.2443
954993	17.2444
960506	17.2446
966051	17.2448
971628	17.2449
977237	17.2451
982879	17.2452
988553	17.2454
994260	17.2455
1e+06	17.2457
1.00577e+06	17.2458
1.01158e+06	17.246
1.01742e+06	17.2461
1.02329e+06	17.2462
1.0292e+06	17.2464
1.03514e+06	17.2465
1.04112e+06	17.2466
1.04713e+06	17.2467
1.05317e+06	17.2468
1.05925e+06	17.247
1.06537e+06	17.2471
1.07152e+06	17.2472
1.07771e+06	17.2473
1.08393e+06	17.2474
1.09018e+06	17.2475
1.09648e+06	17.2476
1.10281e+06	17.2477
1.10917e+06	17.2478
1.11558e+06	17.2479
1.12202e+06	17.248
1.1285e+06	17.2481
1.13501e+06	17.2481
1.14156e+06	17.2482
1.14815e+06	17.2483
1.15478e+06	17.2484
1.16145e+06	17.2484
1.16815e+06	17.2485
1.1749e+06	17.2486
1.18168e+06	17.2487
1.1885e+06	17.2487
1.19536e+06	17.2488
1.20226e+06	17.2489
1.20921e+06	17.2489
1.21619e+06	17.249
1.22321e+06	17.249
1.23027e+06	17.2491
1.23737e+06	17.2491
1.24451e+06	17.2492
1.2517e+06	17.2492
1.25893e+06	17.2493
1.26619e+06	17.2493
1.2735e+06	17.2494
1.28086e+06	17.2494
1.28825e+06	17.2494
1.29569e+06	17.2495
1.30317e+06	17.2495
1.31069e+06	17.2495
1.31826e+06	17.2496
1.32587e+06	17.2496
1.33352e+06	17.2496
1.34122e+06	17.2496
1.34896e+06	17.2497
1.35675e+06	17.2497
1.36458e+06	17.2497
1.37246e+06	17.2497
1.38038e+06	17.2497
1.38835e+06	17.2497
1.39637e+06	17.2498
1.40443e+06	17.2498
1.41254e+06	17.2498
1.42069e+06	17.2498
1.42889e+06	17.2498
1.43714e+06	17.2498
1.44544e+06	17.2498
1.45378e+06	17.2498
1.46218e+06	17.2498
1.47062e+06	17.2498
1.47911e+06	17.2498
1.48765e+06	17.2498
1.49624e+06	17.2498
1.50487e+06	17.2498
1.51356e+06	17.2498
1.5223e+06	17.2498
1.53109e+06	17.2498
1.53993e+06	17.2498
1.54882e+06	17.2498
1.55776e+06	17.2497
1.56675e+06	17.2497
1.5758e+06	17.2497
1.58489e+06	17.2497
1.59404e+06	17.2497
1.60325e+06	17.2497
1.6125e+06	17.2497
1.62181e+06	17.2496
1.63117e+06	17.2496
1.64059e+06	17.2496
1.65006e+06	17.2496
1.65959e+06	17.2496
1.66917e+06	17.2495
1.6788e+06	17.2495
1.6885e+06	17.2495
1.69824e+06	17.2495
1.70805e+06	17.2495
1.71791e+06	17.2494
1.72783e+06	17.2494
1.7378e+06	17.2494
1.74783e+06	17.2494
1.75792e+06	17.2493
1.76807e+06	17.2493
1.77828e+06	17.2493
1.78855e+06	17.2492
1.79887e+06	17.2492
1.80926e+06	17.2492
1.8197e+06	17.2492
1.83021e+06	17.2491
1.84077e+06	17.2491
1.8514e+06	17.2491
1.86209e+06	17.249
1.87284e+06	17.249
1.88365e+06	17.249
1.89452e+06	17.249
1.90546e+06	17.2489
1.91646e+06	17.2489
1.92752e+06	17.2489
1.93865e+06	17.2488
1.94984e+06	17.2488
1.9611e+06	17.2488
1.97242e+06	17.2488
1.98381e+06	17.2487
1.99526e+06	17.2487
2.00678e+06	17.2487
2.01837e+06	17.2486
2.03002e+06	17.2486
2.04174e+06	17.2486
2.05353e+06	17.2486
2.06538e+06	17.2485
2.0773e+06	17.2485
2.0893e+06	17.2485
2.10136e+06	17.2485
2.11349e+06	17.2484
2.12569e+06	17.2484
2.13796e+06	17.2484
2.1503e+06	17.2484
2.16272e+06	17.2483
2.1752e+06	17.2483
2.18776e+06	17.2483
2.20039e+06	17.2483
2.21309e+06	17.2482
2.22587e+06	17.2482
2.23872e+06	17.2482
2.25165e+06	17.2482
2.26464e+06	17.2481
2.27772e+06	17.2481
2.29087e+06	17.2481
2.30409e+06	17.2481
2.31739e+06	17.248
2.33077e+06	17.248
2.34423e+06	17.248
2.35776e+06	17.248
2.37137e+06	17.248
2.38506e+06	17.2479
2.39883e+06	17.2479
2.41268e+06	17.2479
2.42661e+06	17.2479
2.44062e+06	17.2478
2.45471e+06	17.2478
2.46888e+06	17.2478
2.48313e+06	17.2478
2.49747e+06	17.2478
2.51189e+06	17.2477
2.52639e+06	17.2477
2.54097e+06	17.2477
2.55564e+06	17.2477
2.5704e+06	17.2477
2.58523e+06	17.2476
2.60016e+06	17.2476
2.61517e+06	17.2476
2.63027e+06	17.2476
2.64545e+06	17.2476
2.66073e+06	17.2476
2.67609e+06	17.2475
2.69153e+06	17.2475
2.70707e+06	17.2475
2.7227e+06	17.2475
2.73842e+06	17.2475
2.75423e+06	17.2475
2.77013e+06	17.2474
2.78612e+06	17.2474
2.80221e+06	17.2474
2.81838e+06	17.2474
2.83465e+06	17.2474
2.85102e+06	17.2474
2.86748e+06	17.2473
2.88403e+06	17.2473
2.90068e+06	17.2473
2.91743e+06	17.2473
2.93427e+06	17.2473
2.95121e+06	17.2473
2.96825e+06	17.2472
2.98538e+06	17.2472
3.00262e+06	17.2472
3.01995e+06	17.2472
3.03739e+06	17.2472
3.05492e+06	17.2472
3.07256e+06	17.2471
3.0903e+06	17.2471
3.10814e+06	17.2471
3.12608e+06	17.2471
3.14413e+06	17.2471
3.16228e+06	17.2471
3.18053e+06	17.2471
3.1989e+06	17.2471
3.21736e+06	17.247
3.23594e+06	17.247
3.25462e+06	17.247
3.27341e+06	17.247
3.2923e+06	17.247
3.31131e+06	17.247
3.33043e+06	17.247
3.34965e+06	17.2469
3.36899e+06	17.2469
3.38844e+06	17.2469
3.408e+06	17.2469
3.42768e+06	17.2469
3.44747e+06	17.2469
3.46737e+06	17.2469
3.48739e+06	17.2469
3.50752e+06	17.2468
3.52777e+06	17.2468
3.54813e+06	17.2468
3.56862e+06	17.2468
3.58922e+06	17.2468
3.60994e+06	17.2468
3.63078e+06	17.2468
3.65174e+06	17.2468
3.67282e+06	17.2468
3.69403e+06	17.2467
3.71535e+06	17.2467
3.7368e+06	17.2467
3.75837e+06	17.2467
3.78007e+06	17.2467
3.80189e+06	17.2467
3.82384e+06	17.2467
3.84592e+06	17.2467
3.86812e+06	17.2467
3.89045e+06	17.2466
3.91291e+06	17.2466
3.9355e+06	17.2466
3.95822e+06	17.2466
3.98107e+06	17.2466
4.00405e+06	17.2466
4.02717e+06	17.2466
4.05042e+06	17.2466
4.0738e+06	17.2466
4.09732e+06	17.2466
4.12098e+06	17.2465
4.14477e+06	17.2465
4.16869e+06	17.2465
4.19276e+06	17.2465
4.21697e+06	17.2465
4.24131e+06	17.2465
4.2658e+06	17.2465
4.29042e+06	17.2465
4.31519e+06	17.2465
4.3401e+06	17.2465
4.36516e+06	17.2465
4.39036e+06	17.2464
4.4157e+06	17.2464
4.4412e+06	17.2464
4.46684e+06	17.2464
4.49262e+06	17.2464
4.51856e+06	17.2464
4.54465e+06	17.2464
4.57088e+06	17.2464
4.59727e+06	17.2464
4.62381e+06	17.2464
4.6505e+06	17.2464
4.67735e+06	17.2464
4.70435e+06	17.2463
4.73151e+06	17.2463
4.75883e+06	17.2463
4.7863e+06	17.2463
4.81393e+06	17.2463
4.84172e+06	17.2463
4.86968e+06	17.2463
4.89779e+06	17.2463
4.92606e+06	17.2463
4.9545e+06	17.2463
4.9831e+06	17.2463
5.01187e+06	17.2463
5.04081e+06	17.2463
5.06991e+06	17.2463
5.09918e+06	17.2462
5.12861e+06	17.2462
5.15822e+06	17.2462
5.188e+06	17.2462
5.21795e+06	17.2462
5.24807e+06	17.2462
5.27837e+06	17.2462
5.30884e+06	17.2462
5.33949e+06	17.2462
5.37032e+06	17.2462
5.40132e+06	17.2462
5.4325e+06	17.2462
5.46387e+06	17.2462
5.49541e+06	17.2462
5.52713e+06	17.2462
5.55904e+06	17.2461
5.59114e+06	17.2461
5.62341e+06	17.2461
5.65588e+06	17.2461
5.68853e+06	17.2461
5.72137e+06	17.2461
5.7544e+06	17.2461
5.78762e+06	17.2461
5.82103e+06	17.2461
5.85464e+06	17.2461
5.88844e+06	17.2461
5.92243e+06	17.2461
5.95662e+06	17.2461
5.99101e+06	17.2461
6.0256e+06	17.2461
6.06038e+06	17.2461
6.09537e+06	17.2461
6.13056e+06	17.246
6.16595e+06	17.246
6.20155e+06	17.246
6.23735e+06	17.246
6.27336e+06	17.246
6.30957e+06	17.246
6.346e+06	17.246
6.38263e+06	17.246
6.41948e+06	17.246
6.45654e+06	17.246
6.49382e+06	17.246
6.53131e+06	17.246
6.56901e+06	17.246
6.60693e+06	17.246
6.64508e+06	17.246
6.68344e+06	17.246
6.72202e+06	17.246
6.76083e+06	17.246
6.79986e+06	17.246
6.83912e+06	17.2459
6.8786e+06	17.2459
6.91831e+06	17.2459
6.95825e+06	17.2459
6.99842e+06	17.2459
7.03882e+06	17.2459
7.07946e+06	17.2459
7.12033e+06	17.2459
7.16143e+06	17.2459
7.20278e+06	17.2459
7.24436e+06	17.2459
7.28618e+06	17.2459
7.32825e+06	17.2459
7.37055e+06	17.2459
7.4131e+06	17.2459
7.4559e+06	17.2459
7.49894e+06	17.2459
7.54223e+06	17.2459
7.58578e+06	17.2459
7.62957e+06	17.2459
7.67361e+06	17.2459
7.71792e+06	17.2459
7.76247e+06	17.2459
7.80728e+06	17.2458
7.85236e+06	17.2458
7.89769e+06	17.2458
7.94328e+06	17.2458
7.98914e+06	17.2458
8.03526e+06	17.2458
8.08165e+06	17.2458
8.12831e+06	17.2458
8.17523e+06	17.2458
8.22243e+06	17.2458
8.2699e+06	17.2458
8.31764e+06	17.2458
8.36566e+06	17.2458
8.41395e+06	17.2458
8.46253e+06	17.2458
8.51138e+06	17.2458
8.56052e+06	17.2458
8.60994e+06	17.2458
8.65964e+06	17.2458
8.70964e+06	17.2458
8.75992e+06	17.2458
8.81049e+06	17.2458
8.86135e+06	17.2458
8.91251e+06	17.2458
8.96396e+06	17.2458
9.01571e+06	17.2458
9.06776e+06	17.2458
9.12011e+06	17.2458
9.17276e+06	17.2457
9.22571e+06	17.2457
9.27897e+06	17.2457
9.33254e+06	17.2457
9.38642e+06	17.2457
9.44061e+06	17.2457
9.49511e+06	17.2457
9.54993e+06	17.2457
9.60506e+06	17.2457
9.66051e+06	17.2457
9.71628e+06	17.2457
9.77237e+06	17.2457
9.82879e+06	17.2457
9.88553e+06	17.2457
9.9426e+06	17.2457
1e+07	17.2457
