Stopping power dEdx from Ionisation for O16[0.0] Z = 8 in Water, process name: ionIoni
E [MeV]	dEdx [MeV/mm]
0.001	24.122
0.00100577	24.1919
0.00101158	24.2621
0.00101742	24.3324
0.00102329	24.403
0.0010292	24.4738
0.00103514	24.5447
0.00104112	24.6159
0.00104713	24.6873
0.00105317	24.7588
0.00105925	24.8306
0.00106537	24.9026
0.00107152	24.9748
0.00107771	25.0472
0.00108393	25.1199
0.00109018	25.1927
0.00109648	25.2657
0.00110281	25.339
0.00110917	25.4124
0.00111558	25.4861
0.00112202	25.56
0.0011285	25.6341
0.00113501	25.7084
0.00114156	25.7829
0.00114815	25.8577
0.00115478	25.9326
0.00116145	26.0078
0.00116815	26.0832
0.0011749	26.1588
0.00118168	26.2346
0.0011885	26.3107
0.00119536	26.3869
0.00120226	26.4634
0.00120921	26.5401
0.00121619	26.617
0.00122321	26.6942
0.00123027	26.7716
0.00123737	26.8491
0.00124451	26.927
0.0012517	27.005
0.00125893	27.0833
0.00126619	27.1617
0.0012735	27.2405
0.00128086	27.3194
0.00128825	27.3986
0.00129569	27.478
0.00130317	27.5576
0.00131069	27.6375
0.00131826	27.7175
0.00132587	27.7979
0.00133352	27.8784
0.00134122	27.9592
0.00134896	28.0402
0.00135675	28.1214
0.00136458	28.2029
0.00137246	28.2846
0.00138038	28.3666
0.00138835	28.4488
0.00139637	28.5312
0.00140443	28.6139
0.00141254	28.6968
0.00142069	28.7799
0.00142889	28.8633
0.00143714	28.9469
0.00144544	29.0308
0.00145378	29.1149
0.00146218	29.1992
0.00147062	29.2838
0.00147911	29.3686
0.00148765	29.4537
0.00149624	29.539
0.00150487	29.6246
0.00151356	29.7104
0.0015223	29.7965
0.00153109	29.8828
0.00153993	29.9693
0.00154882	30.0561
0.00155776	30.1432
0.00156675	30.2305
0.0015758	30.3181
0.00158489	30.4059
0.00159404	30.4939
0.00160325	30.5823
0.0016125	30.6708
0.00162181	30.7597
0.00163117	30.8488
0.00164059	30.9381
0.00165006	31.0277
0.00165959	31.1176
0.00166917	31.2077
0.0016788	31.298
0.0016885	31.3887
0.00169824	31.4796
0.00170805	31.5707
0.00171791	31.6622
0.00172783	31.7539
0.0017378	31.8458
0.00174783	31.938
0.00175792	32.0305
0.00176807	32.1233
0.00177828	32.2163
0.00178855	32.3096
0.00179887	32.4031
0.00180926	32.4969
0.0018197	32.591
0.00183021	32.6854
0.00184077	32.78
0.0018514	32.8749
0.00186209	32.9701
0.00187284	33.0656
0.00188365	33.1613
0.00189452	33.2573
0.00190546	33.3536
0.00191646	33.4502
0.00192752	33.547
0.00193865	33.6441
0.00194984	33.7415
0.0019611	33.8392
0.00197242	33.9372
0.00198381	34.0354
0.00199526	34.1339
0.00200678	34.2327
0.00201837	34.3318
0.00203002	34.4312
0.00204174	34.5309
0.00205353	34.6308
0.00206538	34.7311
0.0020773	34.8316
0.0020893	34.9324
0.00210136	35.0336
0.00211349	35.135
0.00212569	35.2367
0.00213796	35.3386
0.0021503	35.4409
0.00216272	35.5435
0.0021752	35.6464
0.00218776	35.7495
0.00220039	35.853
0.00221309	35.9568
0.00222587	36.0608
0.00223872	36.1652
0.00225165	36.2699
0.00226464	36.3748
0.00227772	36.4801
0.00229087	36.5857
0.00230409	36.6916
0.00231739	36.7978
0.00233077	36.9042
0.00234423	37.011
0.00235776	37.1181
0.00237137	37.2256
0.00238506	37.3333
0.00239883	37.4413
0.00241268	37.5497
0.00242661	37.6583
0.00244062	37.7673
0.00245471	37.8766
0.00246888	37.9862
0.00248313	38.0961
0.00249747	38.2063
0.00251189	38.3169
0.00252639	38.4277
0.00254097	38.5389
0.00255564	38.6504
0.0025704	38.7623
0.00258523	38.8744
0.00260016	38.9869
0.00261517	39.0997
0.00263027	39.2128
0.00264545	39.3263
0.00266073	39.44
0.00267609	39.5541
0.00269153	39.6686
0.00270707	39.7833
0.0027227	39.8984
0.00273842	40.0139
0.00275423	40.1296
0.00277013	40.2457
0.00278612	40.3621
0.00280221	40.4789
0.00281838	40.596
0.00283465	40.7134
0.00285102	40.8312
0.00286748	40.9493
0.00288403	41.0678
0.00290068	41.1866
0.00291743	41.3057
0.00293427	41.4252
0.00295121	41.545
0.00296825	41.6652
0.00298538	41.7857
0.00300262	41.9066
0.00301995	42.0278
0.00303739	42.1494
0.00305492	42.2713
0.00307256	42.3936
0.0030903	42.5162
0.00310814	42.6391
0.00312608	42.7625
0.00314413	42.8862
0.00316228	43.0102
0.00318053	43.1346
0.0031989	43.2593
0.00321736	43.3845
0.00323594	43.5099
0.00325462	43.6358
0.00327341	43.762
0.0032923	43.8885
0.00331131	44.0155
0.00333043	44.1428
0.00334965	44.2704
0.00336899	44.3984
0.00338844	44.5268
0.003408	44.6556
0.00342768	44.7847
0.00344747	44.9143
0.00346737	45.0441
0.00348739	45.1744
0.00350752	45.305
0.00352777	45.436
0.00354813	45.5674
0.00356862	45.6992
0.00358922	45.8313
0.00360994	45.9639
0.00363078	46.0968
0.00365174	46.2301
0.00367282	46.3638
0.00369403	46.4978
0.00371535	46.6323
0.0037368	46.7671
0.00375837	46.9023
0.00378007	47.0379
0.00380189	47.1739
0.00382384	47.3103
0.00384592	47.4471
0.00386812	47.5843
0.00389045	47.7219
0.00391291	47.8599
0.0039355	47.9983
0.00395822	48.137
0.00398107	48.2762
0.00400405	48.4158
0.00402717	48.5558
0.00405042	48.6961
0.0040738	48.8369
0.00409732	48.9781
0.00412098	49.1197
0.00414477	49.2617
0.00416869	49.4041
0.00419276	49.547
0.00421697	49.6902
0.00424131	49.8338
0.0042658	49.9779
0.00429042	50.1224
0.00431519	50.2673
0.0043401	50.4126
0.00436516	50.5583
0.00439036	50.7045
0.0044157	50.8511
0.0044412	50.998
0.00446684	51.1455
0.00449262	51.2933
0.00451856	51.4416
0.00454465	51.5903
0.00457088	51.7394
0.00459727	51.889
0.00462381	52.039
0.0046505	52.1894
0.00467735	52.3402
0.00470435	52.4915
0.00473151	52.6432
0.00475883	52.7954
0.0047863	52.948
0.00481393	53.101
0.00484172	53.2545
0.00486968	53.4085
0.00489779	53.5628
0.00492606	53.7176
0.0049545	53.8729
0.0049831	54.0286
0.00501187	54.1848
0.00504081	54.3414
0.00506991	54.4984
0.00509918	54.6559
0.00512861	54.8139
0.00515822	54.9723
0.005188	55.1312
0.00521795	55.2905
0.00524807	55.4503
0.00527837	55.6106
0.00530884	55.7713
0.00533949	55.9325
0.00537032	56.0941
0.00540132	56.2562
0.0054325	56.4188
0.00546387	56.5818
0.00549541	56.7453
0.00552713	56.9093
0.00555904	57.0738
0.00559114	57.2387
0.00562341	57.4041
0.00565588	57.57
0.00568853	57.7364
0.00572137	57.9032
0.0057544	58.0705
0.00578762	58.2383
0.00582103	58.4066
0.00585464	58.5754
0.00588844	58.7447
0.00592243	59.0617
0.00595662	59.2319
0.00599101	59.4026
0.0060256	59.5739
0.00606038	59.7456
0.00609537	59.9178
0.00613056	60.0905
0.00616595	60.2637
0.00620155	60.4374
0.00623735	60.6116
0.00627336	60.7863
0.00630957	60.9615
0.006346	61.1372
0.00638263	61.3134
0.00641948	61.4902
0.00645654	61.6674
0.00649382	61.8452
0.00653131	62.0234
0.00656901	62.2022
0.00660693	62.3815
0.00664508	62.5613
0.00668344	62.7416
0.00672202	62.9225
0.00676083	63.1038
0.00679986	63.2857
0.00683912	63.4681
0.0068786	63.6511
0.00691831	63.8345
0.00695825	64.0185
0.00699842	64.2031
0.00703882	64.3881
0.00707946	64.5737
0.00712033	64.7598
0.00716143	64.9465
0.00720278	65.1337
0.00724436	65.3214
0.00728618	65.5097
0.00732825	65.6985
0.00737055	65.8879
0.0074131	66.0778
0.0074559	66.2683
0.00749894	66.4593
0.00754223	66.6509
0.00758578	66.843
0.00762957	67.0356
0.00767361	67.2289
0.00771792	67.4226
0.00776247	67.617
0.00780728	67.8119
0.00785236	68.0073
0.00789769	68.2033
0.00794328	68.3999
0.00798914	68.5971
0.00803526	68.7948
0.00808165	68.9931
0.00812831	69.192
0.00817523	69.3914
0.00822243	69.5914
0.0082699	69.792
0.00831764	69.9932
0.00836566	70.1949
0.00841395	70.3973
0.00846253	70.6002
0.00851138	70.8037
0.00856052	71.0077
0.00860994	71.2124
0.00865964	71.4177
0.00870964	71.6235
0.00875992	71.83
0.00881049	72.037
0.00886135	72.2447
0.00891251	72.4529
0.00896396	72.6617
0.00901571	72.8712
0.00906776	73.0812
0.00912011	73.2919
0.00917276	73.5031
0.00922571	73.715
0.00927897	73.9274
0.00933254	74.1405
0.00938642	74.3542
0.00944061	74.5686
0.00949511	74.7835
0.00954993	74.999
0.00960506	75.2152
0.00966051	75.432
0.00971628	75.6494
0.00977237	75.8675
0.00982879	76.0862
0.00988553	76.3055
0.0099426	76.5254
0.01	76.746
0.0100577	76.9672
0.0101158	77.1891
0.0101742	77.4115
0.0102329	77.6347
0.010292	77.8584
0.0103514	78.0829
0.0104112	78.3079
0.0104713	78.5336
0.0105317	78.76
0.0105925	78.987
0.0106537	79.2147
0.0107152	79.443
0.0107771	79.672
0.0108393	79.9016
0.0109018	80.1319
0.0109648	80.3629
0.0110281	80.5946
0.0110917	80.8269
0.0111558	81.0598
0.0112202	81.2935
0.011285	81.5278
0.0113501	81.7628
0.0114156	81.9985
0.0114815	82.2348
0.0115478	82.4718
0.0116145	82.7096
0.0116815	82.948
0.011749	83.187
0.0118168	83.4268
0.011885	83.6673
0.0119536	83.9085
0.0120226	84.1503
0.0120921	84.3929
0.0121619	84.6361
0.0122321	84.8801
0.0123027	85.1247
0.0123737	85.3701
0.0124451	85.6162
0.012517	85.8629
0.0125893	86.1104
0.0126619	86.3586
0.012735	86.6075
0.0128086	86.8572
0.0128825	87.1075
0.0129569	87.3586
0.0130317	87.6104
0.0131069	87.8629
0.0131826	88.1162
0.0132587	88.3702
0.0133352	88.6249
0.0134122	88.8803
0.0134896	89.1365
0.0135675	89.3935
0.0136458	89.6511
0.0137246	89.9095
0.0138038	90.1687
0.0138835	90.4286
0.0139637	90.6892
0.0140443	90.9506
0.0141254	91.2128
0.0142069	91.4757
0.0142889	91.7394
0.0143714	92.0038
0.0144544	92.269
0.0145378	92.5349
0.0146218	92.8017
0.0147062	93.0691
0.0147911	93.3374
0.0148765	93.6064
0.0149624	93.8762
0.0150487	94.1468
0.0151356	94.4182
0.015223	94.6903
0.0153109	94.9633
0.0153993	95.237
0.0154882	95.5115
0.0155776	95.7868
0.0156675	96.0629
0.015758	96.3398
0.0158489	96.6175
0.0159404	96.896
0.0160325	97.1753
0.016125	97.4554
0.0162181	97.7363
0.0163117	98.018
0.0164059	98.3005
0.0165006	98.5838
0.0165959	98.868
0.0166917	99.153
0.016788	99.4388
0.016885	99.7254
0.0169824	100.013
0.0170805	100.301
0.0171791	100.59
0.0172783	100.88
0.017378	101.171
0.0174783	101.463
0.0175792	101.755
0.0176807	102.048
0.0177828	102.342
0.0178855	102.637
0.0179887	102.933
0.0180926	103.23
0.018197	103.527
0.0183021	103.826
0.0184077	104.125
0.018514	104.425
0.0186209	104.726
0.0187284	105.028
0.0188365	105.331
0.0189452	105.634
0.0190546	105.939
0.0191646	106.244
0.0192752	106.551
0.0193865	106.858
0.0194984	107.166
0.019611	107.475
0.0197242	107.784
0.0198381	108.095
0.0199526	108.407
0.0200678	108.719
0.0201837	109.032
0.0203002	109.347
0.0204174	109.662
0.0205353	109.978
0.0206538	110.295
0.020773	110.613
0.020893	110.932
0.0210136	111.251
0.0211349	111.572
0.0212569	111.894
0.0213796	112.216
0.021503	112.54
0.0216272	112.864
0.021752	113.189
0.0218776	113.516
0.0220039	113.843
0.0221309	114.171
0.0222587	114.5
0.0223872	114.83
0.0225165	115.161
0.0226464	115.493
0.0227772	115.826
0.0229087	116.16
0.0230409	116.495
0.0231739	116.83
0.0233077	117.167
0.0234423	117.505
0.0235776	117.844
0.0237137	118.183
0.0238506	118.524
0.0239883	118.865
0.0241268	119.208
0.0242661	119.552
0.0244062	119.896
0.0245471	120.242
0.0246888	120.588
0.0248313	120.936
0.0249747	121.285
0.0251189	121.634
0.0252639	121.985
0.0254097	122.336
0.0255564	122.689
0.025704	123.043
0.0258523	123.397
0.0260016	123.753
0.0261517	124.11
0.0263027	124.467
0.0264545	124.826
0.0266073	125.186
0.0267609	125.547
0.0269153	125.909
0.0270707	126.272
0.027227	126.636
0.0273842	127.001
0.0275423	127.367
0.0277013	127.734
0.0278612	128.102
0.0280221	128.471
0.0281838	128.841
0.0283465	129.213
0.0285102	129.585
0.0286748	129.959
0.0288403	130.333
0.0290068	130.709
0.0291743	131.086
0.0293427	131.464
0.0295121	131.843
0.0296825	132.223
0.0298538	132.604
0.0300262	132.986
0.0301995	133.369
0.0303739	133.754
0.0305492	134.139
0.0307256	134.526
0.030903	134.914
0.0310814	135.302
0.0312608	135.692
0.0314413	136.084
0.0316228	136.476
0.0318053	136.869
0.031989	137.264
0.0321736	137.659
0.0323594	138.056
0.0325462	138.454
0.0327341	138.853
0.032923	139.253
0.0331131	139.655
0.0333043	140.057
0.0334965	140.461
0.0336899	140.866
0.0338844	141.272
0.03408	141.679
0.0342768	142.087
0.0344747	142.497
0.0346737	142.908
0.0348739	143.32
0.0350752	143.733
0.0352777	144.147
0.0354813	144.563
0.0356862	144.979
0.0358922	145.397
0.0360994	145.816
0.0363078	146.236
0.0365174	146.658
0.0367282	147.081
0.0369403	147.505
0.0371535	147.93
0.037368	148.356
0.0375837	148.784
0.0378007	149.213
0.0380189	149.643
0.0382384	150.074
0.0384592	150.507
0.0386812	150.94
0.0389045	151.376
0.0391291	151.812
0.039355	152.249
0.0395822	152.688
0.0398107	153.128
0.0400405	153.57
0.0402717	154.012
0.0405042	154.456
0.040738	154.902
0.0409732	155.348
0.0412098	155.796
0.0414477	156.245
0.0416869	156.695
0.0419276	157.147
0.0421697	157.6
0.0424131	158.054
0.042658	158.51
0.0429042	158.967
0.0431519	159.425
0.043401	159.884
0.0436516	160.345
0.0439036	160.807
0.044157	161.271
0.044412	161.736
0.0446684	162.202
0.0449262	162.669
0.0451856	163.138
0.0454465	163.608
0.0457088	164.08
0.0459727	164.553
0.0462381	165.027
0.046505	165.503
0.0467735	165.98
0.0470435	166.458
0.0473151	166.938
0.0475883	167.419
0.047863	167.902
0.0481393	168.386
0.0484172	168.871
0.0486968	169.358
0.0489779	169.846
0.0492606	170.336
0.049545	170.827
0.049831	171.319
0.0501187	171.813
0.0504081	172.308
0.0506991	172.805
0.0509918	173.303
0.0512861	173.802
0.0515822	174.303
0.05188	174.806
0.0521795	175.31
0.0524807	175.815
0.0527837	176.322
0.0530884	176.83
0.0533949	177.34
0.0537032	177.851
0.0540132	178.363
0.054325	178.877
0.0546387	179.393
0.0549541	179.91
0.0552713	180.429
0.0555904	180.949
0.0559114	181.47
0.0562341	181.993
0.0565588	182.518
0.0568853	183.044
0.0572137	183.572
0.057544	184.101
0.0578762	184.631
0.0582103	185.164
0.0585464	185.697
0.0588844	186.233
0.0592243	186.769
0.0595662	187.308
0.0599101	187.848
0.060256	188.389
0.0606038	188.932
0.0609537	189.477
0.0613056	190.023
0.0616595	190.571
0.0620155	191.12
0.0623735	191.671
0.0627336	192.223
0.0630957	192.777
0.06346	193.333
0.0638263	193.89
0.0641948	194.449
0.0645654	195.009
0.0649382	195.572
0.0653131	196.135
0.0656901	196.701
0.0660693	197.268
0.0664508	197.836
0.0668344	198.406
0.0672202	198.978
0.0676083	199.552
0.0679986	200.127
0.0683912	200.704
0.068786	201.282
0.0691831	201.863
0.0695825	202.444
0.0699842	203.028
0.0703882	203.613
0.0707946	204.2
0.0712033	204.789
0.0716143	205.379
0.0720278	205.971
0.0724436	206.565
0.0728618	207.16
0.0732825	207.757
0.0737055	208.356
0.074131	208.956
0.074559	209.559
0.0749894	210.163
0.0754223	210.768
0.0758578	211.376
0.0762957	211.985
0.0767361	212.596
0.0771792	213.209
0.0776247	213.824
0.0780728	214.44
0.0785236	215.058
0.0789769	215.678
0.0794328	216.3
0.0798914	216.923
0.0803526	217.548
0.0808165	218.175
0.0812831	218.804
0.0817523	219.435
0.0822243	220.067
0.082699	220.702
0.0831764	221.338
0.0836566	221.976
0.0841395	222.616
0.0846253	223.257
0.0851138	223.901
0.0856052	224.546
0.0860994	225.193
0.0865964	225.843
0.0870964	226.493
0.0875992	227.146
0.0881049	227.801
0.0886135	228.458
0.0891251	229.116
0.0896396	229.777
0.0901571	230.439
0.0906776	231.103
0.0912011	231.769
0.0917276	232.437
0.0922571	233.107
0.0927897	233.779
0.0933254	234.453
0.0938642	235.129
0.0944061	235.806
0.0949511	236.486
0.0954993	237.168
0.0960506	237.851
0.0966051	238.537
0.0971628	239.225
0.0977237	239.914
0.0982879	240.606
0.0988553	241.299
0.099426	241.995
0.1	242.692
0.100577	243.392
0.101158	244.093
0.101742	244.797
0.102329	245.502
0.10292	246.21
0.103514	246.92
0.104112	247.631
0.104713	248.345
0.105317	249.061
0.105925	249.779
0.106537	250.499
0.107152	251.221
0.107771	251.945
0.108393	252.671
0.109018	253.399
0.109648	254.13
0.110281	254.862
0.110917	255.597
0.111558	256.334
0.112202	257.073
0.11285	257.814
0.113501	258.557
0.114156	259.302
0.114815	260.049
0.115478	260.799
0.116145	261.551
0.116815	262.304
0.11749	263.061
0.118168	263.819
0.11885	264.579
0.119536	265.342
0.120226	266.107
0.120921	266.874
0.121619	267.643
0.122321	268.414
0.123027	269.188
0.123737	269.964
0.124451	270.742
0.12517	271.522
0.125893	272.305
0.126619	273.09
0.12735	273.877
0.128086	274.667
0.128825	275.458
0.129569	276.252
0.130317	277.048
0.131069	277.847
0.131826	278.648
0.132587	279.451
0.133352	280.257
0.134122	281.064
0.134896	281.874
0.135675	282.687
0.136458	283.502
0.137246	284.319
0.138038	285.138
0.138835	285.96
0.139637	286.785
0.140443	287.611
0.141254	288.44
0.142069	289.272
0.142889	290.105
0.143714	290.942
0.144544	291.78
0.145378	292.621
0.146218	293.465
0.147062	294.31
0.147911	295.159
0.148765	296.01
0.149624	296.863
0.150487	297.718
0.151356	298.577
0.15223	299.437
0.153109	300.3
0.153993	301.166
0.154882	302.034
0.155776	302.904
0.156675	303.778
0.15758	304.653
0.158489	305.531
0.159404	306.412
0.160325	307.295
0.16125	308.181
0.162181	309.069
0.163117	309.96
0.164059	310.853
0.165006	311.749
0.165959	312.648
0.166917	313.549
0.16788	314.453
0.16885	315.359
0.169824	316.268
0.170805	317.18
0.171791	318.094
0.172783	319.011
0.17378	319.931
0.174783	320.853
0.175792	321.778
0.176807	322.705
0.177828	323.635
0.178855	324.568
0.179887	325.504
0.180926	326.442
0.18197	327.383
0.183021	328.326
0.184077	329.273
0.18514	330.222
0.186209	331.174
0.187284	332.128
0.188365	333.085
0.189452	334.046
0.190546	335.008
0.191646	335.974
0.192752	336.942
0.193865	337.914
0.194984	338.888
0.19611	339.864
0.197242	340.844
0.198381	341.826
0.199526	342.812
0.200678	343.8
0.201837	344.791
0.203002	345.785
0.204174	346.781
0.205353	347.781
0.206538	348.783
0.20773	349.789
0.20893	350.797
0.210136	351.808
0.211349	352.822
0.212569	353.839
0.213796	354.859
0.21503	355.882
0.216272	356.908
0.21752	357.936
0.218776	358.968
0.220039	360.003
0.221309	361.04
0.222587	362.081
0.223872	363.125
0.225165	364.171
0.226464	365.221
0.227772	366.274
0.229087	367.329
0.230409	368.388
0.231739	369.45
0.233077	370.515
0.234423	371.583
0.235776	372.654
0.237137	373.728
0.238506	374.805
0.239883	375.886
0.241268	376.969
0.242661	378.056
0.244062	379.145
0.245471	380.238
0.246888	381.334
0.248313	382.433
0.249747	383.536
0.251189	384.641
0.252639	385.75
0.254097	386.862
0.255564	387.977
0.25704	389.095
0.258523	390.217
0.260016	391.341
0.261517	392.469
0.263027	393.601
0.264545	394.735
0.266073	395.873
0.267609	397.014
0.269153	398.158
0.270707	399.306
0.27227	400.457
0.273842	401.611
0.275423	402.769
0.277013	403.93
0.278612	405.094
0.280221	406.262
0.281838	407.433
0.283465	408.607
0.285102	409.785
0.286748	410.966
0.288403	412.15
0.290068	413.338
0.291743	414.53
0.293427	415.725
0.295121	416.923
0.296825	418.125
0.298538	419.33
0.300262	420.538
0.301995	421.751
0.303739	422.966
0.305492	424.185
0.307256	425.408
0.30903	426.634
0.310814	427.864
0.312608	429.097
0.314413	430.334
0.316228	431.574
0.318053	432.818
0.31989	434.066
0.321736	435.317
0.323594	436.572
0.325462	437.83
0.327341	439.092
0.32923	440.358
0.331131	441.627
0.333043	442.9
0.334965	444.177
0.336899	445.457
0.338844	446.741
0.3408	448.029
0.342768	449.32
0.344747	450.615
0.346737	451.914
0.348739	453.216
0.350752	454.523
0.352777	455.833
0.354813	457.147
0.356862	458.464
0.358922	459.786
0.360994	461.111
0.363078	462.44
0.365174	463.773
0.367282	465.11
0.369403	466.451
0.371535	467.795
0.37368	469.144
0.375837	470.496
0.378007	471.852
0.380189	473.212
0.382384	474.576
0.384592	475.944
0.386812	477.316
0.389045	478.691
0.391291	480.071
0.39355	481.455
0.395822	482.843
0.398107	484.234
0.400405	485.657
0.402717	487.21
0.405042	488.772
0.40738	490.342
0.409732	491.921
0.412098	493.508
0.414477	495.103
0.416869	496.707
0.419276	498.32
0.421697	499.941
0.424131	501.57
0.42658	503.209
0.429042	504.855
0.431519	506.511
0.43401	508.175
0.436516	509.847
0.439036	511.529
0.44157	513.219
0.44412	514.917
0.446684	516.624
0.449262	518.34
0.451856	520.065
0.454465	521.798
0.457088	523.54
0.459727	525.291
0.462381	527.05
0.46505	528.818
0.467735	530.595
0.470435	532.38
0.473151	534.174
0.475883	535.977
0.47863	537.788
0.481393	539.561
0.484172	541.297
0.486968	543.04
0.489779	544.791
0.492606	546.551
0.49545	548.318
0.49831	550.094
0.501187	551.877
0.504081	553.669
0.506991	555.469
0.509918	557.276
0.512861	559.092
0.515822	560.916
0.5188	562.747
0.521795	564.586
0.524807	566.434
0.527837	568.289
0.530884	570.151
0.533949	572.022
0.537032	573.9
0.540132	575.786
0.54325	577.68
0.546387	579.581
0.549541	581.489
0.552713	583.405
0.555904	585.329
0.559114	587.259
0.562341	589.198
0.565588	591.143
0.568853	593.095
0.572137	595.055
0.57544	597.022
0.578762	598.995
0.582103	600.976
0.585464	602.963
0.588844	604.957
0.592243	606.958
0.595662	608.966
0.599101	610.979
0.60256	613
0.606038	615.026
0.609537	617.059
0.613056	619.098
0.616595	621.143
0.620155	623.194
0.623735	625.25
0.627336	627.312
0.630957	629.38
0.6346	631.453
0.638263	633.532
0.641948	635.602
0.645654	637.666
0.649382	639.735
0.653131	641.808
0.656901	643.886
0.660693	645.97
0.664508	648.058
0.668344	650.151
0.672202	652.249
0.676083	654.352
0.679986	656.46
0.683912	658.573
0.68786	660.69
0.691831	662.812
0.695825	664.94
0.699842	667.072
0.703882	669.208
0.707946	671.35
0.712033	673.497
0.716143	675.648
0.720278	677.804
0.724436	679.965
0.728618	682.13
0.732825	684.301
0.737055	686.476
0.74131	688.656
0.74559	690.841
0.749894	693.031
0.754223	695.225
0.758578	697.425
0.762957	699.629
0.767361	701.838
0.771792	704.052
0.776247	706.27
0.780728	708.494
0.785236	710.722
0.789769	712.955
0.794328	715.193
0.798914	717.436
0.803526	719.682
0.808165	721.934
0.812831	724.19
0.817523	726.451
0.822243	728.716
0.82699	730.986
0.831764	733.261
0.836566	735.54
0.841395	737.824
0.846253	740.112
0.851138	742.405
0.856052	744.701
0.860994	747.002
0.865964	749.308
0.870964	751.617
0.875992	753.93
0.881049	756.248
0.886135	758.569
0.891251	760.894
0.896396	763.223
0.901571	765.556
0.906776	767.892
0.912011	770.232
0.917276	772.576
0.922571	774.923
0.927897	777.273
0.933254	779.627
0.938642	781.983
0.944061	784.343
0.949511	786.706
0.954993	789.072
0.960506	791.441
0.966051	793.813
0.971628	796.188
0.977237	798.565
0.982879	800.945
0.988553	803.328
0.99426	805.713
1	808.101
1.00577	810.492
1.01158	812.885
1.01742	815.281
1.02329	817.679
1.0292	820.08
1.03514	822.483
1.04112	824.889
1.04713	827.298
1.05317	829.708
1.05925	832.121
1.06537	834.537
1.07152	836.955
1.07771	839.375
1.08393	841.797
1.09018	844.222
1.09648	846.649
1.10281	849.079
1.10917	851.511
1.11558	853.945
1.12202	856.381
1.1285	858.819
1.13501	861.26
1.14156	863.703
1.14815	866.147
1.15478	868.593
1.16145	871.041
1.16815	873.49
1.1749	875.941
1.18168	878.393
1.1885	880.846
1.19536	883.3
1.20226	885.755
1.20921	888.21
1.21619	890.666
1.22321	893.122
1.23027	895.578
1.23737	898.035
1.24451	900.491
1.2517	902.947
1.25893	905.402
1.26619	907.857
1.2735	910.312
1.28086	912.765
1.28825	915.217
1.29569	917.668
1.30317	920.117
1.31069	922.566
1.31826	925.012
1.32587	927.458
1.33352	929.901
1.34122	932.343
1.34896	934.784
1.35675	937.222
1.36458	939.658
1.37246	942.093
1.38038	944.525
1.38835	946.955
1.39637	949.383
1.40443	951.809
1.41254	954.232
1.42069	956.653
1.42889	959.071
1.43714	961.487
1.44544	963.9
1.45378	966.31
1.46218	968.718
1.47062	971.122
1.47911	973.523
1.48765	975.921
1.49624	978.315
1.50487	980.706
1.51356	983.092
1.5223	985.475
1.53109	987.854
1.53993	990.229
1.54882	992.599
1.55776	994.964
1.56675	997.325
1.5758	999.681
1.58489	1002.03
1.59404	1004.38
1.60325	1006.72
1.6125	1009.06
1.62181	1011.39
1.63117	1013.72
1.64059	1016.04
1.65006	1018.35
1.65959	1020.66
1.66917	1022.96
1.6788	1025.26
1.6885	1027.55
1.69824	1029.83
1.70805	1032.11
1.71791	1034.38
1.72783	1036.64
1.7378	1038.89
1.74783	1041.14
1.75792	1043.38
1.76807	1045.61
1.77828	1047.83
1.78855	1050.05
1.79887	1052.26
1.80926	1054.46
1.8197	1056.65
1.83021	1058.83
1.84077	1061
1.8514	1063.17
1.86209	1065.33
1.87284	1067.47
1.88365	1069.61
1.89452	1071.74
1.90546	1073.86
1.91646	1075.97
1.92752	1078.07
1.93865	1080.16
1.94984	1082.24
1.9611	1084.31
1.97242	1086.37
1.98381	1088.42
1.99526	1090.46
2.00678	1092.49
2.01837	1094.51
2.03002	1096.52
2.04174	1098.52
2.05353	1100.5
2.06538	1102.48
2.0773	1104.45
2.0893	1106.4
2.10136	1108.34
2.11349	1110.28
2.12569	1112.2
2.13796	1114.11
2.1503	1116
2.16272	1117.89
2.1752	1119.76
2.18776	1121.63
2.20039	1123.48
2.21309	1125.32
2.22587	1127.15
2.23872	1128.97
2.25165	1130.77
2.26464	1132.56
2.27772	1134.35
2.29087	1136.11
2.30409	1137.87
2.31739	1139.62
2.33077	1141.35
2.34423	1143.08
2.35776	1144.79
2.37137	1146.49
2.38506	1148.17
2.39883	1149.85
2.41268	1151.47
2.42661	1153.08
2.44062	1154.67
2.45471	1156.25
2.46888	1157.82
2.48313	1159.37
2.49747	1160.92
2.51189	1162.45
2.52639	1163.96
2.54097	1165.47
2.55564	1166.96
2.5704	1168.44
2.58523	1169.9
2.60016	1171.35
2.61517	1172.79
2.63027	1174.21
2.64545	1175.62
2.66073	1177.02
2.67609	1178.4
2.69153	1179.76
2.70707	1181.11
2.7227	1182.45
2.73842	1183.77
2.75423	1185.08
2.77013	1186.37
2.78612	1187.65
2.80221	1188.92
2.81838	1190.16
2.83465	1191.39
2.85102	1192.61
2.86748	1193.81
2.88403	1195
2.90068	1196.17
2.91743	1197.33
2.93427	1198.46
2.95121	1199.59
2.96825	1200.7
2.98538	1201.79
3.00262	1202.86
3.01995	1203.92
3.03739	1204.97
3.05492	1206
3.07256	1207.01
3.0903	1208.01
3.10814	1208.99
3.12608	1209.95
3.14413	1210.9
3.16228	1211.83
3.18053	1212.75
3.1989	1213.65
3.21736	1214.55
3.23594	1215.43
3.25462	1216.3
3.27341	1217.15
3.2923	1217.99
3.31131	1218.81
3.33043	1219.61
3.34965	1220.4
3.36899	1221.17
3.38844	1221.92
3.408	1222.66
3.42768	1223.38
3.44747	1224.09
3.46737	1224.78
3.48739	1225.46
3.50752	1226.12
3.52777	1226.76
3.54813	1227.38
3.56862	1227.99
3.58922	1228.59
3.60994	1229.17
3.63078	1229.73
3.65174	1230.28
3.67282	1230.81
3.69403	1231.32
3.71535	1231.82
3.7368	1232.31
3.75837	1232.78
3.78007	1233.23
3.80189	1233.67
3.82384	1234.1
3.84592	1234.51
3.86812	1234.9
3.89045	1235.28
3.91291	1235.65
3.9355	1236
3.95822	1236.34
3.98107	1236.66
4.00405	1236.98
4.02717	1237.28
4.05042	1237.56
4.0738	1237.84
4.09732	1238.1
4.12098	1238.34
4.14477	1238.58
4.16869	1238.8
4.19276	1239.01
4.21697	1239.2
4.24131	1239.38
4.2658	1239.55
4.29042	1239.7
4.31519	1239.84
4.3401	1239.97
4.36516	1240.08
4.39036	1240.18
4.4157	1240.27
4.4412	1240.35
4.46684	1240.41
4.49262	1240.46
4.51856	1240.49
4.54465	1240.51
4.57088	1240.52
4.59727	1240.52
4.62381	1240.5
4.6505	1240.47
4.67735	1240.43
4.70435	1240.38
4.73151	1240.31
4.75883	1240.23
4.7863	1240.14
4.81393	1240.04
4.84172	1239.93
4.86968	1239.8
4.89779	1239.67
4.92606	1239.52
4.9545	1239.36
4.9831	1239.19
5.01187	1239
5.04081	1238.8
5.06991	1238.59
5.09918	1238.37
5.12861	1238.14
5.15822	1237.89
5.188	1237.63
5.21795	1237.36
5.24807	1237.08
5.27837	1236.79
5.30884	1236.48
5.33949	1236.16
5.37032	1235.83
5.40132	1235.48
5.4325	1235.13
5.46387	1234.76
5.49541	1234.38
5.52713	1233.98
5.55904	1233.58
5.59114	1233.16
5.62341	1232.73
5.65588	1232.29
5.68853	1231.84
5.72137	1231.37
5.7544	1230.9
5.78762	1230.41
5.82103	1229.91
5.85464	1229.4
5.88844	1228.88
5.92243	1228.35
5.95662	1227.8
5.99101	1227.25
6.0256	1226.68
6.06038	1226.11
6.09537	1225.52
6.13056	1224.92
6.16595	1224.32
6.20155	1223.7
6.23735	1223.08
6.27336	1222.44
6.30957	1221.79
6.346	1221.14
6.38263	1220.48
6.41948	1219.8
6.45654	1219.12
6.49382	1218.42
6.53131	1217.72
6.56901	1217
6.60693	1216.28
6.64508	1215.55
6.68344	1214.81
6.72202	1214.07
6.76083	1213.31
6.79986	1212.54
6.83912	1211.77
6.8786	1210.99
6.91831	1210.2
6.95825	1209.4
6.99842	1208.59
7.03882	1207.77
7.07946	1206.95
7.12033	1206.11
7.16143	1205.27
7.20278	1204.41
7.24436	1203.55
7.28618	1202.68
7.32825	1201.8
7.37055	1200.91
7.4131	1200.02
7.4559	1199.11
7.49894	1198.2
7.54223	1197.27
7.58578	1196.34
7.62957	1195.4
7.67361	1194.45
7.71792	1193.49
7.76247	1192.53
7.80728	1191.55
7.85236	1190.57
7.89769	1189.58
7.94328	1188.58
7.98914	1187.57
8.03526	1186.55
8.08165	1185.53
8.12831	1184.49
8.17523	1183.45
8.22243	1182.4
8.2699	1181.34
8.31764	1180.28
8.36566	1179.2
8.41395	1178.12
8.46253	1177.03
8.51138	1175.93
8.56052	1174.82
8.60994	1173.71
8.65964	1172.58
8.70964	1171.45
8.75992	1170.31
8.81049	1169.16
8.86135	1168
8.91251	1166.84
8.96396	1165.66
9.01571	1164.48
9.06776	1163.29
9.12011	1162.1
9.17276	1160.89
9.22571	1159.68
9.27897	1158.46
9.33254	1157.23
9.38642	1155.99
9.44061	1154.75
9.49511	1153.5
9.54993	1152.24
9.60506	1150.97
9.66051	1149.69
9.71628	1148.41
9.77237	1147.12
9.82879	1145.83
9.88553	1144.53
9.9426	1143.21
10	1141.9
10.0577	1140.57
10.1158	1139.24
10.1742	1137.9
10.2329	1136.55
10.292	1135.2
10.3514	1133.84
10.4112	1132.48
10.4713	1131.1
10.5317	1129.72
10.5925	1128.34
10.6537	1126.94
10.7152	1125.54
10.7771	1124.14
10.8393	1122.72
10.9018	1121.3
10.9648	1119.88
11.0281	1118.45
11.0917	1117.01
11.1558	1115.57
11.2202	1114.12
11.285	1112.67
11.3501	1111.21
11.4156	1109.74
11.4815	1108.27
11.5478	1106.79
11.6145	1105.31
11.6815	1103.82
11.749	1102.32
11.8168	1100.82
11.885	1099.32
11.9536	1097.8
12.0226	1096.29
12.0921	1094.76
12.1619	1093.23
12.2321	1091.69
12.3027	1090.15
12.3737	1088.6
12.4451	1087.05
12.517	1085.49
12.5893	1083.92
12.6619	1082.35
12.735	1080.77
12.8086	1079.18
12.8825	1077.59
12.9569	1075.99
13.0317	1074.38
13.1069	1072.77
13.1826	1071.16
13.2587	1069.53
13.3352	1067.9
13.4122	1066.27
13.4896	1064.63
13.5675	1062.98
13.6458	1061.33
13.7246	1059.67
13.8038	1058.01
13.8835	1056.34
13.9637	1054.67
14.0443	1052.99
14.1254	1051.31
14.2069	1049.62
14.2889	1047.93
14.3714	1046.23
14.4544	1044.53
14.5378	1042.82
14.6218	1041.11
14.7062	1039.4
14.7911	1037.68
14.8765	1035.95
14.9624	1034.23
15.0487	1032.49
15.1356	1030.76
15.223	1029.02
15.3109	1027.27
15.3993	1025.52
15.4882	1023.77
15.5776	1022.01
15.6675	1020.25
15.758	1018.48
15.8489	1016.71
15.9404	1014.93
16.0325	1013.15
16.125	1011.37
16.2181	1009.58
16.3117	1007.78
16.4059	1005.99
16.5006	1004.19
16.5959	1002.38
16.6917	1000.57
16.788	998.754
16.885	996.936
16.9824	995.113
17.0805	993.287
17.1791	991.456
17.2783	989.622
17.378	987.783
17.4783	985.941
17.5792	984.094
17.6807	982.244
17.7828	980.39
17.8855	978.532
17.9887	976.67
18.0926	974.805
18.197	972.935
18.3021	971.062
18.4077	969.186
18.514	967.305
18.6209	965.421
18.7284	963.533
18.8365	961.642
18.9452	959.747
19.0546	957.849
19.1646	955.947
19.2752	954.042
19.3865	952.133
19.4984	950.221
19.611	948.305
19.7242	946.386
19.8381	944.464
19.9526	942.539
20.0678	940.61
20.1837	938.678
20.3002	936.742
20.4174	934.804
20.5353	932.862
20.6538	930.917
20.773	928.969
20.893	927.018
21.0136	925.064
21.1349	923.107
21.2569	921.147
21.3796	919.184
21.503	917.218
21.6272	915.249
21.752	913.277
21.8776	911.303
22.0039	909.325
22.1309	907.345
22.2587	905.362
22.3872	903.376
22.5165	901.388
22.6464	899.396
22.7772	897.403
22.9087	895.406
23.0409	893.407
23.1739	891.405
23.3077	889.4
23.4423	887.393
23.5776	885.384
23.7137	883.372
23.8506	881.357
23.9883	879.34
24.1268	877.335
24.2661	875.328
24.4062	873.32
24.5471	871.309
24.6888	869.296
24.8313	867.281
24.9747	865.264
25.1189	863.245
25.2639	861.223
25.4097	859.2
25.5564	857.175
25.704	855.148
25.8523	853.119
26.0016	851.088
26.1517	849.056
26.3027	847.022
26.4545	844.986
26.6073	842.949
26.7609	840.91
26.9153	838.87
27.0707	836.828
27.227	834.785
27.3842	832.74
27.5423	830.694
27.7013	828.647
27.8612	826.599
28.0221	824.55
28.1838	822.499
28.3465	820.447
28.5102	818.395
28.6748	816.341
28.8403	814.286
29.0068	812.231
29.1743	810.174
29.3427	808.117
29.5121	806.059
29.6825	804
29.8538	801.941
30.0262	799.881
30.1995	797.82
30.3739	795.759
30.5492	793.697
30.7256	791.635
30.903	789.572
31.0814	787.508
31.2608	785.445
31.4413	783.381
31.6228	781.316
31.8053	779.252
31.989	777.187
32.1736	775.116
32.3594	773.045
32.5462	770.974
32.7341	768.902
32.923	766.831
33.1131	764.759
33.3043	762.688
33.4965	760.616
33.6899	758.545
33.8844	756.474
34.08	754.403
34.2768	752.333
34.4747	750.262
34.6737	748.192
34.8739	746.123
35.0752	744.053
35.2777	741.985
35.4813	739.917
35.6862	737.849
35.8922	735.782
36.0994	733.716
36.3078	731.65
36.5174	729.586
36.7282	727.521
36.9403	725.458
37.1535	723.396
37.368	721.334
37.5837	719.273
37.8007	717.213
38.0189	715.154
38.2384	713.096
38.4592	711.039
38.6812	708.983
38.9045	706.928
39.1291	704.874
39.355	702.821
39.5822	700.769
39.8107	698.719
40.0405	696.669
40.2717	694.619
40.5042	692.571
40.738	690.525
40.9732	688.479
41.2098	686.434
41.4477	684.391
41.6869	682.349
41.9276	680.309
42.1697	678.27
42.4131	676.232
42.658	674.196
42.9042	672.161
43.1519	670.127
43.401	668.096
43.6516	666.065
43.9036	664.037
44.157	662.01
44.412	659.984
44.6684	657.961
44.9262	655.938
45.1856	653.918
45.4465	651.899
45.7088	649.882
45.9727	647.866
46.2381	645.853
46.505	643.84
46.7735	641.83
47.0435	639.821
47.3151	637.814
47.5883	635.808
47.863	633.804
48.1393	631.801
48.4172	629.797
48.6968	627.796
48.9779	625.796
49.2606	623.798
49.545	621.801
49.831	619.807
50.1187	617.814
50.4081	615.823
50.6991	613.835
50.9918	611.848
51.2861	609.864
51.5822	607.882
51.88	605.902
52.1795	603.924
52.4807	601.948
52.7837	599.975
53.0884	598.005
53.3949	596.037
53.7032	594.071
54.0132	592.108
54.325	590.147
54.6387	588.189
54.9541	586.234
55.2713	584.281
55.5904	582.331
55.9114	580.383
56.2341	578.439
56.5588	576.497
56.8853	574.557
57.2137	572.621
57.544	570.687
57.8762	568.756
58.2103	566.828
58.5464	564.902
58.8844	562.98
59.2243	561.06
59.5662	559.143
59.9101	557.228
60.256	555.316
60.6038	553.407
60.9537	551.501
61.3056	549.597
61.6595	547.696
62.0155	545.798
62.3735	543.902
62.7336	542.008
63.0957	540.117
63.46	538.229
63.8263	536.342
64.1948	534.463
64.5654	532.591
64.9382	530.721
65.3131	528.853
65.6901	526.988
66.0693	525.126
66.4508	523.266
66.8344	521.409
67.2202	519.554
67.6083	517.702
67.9986	515.854
68.3912	514.008
68.786	512.165
69.1831	510.325
69.5825	508.488
69.9842	506.655
70.3882	504.824
70.7946	502.997
71.2033	501.174
71.6143	499.353
72.0278	497.536
72.4436	495.722
72.8618	493.912
73.2825	492.105
73.7055	490.302
74.131	488.502
74.559	486.706
74.9894	484.914
75.4223	483.125
75.8578	481.34
76.2957	479.559
76.7361	477.782
77.1792	476.008
77.6247	474.238
78.0728	472.471
78.5236	470.709
78.9769	468.95
79.4328	467.195
79.8914	465.444
80.3526	463.695
80.8165	461.949
81.2831	460.206
81.7523	458.467
82.2243	456.733
82.699	455.002
83.1764	453.275
83.6566	451.553
84.1395	449.834
84.6253	448.12
85.1138	446.41
85.6052	444.704
86.0994	443.002
86.5964	441.304
87.0964	439.611
87.5992	437.921
88.1049	436.236
88.6135	434.556
89.1251	432.88
89.6396	431.207
90.1571	429.54
90.6776	427.876
91.2011	426.217
91.7276	424.562
92.2571	422.911
92.7897	421.265
93.3254	419.623
93.8642	417.985
94.4061	416.351
94.9511	414.721
95.4993	413.095
96.0506	411.474
96.6051	409.856
97.1628	408.242
97.7237	406.632
98.2879	405.026
98.8553	403.425
99.426	401.827
100	400.234
100.577	398.645
101.158	397.061
101.742	395.48
102.329	393.904
102.92	392.332
103.514	390.765
104.112	389.202
104.713	387.643
105.317	386.089
105.925	384.539
106.537	382.993
107.152	381.452
107.771	379.915
108.393	378.383
109.018	376.855
109.648	375.331
110.281	373.811
110.917	372.296
111.558	370.785
112.202	369.278
112.85	367.775
113.501	366.277
114.156	364.783
114.815	363.293
115.478	361.807
116.145	360.326
116.815	358.849
117.49	357.377
118.168	355.909
118.85	354.445
119.536	352.986
120.226	351.532
120.921	350.082
121.619	348.636
122.321	347.195
123.027	345.758
123.737	344.326
124.451	342.898
125.17	341.475
125.893	340.056
126.619	338.641
127.35	337.231
128.086	335.826
128.825	334.424
129.569	333.027
130.317	331.635
131.069	330.247
131.826	328.863
132.587	327.484
133.352	326.109
134.122	324.739
134.896	323.373
135.675	322.012
136.458	320.656
137.246	319.304
138.038	317.956
138.835	316.613
139.637	315.275
140.443	313.941
141.254	312.611
142.069	311.287
142.889	309.966
143.714	308.65
144.544	307.339
145.378	306.031
146.218	304.729
147.062	303.43
147.911	302.136
148.765	300.847
149.624	299.562
150.487	298.281
151.356	297.004
152.23	295.732
153.109	294.463
153.993	293.199
154.882	291.939
155.776	290.684
156.675	289.432
157.58	288.184
158.489	286.94
159.404	285.7
160.325	284.462
161.25	283.227
162.181	281.996
163.117	280.768
164.059	279.545
165.006	278.325
165.959	277.109
166.917	275.897
167.88	274.689
168.85	273.486
169.824	272.286
170.805	271.091
171.791	269.9
172.783	268.714
173.78	267.531
174.783	266.354
175.792	265.18
176.807	264.011
177.828	262.847
178.855	261.687
179.887	260.532
180.926	259.381
181.97	258.236
183.021	257.094
184.077	255.958
185.14	254.826
186.209	253.699
187.284	252.577
188.365	251.46
189.452	250.347
190.546	249.24
191.646	248.137
192.752	247.039
193.865	245.946
194.984	244.858
196.11	243.775
197.242	242.697
198.381	241.623
199.526	240.555
200.678	239.491
201.837	238.432
203.002	237.378
204.174	236.328
205.353	235.284
206.538	234.244
207.73	233.209
208.93	232.179
210.136	231.153
211.349	230.131
212.569	229.115
213.796	228.102
215.03	227.095
216.272	226.091
217.52	225.092
218.776	224.097
220.039	223.106
221.309	222.119
222.587	221.136
223.872	220.157
225.165	219.181
226.464	218.209
227.772	217.241
229.087	216.276
230.409	215.314
231.739	214.355
233.077	213.399
234.423	212.446
235.776	211.496
237.137	210.548
238.506	209.602
239.883	208.659
241.268	207.74
242.661	206.825
244.062	205.913
245.471	205.003
246.888	204.095
248.313	203.189
249.747	202.286
251.189	201.384
252.639	200.486
254.097	199.59
255.564	198.696
257.04	197.805
258.523	196.916
260.016	196.03
261.517	195.147
263.027	194.266
264.545	193.388
266.073	192.514
267.609	191.641
269.153	190.772
270.707	189.906
272.27	189.043
273.842	188.182
275.423	187.325
277.013	186.471
278.612	185.62
280.221	184.772
281.838	183.928
283.465	183.086
285.102	182.248
286.748	181.414
288.403	180.582
290.068	179.754
291.743	178.929
293.427	178.108
295.121	177.291
296.825	176.476
298.538	175.666
300.262	174.858
301.995	174.055
303.739	173.255
305.492	172.458
307.256	171.665
309.03	170.876
310.814	170.091
312.608	169.309
314.413	168.531
316.228	167.756
318.053	166.985
319.89	166.218
321.736	165.451
323.594	164.687
325.462	163.926
327.341	163.169
329.23	162.417
331.131	161.667
333.043	160.922
334.965	160.18
336.899	159.442
338.844	158.708
340.8	157.978
342.768	157.251
344.747	156.528
346.737	155.809
348.739	155.093
350.752	154.381
352.777	153.673
354.813	152.969
356.862	152.268
358.922	151.571
360.994	150.878
363.078	150.188
365.174	149.502
367.282	148.819
369.403	148.14
371.535	147.464
373.68	146.791
375.837	146.122
378.007	145.456
380.189	144.794
382.384	144.134
384.592	143.478
386.812	142.825
389.045	142.174
391.291	141.527
393.55	140.882
395.822	140.24
398.107	139.601
400.405	138.964
402.717	138.329
405.042	137.697
407.38	137.067
409.732	136.44
412.098	135.815
414.477	135.193
416.869	134.573
419.276	133.956
421.697	133.341
424.131	132.729
426.58	132.12
429.042	131.513
431.519	130.909
434.01	130.307
436.516	129.708
439.036	129.112
441.57	128.518
444.12	127.927
446.684	127.339
449.262	126.753
451.856	126.17
454.465	125.589
457.088	125.011
459.727	124.436
462.381	123.863
465.05	123.293
467.735	122.725
470.435	122.16
473.151	121.597
475.883	121.037
478.63	120.479
481.393	119.923
484.172	119.37
486.968	118.818
489.779	118.269
492.606	117.722
495.45	117.178
498.31	116.637
501.187	116.098
504.081	115.561
506.991	115.027
509.918	114.496
512.861	113.967
515.822	113.441
518.8	112.918
521.795	112.397
524.807	111.879
527.837	111.363
530.884	110.85
533.949	110.34
537.032	109.832
540.132	109.327
543.25	108.824
546.387	108.324
549.541	107.827
552.713	107.332
555.904	106.84
559.114	106.351
562.341	105.864
565.588	105.38
568.853	104.898
572.137	104.419
575.44	103.942
578.762	103.468
582.103	102.996
585.464	102.526
588.844	102.059
592.243	101.594
595.662	101.132
599.101	100.672
602.56	100.214
606.038	99.7584
609.537	99.3048
613.056	98.8534
616.595	98.4039
620.155	97.9565
623.735	97.5109
627.336	97.0673
630.957	96.6254
634.6	96.1852
638.263	95.7466
641.948	95.3117
645.654	94.8801
649.382	94.4502
653.131	94.0218
656.901	93.595
660.693	93.1699
664.508	92.7464
668.344	92.3246
672.202	91.9044
676.083	91.486
679.986	91.0693
683.912	90.6543
687.86	90.2411
691.831	89.8296
695.825	89.4199
699.842	89.012
703.882	88.6059
707.946	88.2016
712.033	87.7991
716.143	87.3984
720.278	86.9996
724.436	86.6026
728.618	86.2075
732.825	85.8142
737.055	85.4228
741.31	85.0333
745.59	84.6456
749.894	84.2599
754.223	83.876
758.578	83.4939
762.957	83.1138
767.361	82.7355
771.792	82.3591
776.247	81.9845
780.728	81.6118
785.236	81.241
789.769	80.872
794.328	80.5048
798.914	80.1395
803.526	79.7753
808.165	79.4127
812.831	79.0519
817.523	78.6929
822.243	78.3357
826.99	77.9804
831.764	77.6269
836.566	77.2752
841.395	76.9253
846.253	76.5773
851.138	76.231
856.052	75.8866
860.994	75.544
865.964	75.2032
870.964	74.8641
875.992	74.5269
881.049	74.1915
886.135	73.8578
891.251	73.5258
896.396	73.1956
901.571	72.8671
906.776	72.5403
912.011	72.2152
917.276	71.8917
922.571	71.5699
927.897	71.2497
933.254	70.9311
938.642	70.614
944.061	70.2985
949.511	69.9844
954.993	69.6718
960.506	69.3606
966.051	69.0508
971.628	68.7424
977.237	68.4354
982.879	68.1298
988.553	67.8256
994.26	67.5228
1000	67.2214
1005.77	66.9215
1011.58	66.623
1017.42	66.3259
1023.29	66.0302
1029.2	65.736
1035.14	65.4432
1041.12	65.1518
1047.13	64.8618
1053.17	64.5733
1059.25	64.2862
1065.37	64.0004
1071.52	63.7161
1077.71	63.4332
1083.93	63.1516
1090.18	62.8715
1096.48	62.5927
1102.81	62.3152
1109.17	62.0391
1115.58	61.7643
1122.02	61.4907
1128.5	61.2185
1135.01	60.9476
1141.56	60.678
1148.15	60.4097
1154.78	60.1427
1161.45	59.877
1168.15	59.6126
1174.9	59.3495
1181.68	59.0878
1188.5	58.8274
1195.36	58.5683
1202.26	58.3105
1209.21	58.054
1216.19	57.7988
1223.21	57.545
1230.27	57.2924
1237.37	57.0412
1244.51	56.7912
1251.7	56.5425
1258.93	56.2951
1266.19	56.0489
1273.5	55.804
1280.86	55.5603
1288.25	55.3179
1295.69	55.0767
1303.17	54.8367
1310.69	54.5979
1318.26	54.3603
1325.87	54.124
1333.52	53.8889
1341.22	53.655
1348.96	53.4222
1356.75	53.1907
1364.58	52.9604
1372.46	52.7312
1380.38	52.5033
1388.35	52.2764
1396.37	52.0507
1404.43	51.8262
1412.54	51.6028
1420.69	51.3804
1428.89	51.1592
1437.14	50.939
1445.44	50.7199
1453.78	50.5018
1462.18	50.2848
1470.62	50.0688
1479.11	49.8538
1487.65	49.6399
1496.24	49.4269
1504.87	49.215
1513.56	49.0041
1522.3	48.7942
1531.09	48.5852
1539.93	48.3773
1548.82	48.1617
1557.76	47.9407
1566.75	47.7208
1575.8	47.5019
1584.89	47.2841
1594.04	47.0674
1603.25	46.8515
1612.5	46.6363
1621.81	46.4221
1631.17	46.209
1640.59	45.9968
1650.06	45.7858
1659.59	45.5757
1669.17	45.3667
1678.8	45.1588
1688.5	44.952
1698.24	44.7462
1708.05	44.5415
1717.91	44.3379
1727.83	44.1354
1737.8	43.934
1747.83	43.7338
1757.92	43.5346
1768.07	43.3366
1778.28	43.1397
1788.55	42.9439
1798.87	42.7493
1809.26	42.5558
1819.7	42.3634
1830.21	42.1722
1840.77	41.9822
1851.4	41.7933
1862.09	41.6055
1872.84	41.419
1883.65	41.2335
1894.52	41.0493
1905.46	40.8661
1916.46	40.6842
1927.52	40.5034
1938.65	40.3237
1949.84	40.1452
1961.1	39.9679
1972.42	39.7917
1983.81	39.6166
1995.26	39.4427
2006.78	39.2699
2018.37	39.0982
2030.02	38.9277
2041.74	38.7582
2053.53	38.5898
2065.38	38.4226
2077.3	38.2564
2089.3	38.0912
2101.36	37.9272
2113.49	37.7641
2125.69	37.6021
2137.96	37.4412
2150.3	37.2812
2162.72	37.1221
2175.2	36.9641
2187.76	36.807
2200.39	36.6508
2213.09	36.4955
2225.87	36.341
2238.72	36.1875
2251.65	36.0347
2264.64	35.8827
2277.72	35.7316
2290.87	35.5811
2304.09	35.4314
2317.39	35.2823
2330.77	35.1339
2344.23	34.9861
2357.76	34.8389
2371.37	34.6922
2385.06	34.546
2398.83	34.4003
2412.68	34.2591
2426.61	34.1188
2440.62	33.9789
2454.71	33.8395
2468.88	33.7005
2483.13	33.562
2497.47	33.424
2511.89	33.2864
2526.39	33.1493
2540.97	33.0128
2555.64	32.8767
2570.4	32.7411
2585.23	32.6061
2600.16	32.4716
2615.17	32.3376
2630.27	32.2041
2645.45	32.0712
2660.73	31.9388
2676.09	31.807
2691.53	31.6758
2707.07	31.5451
2722.7	31.415
2738.42	31.2854
2754.23	31.1565
2770.13	31.0282
2786.12	30.9004
2802.21	30.7733
2818.38	30.6468
2834.65	30.5208
2851.02	30.3956
2867.48	30.2709
2884.03	30.1469
2900.68	30.0235
2917.43	29.9008
2934.27	29.7787
2951.21	29.6572
2968.25	29.5365
2985.38	29.4163
3002.62	29.2969
3019.95	29.1781
3037.39	29.06
3054.92	28.9426
3072.56	28.8258
3090.3	28.7098
3108.14	28.5944
3126.08	28.4797
3144.13	28.3657
3162.28	28.2524
3180.53	28.1399
3198.9	28.028
3217.36	27.9161
3235.94	27.8049
3254.62	27.6945
3273.41	27.5847
3292.3	27.4756
3311.31	27.3672
3330.43	27.2596
3349.65	27.1526
3368.99	27.0463
3388.44	26.9407
3408	26.8358
3427.68	26.7317
3447.47	26.6282
3467.37	26.5253
3487.39	26.4232
3507.52	26.3218
3527.77	26.221
3548.13	26.1209
3568.62	26.0215
3589.22	25.9227
3609.94	25.8246
3630.78	25.7272
3651.74	25.6304
3672.82	25.5342
3694.03	25.4386
3715.35	25.3437
3736.8	25.2494
3758.37	25.1556
3780.07	25.0625
3801.89	24.9699
3823.84	24.8779
3845.92	24.7864
3868.12	24.6955
3890.45	24.6051
3912.91	24.5152
3935.5	24.4257
3958.22	24.3368
3981.07	24.2483
4004.05	24.1602
4027.17	24.0726
4050.42	23.9853
4073.8	23.8985
4097.32	23.8121
4120.98	23.7261
4144.77	23.6406
4168.69	23.5555
4192.76	23.4708
4216.97	23.3865
4241.31	23.3027
4265.8	23.2194
4290.42	23.1365
4315.19	23.054
4340.1	22.972
4365.16	22.8904
4390.36	22.8092
4415.7	22.7285
4441.2	22.6483
4466.84	22.5685
4492.62	22.4891
4518.56	22.4102
4544.65	22.3317
4570.88	22.2536
4597.27	22.176
4623.81	22.0988
4650.5	22.0221
4677.35	21.9458
4704.35	21.8699
4731.51	21.7944
4758.83	21.7194
4786.3	21.6448
4813.93	21.5705
4841.72	21.4965
4869.68	21.4229
4897.79	21.3498
4926.06	21.2771
4954.5	21.2048
4983.1	21.1329
5011.87	21.0614
5040.81	20.9904
5069.91	20.9198
5099.18	20.8496
5128.61	20.7798
5158.22	20.7105
5188	20.6416
5217.95	20.5732
5248.07	20.5052
5278.37	20.4376
5308.84	20.3704
5339.49	20.3037
5370.32	20.2374
5401.32	20.1715
5432.5	20.1061
5463.87	20.0411
5495.41	19.9765
5527.13	19.9124
5559.04	19.8487
5591.14	19.7854
5623.41	19.7225
5655.88	19.66
5688.53	19.598
5721.37	19.5363
5754.4	19.4751
5787.62	19.4143
5821.03	19.3539
5854.64	19.2938
5888.44	19.2342
5922.43	19.1749
5956.62	19.116
5991.01	19.0575
6025.6	18.9993
6060.38	18.9415
6095.37	18.8841
6130.56	18.827
6165.95	18.7702
6201.55	18.7137
6237.35	18.6575
6273.36	18.6017
6309.57	18.5461
6346	18.4909
6382.63	18.4359
6419.48	18.3814
6456.54	18.3275
6493.82	18.2738
6531.31	18.2203
6569.01	18.1672
6606.93	18.1143
6645.08	18.0616
6683.44	18.0093
6722.02	17.9572
6760.83	17.9054
6799.86	17.8538
6839.12	17.8026
6878.6	17.7516
6918.31	17.7009
6958.25	17.6504
6998.42	17.6003
7038.82	17.5504
7079.46	17.5009
7120.33	17.4516
7161.43	17.4026
7202.78	17.3539
7244.36	17.3055
7286.18	17.2573
7328.25	17.2095
7370.55	17.1619
7413.1	17.1147
7455.9	17.0677
7498.94	17.0211
7542.23	16.9747
7585.78	16.9286
7629.57	16.8828
7673.61	16.8373
7717.92	16.7921
7762.47	16.7472
7807.28	16.7026
7852.36	16.6582
7897.69	16.6142
7943.28	16.5704
7989.14	16.5269
8035.26	16.4836
8081.65	16.4405
8128.31	16.3977
8175.23	16.3552
8222.43	16.313
8269.9	16.2711
8317.64	16.2294
8365.66	16.188
8413.95	16.1469
8462.53	16.1061
8511.38	16.0655
8560.52	16.0253
8609.94	15.9853
8659.64	15.9455
8709.64	15.9061
8759.92	15.8669
8810.49	15.828
8861.35	15.7894
8912.51	15.7511
8963.96	15.713
9015.71	15.6751
9067.76	15.6376
9120.11	15.6003
9172.76	15.5632
9225.71	15.5264
9278.97	15.4899
9332.54	15.4535
9386.42	15.4175
9440.61	15.3817
9495.11	15.3461
9549.93	15.3107
9605.06	15.2755
9660.51	15.2406
9716.28	15.2059
9772.37	15.1714
9828.79	15.1371
9885.53	15.103
9942.6	15.0692
10000	15.0355
10057.7	15.0021
10115.8	14.9689
10174.2	14.936
10232.9	14.9032
10292	14.8707
10351.4	14.8384
10411.2	14.8063
10471.3	14.7744
10531.7	14.7428
10592.5	14.7113
10653.7	14.6801
10715.2	14.6491
10777.1	14.6183
10839.3	14.5877
10901.8	14.5574
10964.8	14.5272
11028.1	14.4972
11091.7	14.4675
11155.8	14.4379
11220.2	14.4086
11285	14.3794
11350.1	14.3505
11415.6	14.3217
11481.5	14.2931
11547.8	14.2648
11614.5	14.2366
11681.5	14.2086
11749	14.1808
11816.8	14.1533
11885	14.1259
11953.6	14.0987
12022.6	14.0717
12092.1	14.0449
12161.9	14.0183
12232.1	13.9919
12302.7	13.9656
12373.7	13.9396
12445.1	13.9138
12517	13.8881
12589.3	13.8626
12661.9	13.8373
12735	13.8122
12808.6	13.7873
12882.5	13.7625
12956.9	13.7379
13031.7	13.7135
13106.9	13.6892
13182.6	13.6652
13258.7	13.6413
13335.2	13.6176
13412.2	13.594
13489.6	13.5707
13567.5	13.5475
13645.8	13.5244
13724.6	13.5016
13803.8	13.4789
13883.5	13.4564
13963.7	13.4341
14044.3	13.4119
14125.4	13.3899
14206.9	13.3681
14288.9	13.3464
14371.4	13.3249
14454.4	13.3035
14537.8	13.2823
14621.8	13.2613
14706.2	13.2404
14791.1	13.2197
14876.5	13.1991
14962.4	13.1786
15048.7	13.1583
15135.6	13.1382
15223	13.1181
15310.9	13.0982
15399.3	13.0785
15488.2	13.0588
15577.6	13.0393
15667.5	13.0199
15758	13.0006
15848.9	12.9814
15940.4	12.9623
16032.5	12.9429
16125	12.9229
16218.1	12.9031
16311.7	12.8835
16405.9	12.8639
16500.6	12.8445
16595.9	12.8253
16691.7	12.8062
16788	12.7873
16885	12.7685
16982.4	12.7498
17080.5	12.7313
17179.1	12.7129
17278.3	12.6946
17378	12.6765
17478.3	12.6586
17579.2	12.6407
17680.7	12.623
17782.8	12.6055
17885.5	12.588
17988.7	12.5707
18092.6	12.5536
18197	12.5365
18302.1	12.5196
18407.7	12.5028
18514	12.4862
18620.9	12.4697
18728.4	12.4533
18836.5	12.437
18945.2	12.4209
19054.6	12.4049
19164.6	12.389
19275.2	12.3733
19386.5	12.3576
19498.4	12.3421
19611	12.3268
19724.2	12.3115
19838.1	12.2963
19952.6	12.2813
20067.8	12.2664
20183.7	12.2516
20300.2	12.237
20417.4	12.2224
20535.3	12.208
20653.8	12.1937
20773	12.1795
20893	12.1654
21013.6	12.1514
21134.9	12.1376
21256.9	12.1238
21379.6	12.1102
21503	12.0967
21627.2	12.0832
21752	12.0699
21877.6	12.0568
22003.9	12.0437
22130.9	12.0307
22258.7	12.0178
22387.2	12.0051
22516.5	11.9924
22646.4	11.9799
22777.2	11.9674
22908.7	11.9551
23040.9	11.9429
23173.9	11.9307
23307.7	11.9187
23442.3	11.9068
23577.6	11.895
23713.7	11.8832
23850.6	11.8716
23988.3	11.8601
24126.8	11.8487
24266.1	11.8373
24406.2	11.8261
24547.1	11.815
24688.8	11.8039
24831.3	11.793
24974.7	11.7821
25118.9	11.7714
25263.9	11.7607
25409.7	11.7502
25556.4	11.7397
25704	11.7293
25852.3	11.7191
26001.6	11.7089
26151.7	11.6988
26302.7	11.6887
26454.5	11.6788
26607.3	11.669
26760.9	11.6592
26915.3	11.6496
27070.7	11.64
27227	11.6305
27384.2	11.6211
27542.3	11.6118
27701.3	11.6026
27861.2	11.5935
28022.1	11.5844
28183.8	11.5754
28346.5	11.5665
28510.2	11.5577
28674.8	11.549
28840.3	11.5404
29006.8	11.5318
29174.3	11.5233
29342.7	11.5149
29512.1	11.5066
29682.5	11.4983
29853.8	11.4902
30026.2	11.4821
30199.5	11.4741
30373.9	11.4661
30549.2	11.4583
30725.6	11.4505
30903	11.4428
31081.4	11.4352
31260.8	11.4276
31441.3	11.4201
31622.8	11.4127
31805.3	11.4054
31989	11.3981
32173.6	11.3909
32359.4	11.3838
32546.2	11.3767
32734.1	11.3698
32923	11.3629
33113.1	11.356
33304.3	11.3492
33496.5	11.3425
33689.9	11.3359
33884.4	11.3293
34080	11.3228
34276.8	11.3164
34474.7	11.31
34673.7	11.3037
34873.9	11.2975
35075.2	11.2913
35277.7	11.2852
35481.3	11.2792
35686.2	11.2732
35892.2	11.2673
36099.4	11.2614
36307.8	11.2556
36517.4	11.2499
36728.2	11.2442
36940.3	11.2386
37153.5	11.2331
37368	11.2276
37583.7	11.2222
37800.7	11.2168
38018.9	11.2115
38238.4	11.2063
38459.2	11.2011
38681.2	11.1959
38904.5	11.1908
39129.1	11.1858
39355	11.1809
39582.2	11.176
39810.7	11.1711
40040.5	11.1663
40271.7	11.1616
40504.2	11.1569
40738	11.1522
40973.2	11.1477
41209.8	11.1431
41447.7	11.1386
41686.9	11.1342
41927.6	11.1299
42169.7	11.1255
42413.1	11.1213
42658	11.117
42904.2	11.1129
43151.9	11.1088
43401	11.1047
43651.6	11.1007
43903.6	11.0967
44157	11.0928
44412	11.0889
44668.4	11.0851
44926.2	11.0813
45185.6	11.0776
45446.5	11.0739
45708.8	11.0702
45972.7	11.0666
46238.1	11.0631
46505	11.0596
46773.5	11.0561
47043.5	11.0527
47315.1	11.0494
47588.3	11.046
47863	11.0428
48139.3	11.0395
48417.2	11.0363
48696.8	11.0332
48977.9	11.0301
49260.6	11.027
49545	11.024
49831	11.021
50118.7	11.018
50408.1	11.0151
50699.1	11.0122
50991.8	11.0094
51286.1	11.0066
51582.2	11.0039
51880	11.0012
52179.5	10.9985
52480.7	10.9959
52783.7	10.9933
53088.4	10.9907
53394.9	10.9882
53703.2	10.9857
54013.2	10.9833
54325	10.9809
54638.7	10.9785
54954.1	10.9761
55271.3	10.9738
55590.4	10.9716
55911.4	10.9693
56234.1	10.9671
56558.8	10.965
56885.3	10.9628
57213.7	10.9607
57544	10.9587
57876.2	10.9566
58210.3	10.9546
58546.4	10.9527
58884.4	10.9507
59224.3	10.9488
59566.2	10.947
59910.1	10.9451
60256	10.9433
60603.8	10.9415
60953.7	10.9398
61305.6	10.9381
61659.5	10.9364
62015.5	10.9347
62373.5	10.9331
62733.6	10.9315
63095.7	10.9299
63460	10.9284
63826.3	10.9268
64194.8	10.9254
64565.4	10.9239
64938.2	10.9225
65313.1	10.9211
65690.1	10.9197
66069.3	10.9183
66450.8	10.917
66834.4	10.9157
67220.2	10.9144
67608.3	10.9132
67998.6	10.912
68391.2	10.9108
68786	10.9096
69183.1	10.9084
69582.5	10.9073
69984.2	10.9062
70388.2	10.9051
70794.6	10.9041
71203.3	10.9031
71614.3	10.902
72027.8	10.9011
72443.6	10.9001
72861.8	10.8992
73282.5	10.8983
73705.5	10.8974
74131	10.8965
74559	10.8956
74989.4	10.8948
75422.3	10.894
75857.8	10.8932
76295.7	10.8925
76736.1	10.8917
77179.2	10.891
77624.7	10.8903
78072.8	10.8896
78523.6	10.8889
78976.9	10.8883
79432.8	10.8877
79891.4	10.887
80352.6	10.8865
80816.5	10.8859
81283.1	10.8853
81752.3	10.8848
82224.3	10.8843
82699	10.8838
83176.4	10.8833
83656.6	10.8829
84139.5	10.8824
84625.3	10.882
85113.8	10.8816
85605.2	10.8812
86099.4	10.8808
86596.4	10.8804
87096.4	10.8801
87599.2	10.8798
88104.9	10.8794
88613.5	10.8791
89125.1	10.8789
89639.6	10.8786
90157.1	10.8783
90677.6	10.8781
91201.1	10.8779
91727.6	10.8777
92257.1	10.8775
92789.7	10.8773
93325.4	10.8771
93864.2	10.877
94406.1	10.8768
94951.1	10.8767
95499.3	10.8766
96050.6	10.8765
96605.1	10.8764
97162.8	10.8763
97723.7	10.8763
98287.9	10.8762
98855.3	10.8762
99426	10.8762
100000	10.8762
100577	10.8762
101158	10.8762
101742	10.8762
102329	10.8762
102920	10.8763
103514	10.8763
104112	10.8764
104713	10.8765
105317	10.8766
105925	10.8767
106537	10.8768
107152	10.8769
107771	10.877
108393	10.8772
109018	10.8773
109648	10.8775
110281	10.8776
110917	10.8778
111558	10.878
112202	10.8782
112850	10.8784
113501	10.8786
114156	10.8788
114815	10.8791
115478	10.8793
116145	10.8796
116815	10.8798
117490	10.8801
118168	10.8804
118850	10.8806
119536	10.8809
120226	10.8812
120921	10.8815
121619	10.8818
122321	10.8822
123027	10.8825
123737	10.8828
124451	10.8832
125170	10.8835
125893	10.8838
126619	10.8842
127350	10.8846
128086	10.8849
128825	10.8853
129569	10.8857
130317	10.8861
131069	10.8865
131826	10.8869
132587	10.8873
133352	10.8877
134122	10.8881
134896	10.8885
135675	10.889
136458	10.8894
137246	10.8898
138038	10.8903
138835	10.8907
139637	10.8912
140443	10.8916
141254	10.8921
142069	10.8926
142889	10.893
143714	10.8935
144544	10.894
145378	10.8945
146218	10.895
147062	10.8954
147911	10.8959
148765	10.8964
149624	10.8969
150487	10.8974
151356	10.898
152230	10.8985
153109	10.899
153993	10.8995
154882	10.9
155776	10.9005
156675	10.9011
157580	10.9016
158489	10.9021
159404	10.9027
160325	10.9032
161250	10.9038
162181	10.9043
163117	10.9048
164059	10.9054
165006	10.9059
165959	10.9065
166917	10.907
167880	10.9076
168850	10.9082
169824	10.9087
170805	10.9093
171791	10.9099
172783	10.9104
173780	10.911
174783	10.9116
175792	10.9121
176807	10.9127
177828	10.9133
178855	10.9138
179887	10.9144
180926	10.915
181970	10.9156
183021	10.9162
184077	10.9167
185140	10.9173
186209	10.9179
187284	10.9185
188365	10.9191
189452	10.9197
190546	10.9202
191646	10.9208
192752	10.9214
193865	10.922
194984	10.9226
196110	10.9232
197242	10.9238
198381	10.9244
199526	10.9249
200678	10.9255
201837	10.9261
203002	10.9267
204174	10.9273
205353	10.9279
206538	10.9285
207730	10.9291
208930	10.9297
210136	10.9302
211349	10.9308
212569	10.9314
213796	10.932
215030	10.9326
216272	10.9332
217520	10.9338
218776	10.9344
220039	10.9349
221309	10.9355
222587	10.9361
223872	10.9367
225165	10.9373
226464	10.9379
227772	10.9384
229087	10.939
230409	10.9396
231739	10.9402
233077	10.9408
234423	10.9413
235776	10.9419
237137	10.9425
238506	10.9431
239883	10.9436
241268	10.9442
242661	10.9448
244062	10.9453
245471	10.9459
246888	10.9465
248313	10.947
249747	10.9476
251189	10.9482
252639	10.9487
254097	10.9493
255564	10.9498
257040	10.9504
258523	10.951
260016	10.9515
261517	10.9521
263027	10.9526
264545	10.9532
266073	10.9537
267609	10.9543
269153	10.9548
270707	10.9553
272270	10.9559
273842	10.9564
275423	10.957
277013	10.9575
278612	10.958
280221	10.9585
281838	10.9591
283465	10.9596
285102	10.9601
286748	10.9607
288403	10.9612
290068	10.9617
291743	10.9622
293427	10.9627
295121	10.9632
296825	10.9637
298538	10.9643
300262	10.9648
301995	10.9653
303739	10.9658
305492	10.9663
307256	10.9668
309030	10.9673
310814	10.9678
312608	10.9682
314413	10.9687
316228	10.9692
318053	10.9697
319890	10.9702
321736	10.9707
323594	10.9711
325462	10.9716
327341	10.9721
329230	10.9726
331131	10.973
333043	10.9735
334965	10.974
336899	10.9744
338844	10.9749
340800	10.9753
342768	10.9758
344747	10.9762
346737	10.9767
348739	10.9771
350752	10.9776
352777	10.978
354813	10.9785
356862	10.9789
358922	10.9793
360994	10.9798
363078	10.9802
365174	10.9806
367282	10.981
369403	10.9814
371535	10.9819
373680	10.9823
375837	10.9827
378007	10.9831
380189	10.9835
382384	10.9839
384592	10.9843
386812	10.9847
389045	10.9851
391291	10.9855
393550	10.9859
395822	10.9863
398107	10.9867
400405	10.9871
402717	10.9874
405042	10.9878
407380	10.9882
409732	10.9886
412098	10.9889
414477	10.9893
416869	10.9897
419276	10.99
421697	10.9904
424131	10.9908
426580	10.9911
429042	10.9915
431519	10.9918
434010	10.9922
436516	10.9925
439036	10.9928
441570	10.9932
444120	10.9935
446684	10.9938
449262	10.9942
451856	10.9945
454465	10.9948
457088	10.9952
459727	10.9955
462381	10.9958
465050	10.9961
467735	10.9964
470435	10.9967
473151	10.997
475883	10.9973
478630	10.9976
481393	10.9979
484172	10.9982
486968	10.9985
489779	10.9988
492606	10.9991
495450	10.9994
498310	10.9997
501187	10.9999
504081	11.0002
506991	11.0005
509918	11.0008
512861	11.001
515822	11.0013
518800	11.0016
521795	11.0018
524807	11.0021
527837	11.0024
530884	11.0026
533949	11.0029
537032	11.0031
540132	11.0034
543250	11.0036
546387	11.0038
549541	11.0041
552713	11.0043
555904	11.0045
559114	11.0048
562341	11.005
565588	11.0052
568853	11.0055
572137	11.0057
575440	11.0059
578762	11.0061
582103	11.0063
585464	11.0065
588844	11.0067
592243	11.0069
595662	11.0072
599101	11.0074
602560	11.0076
606038	11.0077
609537	11.0079
613056	11.0081
616595	11.0083
620155	11.0085
623735	11.0087
627336	11.0089
630957	11.0091
634600	11.0092
638263	11.0094
641948	11.0096
645654	11.0097
649382	11.0099
653131	11.0101
656901	11.0102
660693	11.0104
664508	11.0106
668344	11.0107
672202	11.0109
676083	11.011
679986	11.0112
683912	11.0113
687860	11.0115
691831	11.0116
695825	11.0118
699842	11.0119
703882	11.012
707946	11.0122
712033	11.0123
716143	11.0124
720278	11.0126
724436	11.0127
728618	11.0128
732825	11.0129
737055	11.0131
741310	11.0132
745590	11.0133
749894	11.0134
754223	11.0135
758578	11.0136
762957	11.0137
767361	11.0138
771792	11.0139
776247	11.014
780728	11.0141
785236	11.0142
789769	11.0143
794328	11.0144
798914	11.0145
803526	11.0146
808165	11.0147
812831	11.0148
817523	11.0149
822243	11.015
826990	11.015
831764	11.0151
836566	11.0152
841395	11.0153
846253	11.0154
851138	11.0154
856052	11.0155
860994	11.0156
865964	11.0156
870964	11.0157
875992	11.0158
881049	11.0158
886135	11.0159
891251	11.0159
896396	11.016
901571	11.0161
906776	11.0161
912011	11.0162
917276	11.0162
922571	11.0163
927897	11.0163
933254	11.0164
938642	11.0164
944061	11.0165
949511	11.0165
954993	11.0165
960506	11.0166
966051	11.0166
971628	11.0167
977237	11.0167
982879	11.0167
988553	11.0168
994260	11.0168
1e+06	11.0168
1.00577e+06	11.0169
1.01158e+06	11.0169
1.01742e+06	11.0169
1.02329e+06	11.0169
1.0292e+06	11.017
1.03514e+06	11.017
1.04112e+06	11.017
1.04713e+06	11.017
1.05317e+06	11.017
1.05925e+06	11.0171
1.06537e+06	11.0171
1.07152e+06	11.0171
1.07771e+06	11.0171
1.08393e+06	11.0171
1.09018e+06	11.0171
1.09648e+06	11.0171
1.10281e+06	11.0172
1.10917e+06	11.0172
1.11558e+06	11.0172
1.12202e+06	11.0172
1.1285e+06	11.0172
1.13501e+06	11.0172
1.14156e+06	11.0172
1.14815e+06	11.0172
1.15478e+06	11.0172
1.16145e+06	11.0172
1.16815e+06	11.0172
1.1749e+06	11.0172
1.18168e+06	11.0172
1.1885e+06	11.0172
1.19536e+06	11.0172
1.20226e+06	11.0172
1.20921e+06	11.0172
1.21619e+06	11.0172
1.22321e+06	11.0172
1.23027e+06	11.0172
1.23737e+06	11.0172
1.24451e+06	11.0172
1.2517e+06	11.0172
1.25893e+06	11.0172
1.26619e+06	11.0172
1.2735e+06	11.0171
1.28086e+06	11.0171
1.28825e+06	11.0171
1.29569e+06	11.0171
1.30317e+06	11.0171
1.31069e+06	11.0171
1.31826e+06	11.0171
1.32587e+06	11.0171
1.33352e+06	11.0171
1.34122e+06	11.017
1.34896e+06	11.017
1.35675e+06	11.017
1.36458e+06	11.017
1.37246e+06	11.017
1.38038e+06	11.017
1.38835e+06	11.017
1.39637e+06	11.0169
1.40443e+06	11.0169
1.41254e+06	11.0169
1.42069e+06	11.0169
1.42889e+06	11.0169
1.43714e+06	11.0168
1.44544e+06	11.0168
1.45378e+06	11.0168
1.46218e+06	11.0168
1.47062e+06	11.0168
1.47911e+06	11.0168
1.48765e+06	11.0167
1.49624e+06	11.0167
1.50487e+06	11.0167
1.51356e+06	11.0167
1.5223e+06	11.0167
1.53109e+06	11.0166
1.53993e+06	11.0166
1.54882e+06	11.0166
1.55776e+06	11.0166
1.56675e+06	11.0166
1.5758e+06	11.0166
1.58489e+06	11.0165
1.59404e+06	11.0165
1.60325e+06	11.0165
1.6125e+06	11.0165
1.62181e+06	11.0165
1.63117e+06	11.0164
1.64059e+06	11.0164
1.65006e+06	11.0164
1.65959e+06	11.0164
1.66917e+06	11.0164
1.6788e+06	11.0164
1.6885e+06	11.0163
1.69824e+06	11.0163
1.70805e+06	11.0163
1.71791e+06	11.0163
1.72783e+06	11.0163
1.7378e+06	11.0163
1.74783e+06	11.0163
1.75792e+06	11.0162
1.76807e+06	11.0162
1.77828e+06	11.0162
1.78855e+06	11.0162
1.79887e+06	11.0162
1.80926e+06	11.0162
1.8197e+06	11.0161
1.83021e+06	11.0161
1.84077e+06	11.0161
1.8514e+06	11.0161
1.86209e+06	11.0161
1.87284e+06	11.0161
1.88365e+06	11.0161
1.89452e+06	11.016
1.90546e+06	11.016
1.91646e+06	11.016
1.92752e+06	11.016
1.93865e+06	11.016
1.94984e+06	11.016
1.9611e+06	11.016
1.97242e+06	11.016
1.98381e+06	11.0159
1.99526e+06	11.0159
2.00678e+06	11.0159
2.01837e+06	11.0159
2.03002e+06	11.0159
2.04174e+06	11.0159
2.05353e+06	11.0159
2.06538e+06	11.0159
2.0773e+06	11.0158
2.0893e+06	11.0158
2.10136e+06	11.0158
2.11349e+06	11.0158
2.12569e+06	11.0158
2.13796e+06	11.0158
2.1503e+06	11.0158
2.16272e+06	11.0158
2.1752e+06	11.0158
2.18776e+06	11.0157
2.20039e+06	11.0157
2.21309e+06	11.0157
2.22587e+06	11.0157
2.23872e+06	11.0157
2.25165e+06	11.0157
2.26464e+06	11.0157
2.27772e+06	11.0157
2.29087e+06	11.0157
2.30409e+06	11.0156
2.31739e+06	11.0156
2.33077e+06	11.0156
2.34423e+06	11.0156
2.35776e+06	11.0156
2.37137e+06	11.0156
2.38506e+06	11.0156
2.39883e+06	11.0156
2.41268e+06	11.0156
2.42661e+06	11.0156
2.44062e+06	11.0155
2.45471e+06	11.0155
2.46888e+06	11.0155
2.48313e+06	11.0155
2.49747e+06	11.0155
2.51189e+06	11.0155
2.52639e+06	11.0155
2.54097e+06	11.0155
2.55564e+06	11.0155
2.5704e+06	11.0155
2.58523e+06	11.0155
2.60016e+06	11.0154
2.61517e+06	11.0154
2.63027e+06	11.0154
2.64545e+06	11.0154
2.66073e+06	11.0154
2.67609e+06	11.0154
2.69153e+06	11.0154
2.70707e+06	11.0154
2.7227e+06	11.0154
2.73842e+06	11.0154
2.75423e+06	11.0154
2.77013e+06	11.0154
2.78612e+06	11.0154
2.80221e+06	11.0153
2.81838e+06	11.0153
2.83465e+06	11.0153
2.85102e+06	11.0153
2.86748e+06	11.0153
2.88403e+06	11.0153
2.90068e+06	11.0153
2.91743e+06	11.0153
2.93427e+06	11.0153
2.95121e+06	11.0153
2.96825e+06	11.0153
2.98538e+06	11.0153
3.00262e+06	11.0153
3.01995e+06	11.0153
3.03739e+06	11.0152
3.05492e+06	11.0152
3.07256e+06	11.0152
3.0903e+06	11.0152
3.10814e+06	11.0152
3.12608e+06	11.0152
3.14413e+06	11.0152
3.16228e+06	11.0152
3.18053e+06	11.0152
3.1989e+06	11.0152
3.21736e+06	11.0152
3.23594e+06	11.0152
3.25462e+06	11.0152
3.27341e+06	11.0152
3.2923e+06	11.0152
3.31131e+06	11.0152
3.33043e+06	11.0151
3.34965e+06	11.0151
3.36899e+06	11.0151
3.38844e+06	11.0151
3.408e+06	11.0151
3.42768e+06	11.0151
3.44747e+06	11.0151
3.46737e+06	11.0151
3.48739e+06	11.0151
3.50752e+06	11.0151
3.52777e+06	11.0151
3.54813e+06	11.0151
3.56862e+06	11.0151
3.58922e+06	11.0151
3.60994e+06	11.0151
3.63078e+06	11.0151
3.65174e+06	11.0151
3.67282e+06	11.0151
3.69403e+06	11.015
3.71535e+06	11.015
3.7368e+06	11.015
3.75837e+06	11.015
3.78007e+06	11.015
3.80189e+06	11.015
3.82384e+06	11.015
3.84592e+06	11.015
3.86812e+06	11.015
3.89045e+06	11.015
3.91291e+06	11.015
3.9355e+06	11.015
3.95822e+06	11.015
3.98107e+06	11.015
4.00405e+06	11.015
4.02717e+06	11.015
4.05042e+06	11.015
4.0738e+06	11.015
4.09732e+06	11.015
4.12098e+06	11.015
4.14477e+06	11.015
4.16869e+06	11.0149
4.19276e+06	11.0149
4.21697e+06	11.0149
4.24131e+06	11.0149
4.2658e+06	11.0149
4.29042e+06	11.0149
4.31519e+06	11.0149
4.3401e+06	11.0149
4.36516e+06	11.0149
4.39036e+06	11.0149
4.4157e+06	11.0149
4.4412e+06	11.0149
4.46684e+06	11.0149
4.49262e+06	11.0149
4.51856e+06	11.0149
4.54465e+06	11.0149
4.57088e+06	11.0149
4.59727e+06	11.0149
4.62381e+06	11.0149
4.6505e+06	11.0149
4.67735e+06	11.0149
4.70435e+06	11.0149
4.73151e+06	11.0149
4.75883e+06	11.0149
4.7863e+06	11.0149
4.81393e+06	11.0149
4.84172e+06	11.0148
4.86968e+06	11.0148
4.89779e+06	11.0148
4.92606e+06	11.0148
4.9545e+06	11.0148
4.9831e+06	11.0148
5.01187e+06	11.0148
5.04081e+06	11.0148
5.06991e+06	11.0148
5.09918e+06	11.0148
5.12861e+06	11.0148
5.15822e+06	11.0148
5.188e+06	11.0148
5.21795e+06	11.0148
5.24807e+06	11.0148
5.27837e+06	11.0148
5.30884e+06	11.0148
5.33949e+06	11.0148
5.37032e+06	11.0148
5.40132e+06	11.0148
5.4325e+06	11.0148
5.46387e+06	11.0148
5.49541e+06	11.0148
5.52713e+06	11.0148
5.55904e+06	11.0148
5.59114e+06	11.0148
5.62341e+06	11.0148
5.65588e+06	11.0148
5.68853e+06	11.0148
5.72137e+06	11.0148
5.7544e+06	11.0148
5.78762e+06	11.0148
5.82103e+06	11.0147
5.85464e+06	11.0147
5.88844e+06	11.0147
5.92243e+06	11.0147
5.95662e+06	11.0147
5.99101e+06	11.0147
6.0256e+06	11.0147
6.06038e+06	11.0147
6.09537e+06	11.0147
6.13056e+06	11.0147
6.16595e+06	11.0147
6.20155e+06	11.0147
6.23735e+06	11.0147
6.27336e+06	11.0147
6.30957e+06	11.0147
6.346e+06	11.0147
6.38263e+06	11.0147
6.41948e+06	11.0147
6.45654e+06	11.0147
6.49382e+06	11.0147
6.53131e+06	11.0147
6.56901e+06	11.0147
6.60693e+06	11.0147
6.64508e+06	11.0147
6.68344e+06	11.0147
6.72202e+06	11.0147
6.76083e+06	11.0147
6.79986e+06	11.0147
6.83912e+06	11.0147
6.8786e+06	11.0147
6.91831e+06	11.0147
6.95825e+06	11.0147
6.99842e+06	11.0147
7.03882e+06	11.0147
7.07946e+06	11.0147
7.12033e+06	11.0147
7.16143e+06	11.0147
7.20278e+06	11.0147
7.24436e+06	11.0147
7.28618e+06	11.0147
7.32825e+06	11.0147
7.37055e+06	11.0147
7.4131e+06	11.0146
7.4559e+06	11.0146
7.49894e+06	11.0146
7.54223e+06	11.0146
7.58578e+06	11.0146
7.62957e+06	11.0146
7.67361e+06	11.0146
7.71792e+06	11.0146
7.76247e+06	11.0146
7.80728e+06	11.0146
7.85236e+06	11.0146
7.89769e+06	11.0146
7.94328e+06	11.0146
7.98914e+06	11.0146
8.03526e+06	11.0146
8.08165e+06	11.0146
8.12831e+06	11.0146
8.17523e+06	11.0146
8.22243e+06	11.0146
8.2699e+06	11.0146
8.31764e+06	11.0146
8.36566e+06	11.0146
8.41395e+06	11.0146
8.46253e+06	11.0146
8.51138e+06	11.0146
8.56052e+06	11.0146
8.60994e+06	11.0146
8.65964e+06	11.0146
8.70964e+06	11.0146
8.75992e+06	11.0146
8.81049e+06	11.0146
8.86135e+06	11.0146
8.91251e+06	11.0146
8.96396e+06	11.0146
9.01571e+06	11.0146
9.06776e+06	11.0146
9.12011e+06	11.0146
9.17276e+06	11.0146
9.22571e+06	11.0146
9.27897e+06	11.0146
9.33254e+06	11.0146
9.38642e+06	11.0146
9.44061e+06	11.0146
9.49511e+06	11.0146
9.54993e+06	11.0146
9.60506e+06	11.0146
9.66051e+06	11.0146
9.71628e+06	11.0146
9.77237e+06	11.0146
9.82879e+06	11.0146
9.88553e+06	11.0146
9.9426e+06	11.0146
1e+07	11.0146
