Stopping power dEdx from Ionisation for P31[0.0] Z = 15 in G4_Si, process name: ionIoni
E [MeV]	dEdx [MeV/mm]
0.001	32.4765
0.00100577	32.5709
0.00101158	32.6656
0.00101742	32.7605
0.00102329	32.8557
0.0010292	32.9512
0.00103514	33.0469
0.00104112	33.143
0.00104713	33.2393
0.00105317	33.3358
0.00105925	33.4327
0.00106537	33.5298
0.00107152	33.6273
0.00107771	33.725
0.00108393	33.8229
0.00109018	33.9212
0.00109648	34.0197
0.00110281	34.1186
0.00110917	34.2177
0.00111558	34.3171
0.00112202	34.4168
0.0011285	34.5168
0.00113501	34.617
0.00114156	34.7176
0.00114815	34.8184
0.00115478	34.9195
0.00116145	35.021
0.00116815	35.1227
0.0011749	35.2247
0.00118168	35.327
0.0011885	35.4296
0.00119536	35.5325
0.00120226	35.6357
0.00120921	35.7392
0.00121619	35.843
0.00122321	35.947
0.00123027	36.0514
0.00123737	36.1561
0.00124451	36.2611
0.0012517	36.3664
0.00125893	36.472
0.00126619	36.5779
0.0012735	36.6841
0.00128086	36.7906
0.00128825	36.8974
0.00129569	37.0045
0.00130317	37.112
0.00131069	37.2197
0.00131826	37.3278
0.00132587	37.4361
0.00133352	37.5448
0.00134122	37.6538
0.00134896	37.7631
0.00135675	37.8727
0.00136458	37.9827
0.00137246	38.0929
0.00138038	38.2035
0.00138835	38.3144
0.00139637	38.4256
0.00140443	38.5371
0.00141254	38.649
0.00142069	38.7611
0.00142889	38.8736
0.00143714	38.9865
0.00144544	39.0996
0.00145378	39.2131
0.00146218	39.3269
0.00147062	39.441
0.00147911	39.5555
0.00148765	39.6702
0.00149624	39.7854
0.00150487	39.9008
0.00151356	40.0166
0.0015223	40.1327
0.00153109	40.2492
0.00153993	40.3659
0.00154882	40.4831
0.00155776	40.6005
0.00156675	40.7183
0.0015758	40.8365
0.00158489	40.9549
0.00159404	41.0738
0.00160325	41.1929
0.0016125	41.3124
0.00162181	41.4323
0.00163117	41.5525
0.00164059	41.673
0.00165006	41.7939
0.00165959	41.9152
0.00166917	42.0367
0.0016788	42.1587
0.0016885	42.281
0.00169824	42.4036
0.00170805	42.5266
0.00171791	42.65
0.00172783	42.7737
0.0017378	42.8977
0.00174783	43.0221
0.00175792	43.1469
0.00176807	43.2721
0.00177828	43.3976
0.00178855	43.5234
0.00179887	43.6496
0.00180926	43.7762
0.0018197	43.9032
0.00183021	44.0305
0.00184077	44.1582
0.0018514	44.2862
0.00186209	44.4147
0.00187284	44.5435
0.00188365	44.6726
0.00189452	44.8022
0.00190546	44.9321
0.00191646	45.0623
0.00192752	45.193
0.00193865	45.324
0.00194984	45.4555
0.0019611	45.5872
0.00197242	45.7194
0.00198381	45.852
0.00199526	45.9849
0.00200678	46.1182
0.00201837	46.2519
0.00203002	46.386
0.00204174	46.5205
0.00205353	46.6554
0.00206538	46.7906
0.0020773	46.9262
0.0020893	47.0623
0.00210136	47.1987
0.00211349	47.3355
0.00212569	47.4727
0.00213796	47.6103
0.0021503	47.7483
0.00216272	47.8867
0.0021752	48.0255
0.00218776	48.1647
0.00220039	48.3043
0.00221309	48.4444
0.00222587	48.5848
0.00223872	48.7256
0.00225165	48.8668
0.00226464	49.0084
0.00227772	49.1504
0.00229087	49.2929
0.00230409	49.4357
0.00231739	49.579
0.00233077	49.7227
0.00234423	49.8668
0.00235776	50.0113
0.00237137	50.1562
0.00238506	50.3016
0.00239883	50.4473
0.00241268	50.5935
0.00242661	50.7401
0.00244062	50.8871
0.00245471	51.0346
0.00246888	51.1824
0.00248313	51.3307
0.00249747	51.4795
0.00251189	51.6286
0.00252639	51.7782
0.00254097	51.9282
0.00255564	52.0787
0.0025704	52.2296
0.00258523	52.3809
0.00260016	52.5326
0.00261517	52.6848
0.00263027	52.8375
0.00264545	52.9905
0.00266073	53.144
0.00267609	53.298
0.00269153	53.4524
0.00270707	53.6072
0.0027227	53.7625
0.00273842	53.9183
0.00275423	54.0744
0.00277013	54.2311
0.00278612	54.3882
0.00280221	54.5457
0.00281838	54.7037
0.00283465	54.8621
0.00285102	55.0211
0.00286748	55.1804
0.00288403	55.3402
0.00290068	55.5005
0.00291743	55.6613
0.00293427	55.8225
0.00295121	55.9842
0.00296825	56.1463
0.00298538	56.3089
0.00300262	56.472
0.00301995	56.6355
0.00303739	56.7995
0.00305492	56.964
0.00307256	57.129
0.0030903	57.2944
0.00310814	57.4604
0.00312608	57.6267
0.00314413	57.7936
0.00316228	57.961
0.00318053	58.1288
0.0031989	58.2971
0.00321736	58.4659
0.00323594	58.6352
0.00325462	58.805
0.00327341	58.9753
0.0032923	59.1461
0.00331131	59.3173
0.00333043	59.4891
0.00334965	59.6613
0.00336899	59.834
0.00338844	60.0073
0.003408	60.181
0.00342768	60.3552
0.00344747	60.53
0.00346737	60.7052
0.00348739	60.881
0.00350752	61.0572
0.00352777	61.234
0.00354813	61.4113
0.00356862	61.589
0.00358922	61.7673
0.00360994	61.9462
0.00363078	62.1255
0.00365174	62.3053
0.00367282	62.4857
0.00369403	62.6666
0.00371535	62.848
0.0037368	63.0299
0.00375837	63.2123
0.00378007	63.3953
0.00380189	63.5788
0.00382384	63.7628
0.00384592	63.9474
0.00386812	64.1325
0.00389045	64.3181
0.00391291	64.5043
0.0039355	64.691
0.00395822	64.8782
0.00398107	65.066
0.00400405	65.2543
0.00402717	65.4432
0.00405042	65.6326
0.0040738	65.8225
0.00409732	66.013
0.00412098	66.2041
0.00414477	66.3957
0.00416869	66.5878
0.00419276	66.7805
0.00421697	66.9738
0.00424131	67.1676
0.0042658	67.362
0.00429042	67.5569
0.00431519	67.7524
0.0043401	67.9485
0.00436516	68.1451
0.00439036	68.3423
0.0044157	68.54
0.0044412	68.7384
0.00446684	68.9373
0.00449262	69.1368
0.00451856	69.3368
0.00454465	69.5374
0.00457088	69.7386
0.00459727	69.9404
0.00462381	70.1428
0.0046505	70.3457
0.00467735	70.5493
0.00470435	70.7534
0.00473151	70.9581
0.00475883	71.1634
0.0047863	71.3693
0.00481393	71.5758
0.00484172	71.7829
0.00486968	71.9905
0.00489779	72.1988
0.00492606	72.4077
0.0049545	72.6172
0.0049831	72.8273
0.00501187	73.038
0.00504081	73.2492
0.00506991	73.4612
0.00509918	73.6737
0.00512861	73.8868
0.00515822	74.1005
0.005188	74.3149
0.00521795	74.5299
0.00524807	74.7455
0.00527837	74.9617
0.00530884	75.1785
0.00533949	75.396
0.00537032	75.6141
0.00540132	75.8328
0.0054325	76.0522
0.00546387	76.2721
0.00549541	76.4928
0.00552713	76.714
0.00555904	76.9359
0.00559114	77.1584
0.00562341	77.3816
0.00565588	77.6054
0.00568853	77.8299
0.00572137	78.055
0.0057544	78.2807
0.00578762	78.5072
0.00582103	78.7342
0.00585464	78.9619
0.00588844	79.1903
0.00592243	79.4193
0.00595662	79.649
0.00599101	79.8794
0.0060256	80.1104
0.00606038	80.3421
0.00609537	80.5744
0.00613056	80.8074
0.00616595	81.0411
0.00620155	81.2755
0.00623735	81.5105
0.00627336	81.7462
0.00630957	81.9826
0.006346	82.2197
0.00638263	82.4575
0.00641948	82.6959
0.00645654	82.9351
0.00649382	83.1749
0.00653131	83.4154
0.00656901	83.6566
0.00660693	83.8985
0.00664508	84.1411
0.00668344	84.3844
0.00672202	84.6284
0.00676083	84.8731
0.00679986	85.1185
0.00683912	85.3646
0.0068786	85.6115
0.00691831	85.859
0.00695825	86.1072
0.00699842	86.3562
0.00703882	86.6059
0.00707946	86.8563
0.00712033	87.1074
0.00716143	87.3593
0.00720278	87.6118
0.00724436	87.8652
0.00728618	88.1192
0.00732825	88.3739
0.00737055	88.6294
0.0074131	88.8857
0.0074559	89.1427
0.00749894	89.4004
0.00754223	89.6588
0.00758578	89.918
0.00762957	90.178
0.00767361	90.4387
0.00771792	90.7001
0.00776247	90.9623
0.00780728	91.2253
0.00785236	91.489
0.00789769	91.7535
0.00794328	92.0187
0.00798914	92.2847
0.00803526	92.5515
0.00808165	92.8191
0.00812831	93.0874
0.00817523	93.3565
0.00822243	93.6263
0.0082699	93.897
0.00831764	94.1684
0.00836566	94.4406
0.00841395	94.7136
0.00846253	94.9873
0.00851138	95.2619
0.00856052	95.5373
0.00860994	95.8134
0.00865964	96.0903
0.00870964	96.3681
0.00875992	96.6466
0.00881049	96.926
0.00886135	97.2061
0.00891251	97.4871
0.00896396	97.7688
0.00901571	98.0514
0.00906776	98.3348
0.00912011	98.619
0.00917276	98.9041
0.00922571	99.1899
0.00927897	99.4766
0.00933254	99.7641
0.00938642	100.052
0.00944061	100.342
0.00949511	100.632
0.00954993	100.922
0.00960506	101.214
0.00966051	101.507
0.00971628	101.8
0.00977237	102.094
0.00982879	102.389
0.00988553	102.685
0.0099426	102.982
0.01	103.279
0.0100577	103.578
0.0101158	103.877
0.0101742	104.177
0.0102329	104.478
0.010292	104.78
0.0103514	105.083
0.0104112	105.387
0.0104713	105.691
0.0105317	105.997
0.0105925	106.303
0.0106537	106.61
0.0107152	106.918
0.0107771	107.495
0.0108393	107.805
0.0109018	108.116
0.0109648	108.428
0.0110281	108.74
0.0110917	109.053
0.0111558	109.368
0.0112202	109.683
0.011285	109.999
0.0113501	110.316
0.0114156	110.634
0.0114815	110.953
0.0115478	111.273
0.0116145	111.594
0.0116815	111.915
0.011749	112.238
0.0118168	112.561
0.011885	112.886
0.0119536	113.211
0.0120226	113.538
0.0120921	113.865
0.0121619	114.193
0.0122321	114.522
0.0123027	114.852
0.0123737	115.183
0.0124451	115.515
0.012517	115.848
0.0125893	116.182
0.0126619	116.517
0.012735	116.853
0.0128086	117.19
0.0128825	117.528
0.0129569	117.866
0.0130317	118.206
0.0131069	118.547
0.0131826	118.888
0.0132587	119.231
0.0133352	119.575
0.0134122	119.919
0.0134896	120.265
0.0135675	120.612
0.0136458	120.959
0.0137246	121.308
0.0138038	121.658
0.0138835	122.008
0.0139637	122.36
0.0140443	122.713
0.0141254	123.066
0.0142069	123.421
0.0142889	123.777
0.0143714	124.134
0.0144544	124.491
0.0145378	124.85
0.0146218	125.21
0.0147062	125.571
0.0147911	125.933
0.0148765	126.296
0.0149624	126.66
0.0150487	127.025
0.0151356	127.391
0.015223	127.758
0.0153109	128.127
0.0153993	128.496
0.0154882	128.866
0.0155776	129.238
0.0156675	129.61
0.015758	129.984
0.0158489	130.359
0.0159404	130.734
0.0160325	131.111
0.016125	131.489
0.0162181	131.868
0.0163117	132.248
0.0164059	132.629
0.0165006	133.012
0.0165959	133.395
0.0166917	133.779
0.016788	134.165
0.016885	134.552
0.0169824	134.94
0.0170805	135.329
0.0171791	135.719
0.0172783	136.11
0.017378	136.502
0.0174783	136.896
0.0175792	137.29
0.0176807	137.686
0.0177828	138.083
0.0178855	138.481
0.0179887	138.88
0.0180926	139.28
0.018197	139.682
0.0183021	140.084
0.0184077	140.488
0.018514	140.893
0.0186209	141.299
0.0187284	141.706
0.0188365	142.115
0.0189452	142.525
0.0190546	142.935
0.0191646	143.347
0.0192752	143.76
0.0193865	144.175
0.0194984	144.59
0.019611	145.007
0.0197242	145.425
0.0198381	145.844
0.0199526	146.265
0.0200678	146.686
0.0201837	147.109
0.0203002	147.533
0.0204174	147.958
0.0205353	148.385
0.0206538	148.813
0.020773	149.241
0.020893	149.672
0.0210136	150.103
0.0211349	150.536
0.0212569	150.97
0.0213796	151.405
0.021503	151.841
0.0216272	152.279
0.021752	152.718
0.0218776	153.158
0.0220039	153.599
0.0221309	154.042
0.0222587	154.486
0.0223872	154.931
0.0225165	155.378
0.0226464	155.826
0.0227772	156.275
0.0229087	156.725
0.0230409	157.177
0.0231739	157.63
0.0233077	158.085
0.0234423	158.54
0.0235776	158.997
0.0237137	159.456
0.0238506	159.915
0.0239883	160.376
0.0241268	160.838
0.0242661	161.302
0.0244062	161.767
0.0245471	162.233
0.0246888	162.701
0.0248313	163.17
0.0249747	163.64
0.0251189	164.112
0.0252639	164.585
0.0254097	165.059
0.0255564	165.535
0.025704	166.012
0.0258523	166.491
0.0260016	166.97
0.0261517	167.452
0.0263027	167.934
0.0264545	168.418
0.0266073	168.904
0.0267609	169.391
0.0269153	169.879
0.0270707	170.369
0.027227	170.86
0.0273842	171.352
0.0275423	171.846
0.0277013	172.341
0.0278612	172.838
0.0280221	173.336
0.0281838	173.836
0.0283465	174.337
0.0285102	174.839
0.0286748	175.343
0.0288403	175.849
0.0290068	176.356
0.0291743	176.864
0.0293427	177.374
0.0295121	177.885
0.0296825	178.398
0.0298538	178.912
0.0300262	179.428
0.0301995	179.945
0.0303739	180.464
0.0305492	180.984
0.0307256	181.505
0.030903	182.029
0.0310814	182.553
0.0312608	183.079
0.0314413	183.607
0.0316228	184.136
0.0318053	184.667
0.031989	185.199
0.0321736	185.733
0.0323594	186.269
0.0325462	186.805
0.0327341	187.344
0.032923	187.884
0.0331131	188.425
0.0333043	188.969
0.0334965	189.513
0.0336899	190.059
0.0338844	190.607
0.03408	191.157
0.0342768	191.708
0.0344747	192.26
0.0346737	192.814
0.0348739	193.37
0.0350752	193.928
0.0352777	194.487
0.0354813	195.047
0.0356862	195.609
0.0358922	196.173
0.0360994	196.739
0.0363078	197.306
0.0365174	197.874
0.0367282	198.445
0.0369403	199.017
0.0371535	199.59
0.037368	200.166
0.0375837	200.743
0.0378007	201.321
0.0380189	201.902
0.0382384	202.483
0.0384592	203.067
0.0386812	203.652
0.0389045	204.239
0.0391291	204.828
0.039355	205.418
0.0395822	206.011
0.0398107	206.604
0.0400405	207.2
0.0402717	207.797
0.0405042	208.396
0.040738	208.997
0.0409732	209.599
0.0412098	210.203
0.0414477	210.809
0.0416869	211.417
0.0419276	212.026
0.0421697	212.637
0.0424131	213.25
0.042658	213.865
0.0429042	214.481
0.0431519	215.1
0.043401	215.72
0.0436516	216.341
0.0439036	216.965
0.044157	217.59
0.044412	218.217
0.0446684	218.846
0.0449262	219.477
0.0451856	220.11
0.0454465	220.744
0.0457088	221.381
0.0459727	222.019
0.0462381	222.659
0.046505	223.3
0.0467735	223.944
0.0470435	224.59
0.0473151	225.237
0.0475883	225.886
0.047863	226.537
0.0481393	227.19
0.0484172	227.845
0.0486968	228.502
0.0489779	229.16
0.0492606	229.821
0.049545	230.483
0.049831	231.148
0.0501187	231.814
0.0504081	232.482
0.0506991	233.152
0.0509918	233.824
0.0512861	234.498
0.0515822	235.174
0.05188	235.852
0.0521795	236.532
0.0524807	237.214
0.0527837	237.897
0.0530884	238.583
0.0533949	239.271
0.0537032	239.96
0.0540132	240.652
0.054325	241.346
0.0546387	242.041
0.0549541	242.739
0.0552713	243.439
0.0555904	244.14
0.0559114	244.844
0.0562341	245.55
0.0565588	246.258
0.0568853	246.967
0.0572137	247.679
0.057544	248.393
0.0578762	249.109
0.0582103	249.827
0.0585464	250.547
0.0588844	251.269
0.0592243	251.994
0.0595662	252.72
0.0599101	253.448
0.060256	254.179
0.0606038	254.912
0.0609537	255.646
0.0613056	256.383
0.0616595	257.122
0.0620155	257.863
0.0623735	258.607
0.0627336	259.352
0.0630957	260.1
0.06346	260.849
0.0638263	261.601
0.0641948	262.355
0.0645654	263.111
0.0649382	263.87
0.0653131	264.63
0.0656901	265.393
0.0660693	266.158
0.0664508	266.925
0.0668344	267.695
0.0672202	268.466
0.0676083	269.24
0.0679986	270.016
0.0683912	270.794
0.068786	271.575
0.0691831	272.358
0.0695825	273.143
0.0699842	273.93
0.0703882	274.72
0.0707946	275.511
0.0712033	276.306
0.0716143	277.102
0.0720278	277.901
0.0724436	278.702
0.0728618	279.505
0.0732825	280.311
0.0737055	281.119
0.074131	281.929
0.074559	282.741
0.0749894	283.556
0.0754223	284.374
0.0758578	285.193
0.0762957	286.015
0.0767361	286.84
0.0771792	287.667
0.0776247	288.496
0.0780728	289.327
0.0785236	290.161
0.0789769	290.998
0.0794328	291.836
0.0798914	292.678
0.0803526	293.521
0.0808165	294.367
0.0812831	295.216
0.0817523	296.067
0.0822243	296.92
0.082699	297.776
0.0831764	298.634
0.0836566	299.495
0.0841395	300.358
0.0846253	301.224
0.0851138	302.092
0.0856052	302.963
0.0860994	303.836
0.0865964	304.712
0.0870964	305.59
0.0875992	306.471
0.0881049	307.354
0.0886135	308.24
0.0891251	309.129
0.0896396	310.02
0.0901571	310.913
0.0906776	311.81
0.0912011	312.708
0.0917276	313.61
0.0922571	314.514
0.0927897	315.42
0.0933254	316.329
0.0938642	317.241
0.0944061	318.156
0.0949511	319.073
0.0954993	319.992
0.0960506	320.915
0.0966051	321.84
0.0971628	322.767
0.0977237	323.698
0.0982879	324.631
0.0988553	325.566
0.099426	326.505
0.1	327.446
0.100577	328.39
0.101158	329.336
0.101742	330.286
0.102329	331.238
0.10292	332.192
0.103514	333.15
0.104112	334.11
0.104713	335.073
0.105317	336.039
0.105925	337.007
0.106537	337.979
0.107152	338.953
0.107771	339.93
0.108393	340.91
0.109018	341.892
0.109648	342.878
0.110281	343.866
0.110917	344.857
0.111558	345.851
0.112202	346.848
0.11285	347.848
0.113501	348.851
0.114156	349.856
0.114815	350.865
0.115478	351.876
0.116145	352.89
0.116815	353.907
0.11749	354.927
0.118168	355.95
0.11885	356.976
0.119536	358.005
0.120226	359.037
0.120921	360.072
0.121619	361.11
0.122321	362.151
0.123027	363.195
0.123737	364.242
0.124451	365.291
0.12517	366.344
0.125893	367.4
0.126619	368.459
0.12735	369.521
0.128086	370.586
0.128825	371.655
0.129569	372.726
0.130317	373.8
0.131069	374.878
0.131826	375.958
0.132587	377.042
0.133352	378.129
0.134122	379.219
0.134896	380.312
0.135675	381.408
0.136458	382.507
0.137246	383.61
0.138038	384.715
0.138835	385.824
0.139637	386.936
0.140443	388.052
0.141254	389.17
0.142069	390.292
0.142889	391.417
0.143714	392.545
0.144544	393.677
0.145378	394.811
0.146218	395.949
0.147062	397.091
0.147911	398.235
0.148765	399.383
0.149624	400.534
0.150487	401.689
0.151356	402.846
0.15223	404.008
0.153109	405.172
0.153993	406.34
0.154882	407.511
0.155776	408.686
0.156675	409.864
0.15758	411.045
0.158489	412.23
0.159404	413.418
0.160325	414.61
0.16125	415.805
0.162181	417.003
0.163117	418.205
0.164059	419.411
0.165006	420.62
0.165959	421.832
0.166917	423.048
0.16788	424.267
0.16885	425.49
0.169824	426.717
0.170805	427.947
0.171791	429.18
0.172783	430.417
0.17378	431.658
0.174783	432.902
0.175792	434.15
0.176807	435.401
0.177828	436.656
0.178855	437.915
0.179887	439.177
0.180926	440.443
0.18197	441.712
0.183021	442.986
0.184077	444.262
0.18514	445.543
0.186209	446.827
0.187284	448.115
0.188365	449.407
0.189452	450.702
0.190546	452.001
0.191646	453.304
0.192752	454.611
0.193865	455.921
0.194984	457.235
0.19611	458.553
0.197242	459.875
0.198381	461.2
0.199526	462.53
0.200678	463.863
0.201837	465.2
0.203002	466.541
0.204174	467.885
0.205353	469.234
0.206538	470.587
0.20773	471.943
0.20893	473.303
0.210136	474.668
0.211349	476.036
0.212569	477.408
0.213796	478.784
0.21503	480.164
0.216272	481.548
0.21752	482.936
0.218776	484.328
0.220039	485.724
0.221309	487.124
0.222587	488.528
0.223872	489.936
0.225165	491.348
0.226464	492.765
0.227772	494.185
0.229087	495.609
0.230409	497.038
0.231739	498.471
0.233077	499.907
0.234423	501.348
0.235776	502.793
0.237137	504.243
0.238506	505.696
0.239883	507.154
0.241268	508.615
0.242661	510.081
0.244062	511.552
0.245471	513.026
0.246888	514.505
0.248313	515.988
0.249747	517.475
0.251189	518.967
0.252639	520.463
0.254097	521.963
0.255564	523.467
0.25704	524.976
0.258523	526.489
0.260016	528.007
0.261517	529.529
0.263027	531.055
0.264545	532.586
0.266073	534.121
0.267609	535.66
0.269153	537.204
0.270707	538.753
0.27227	540.306
0.273842	541.863
0.275423	543.425
0.277013	544.991
0.278612	546.562
0.280221	548.138
0.281838	549.717
0.283465	551.302
0.285102	552.891
0.286748	554.485
0.288403	556.083
0.290068	557.686
0.291743	559.293
0.293427	560.905
0.295121	562.522
0.296825	564.143
0.298538	565.77
0.300262	567.4
0.301995	569.036
0.303739	570.676
0.305492	572.321
0.307256	573.97
0.30903	575.625
0.310814	577.284
0.312608	578.948
0.314413	580.617
0.316228	582.29
0.318053	583.969
0.31989	585.652
0.321736	587.34
0.323594	589.033
0.325462	590.731
0.327341	592.433
0.32923	594.141
0.331131	595.854
0.333043	597.571
0.334965	599.293
0.336899	601.021
0.338844	602.753
0.3408	604.491
0.342768	606.233
0.344747	607.98
0.346737	609.733
0.348739	611.49
0.350752	613.253
0.352777	615.02
0.354813	616.793
0.356862	618.571
0.358922	620.354
0.360994	622.142
0.363078	623.935
0.365174	625.734
0.367282	627.537
0.369403	629.346
0.371535	631.16
0.37368	632.979
0.375837	634.804
0.378007	636.634
0.380189	638.469
0.382384	640.309
0.384592	642.155
0.386812	644.005
0.389045	645.862
0.391291	647.723
0.39355	649.59
0.395822	651.463
0.398107	653.34
0.400405	655.224
0.402717	657.112
0.405042	659.006
0.40738	660.906
0.409732	662.811
0.412098	664.721
0.414477	666.637
0.416869	668.559
0.419276	670.486
0.421697	672.418
0.424131	674.357
0.42658	676.3
0.429042	678.25
0.431519	680.205
0.43401	682.165
0.436516	684.131
0.439036	686.103
0.44157	688.081
0.44412	690.064
0.446684	692.053
0.449262	694.048
0.451856	696.049
0.454465	698.055
0.457088	700.067
0.459727	702.085
0.462381	704.108
0.46505	706.138
0.467735	708.173
0.470435	710.215
0.473151	712.262
0.475883	714.315
0.47863	716.374
0.481393	718.438
0.484172	720.509
0.486968	722.586
0.489779	724.669
0.492606	726.758
0.49545	728.852
0.49831	730.953
0.501187	733.06
0.504081	735.173
0.506991	737.292
0.509918	739.417
0.512861	741.548
0.515822	743.686
0.5188	745.829
0.521795	747.979
0.524807	750.135
0.527837	752.297
0.530884	754.466
0.533949	756.64
0.537032	758.821
0.540132	761.009
0.54325	763.202
0.546387	765.402
0.549541	767.608
0.552713	769.821
0.555904	772.04
0.559114	774.265
0.562341	776.497
0.565588	778.735
0.568853	780.979
0.572137	783.23
0.57544	785.488
0.578762	787.752
0.582103	790.023
0.585464	792.3
0.588844	794.584
0.592243	796.874
0.595662	799.171
0.599101	801.474
0.60256	803.784
0.606038	806.101
0.609537	808.425
0.613056	810.755
0.616595	813.092
0.620155	815.435
0.623735	817.786
0.627336	820.143
0.630957	822.507
0.6346	824.878
0.638263	827.255
0.641948	829.64
0.645654	832.031
0.649382	834.429
0.653131	836.834
0.656901	839.247
0.660693	841.666
0.664508	844.092
0.668344	846.525
0.672202	848.965
0.676083	851.412
0.679986	853.866
0.683912	856.327
0.68786	858.795
0.691831	861.27
0.695825	863.753
0.699842	866.243
0.703882	868.739
0.707946	871.243
0.712033	873.755
0.716143	876.273
0.720278	878.799
0.724436	881.332
0.728618	883.872
0.732825	886.42
0.737055	888.975
0.74131	891.537
0.74559	894.107
0.749894	896.684
0.754223	899.269
0.758578	901.861
0.762957	904.46
0.767361	907.067
0.771792	909.682
0.776247	912.391
0.780728	915.336
0.785236	918.296
0.789769	921.272
0.794328	924.262
0.798914	927.268
0.803526	930.288
0.808165	933.324
0.812831	936.376
0.817523	939.442
0.822243	942.524
0.82699	945.621
0.831764	948.734
0.836566	951.862
0.841395	955.006
0.846253	958.165
0.851138	961.34
0.856052	964.531
0.860994	967.737
0.865964	970.959
0.870964	974.197
0.875992	977.45
0.881049	980.719
0.886135	984.005
0.891251	987.306
0.896396	990.623
0.901571	993.955
0.906776	997.304
0.912011	1000.67
0.917276	1004.05
0.922571	1007.45
0.927897	1010.86
0.933254	1014.19
0.938642	1017.46
0.944061	1020.75
0.949511	1024.06
0.954993	1027.38
0.960506	1030.71
0.966051	1034.07
0.971628	1037.43
0.977237	1040.81
0.982879	1044.21
0.988553	1047.62
0.99426	1051.05
1	1054.49
1.00577	1057.95
1.01158	1061.42
1.01742	1064.91
1.02329	1068.42
1.0292	1071.94
1.03514	1075.47
1.04112	1079.02
1.04713	1082.58
1.05317	1086.16
1.05925	1089.76
1.06537	1093.37
1.07152	1096.99
1.07771	1100.63
1.08393	1104.29
1.09018	1107.96
1.09648	1111.65
1.10281	1115.35
1.10917	1119.06
1.11558	1122.79
1.12202	1126.54
1.1285	1130.3
1.13501	1134.07
1.14156	1137.86
1.14815	1141.67
1.15478	1145.49
1.16145	1149.32
1.16815	1153.17
1.1749	1157.03
1.18168	1160.91
1.1885	1164.8
1.19536	1168.71
1.20226	1172.63
1.20921	1176.56
1.21619	1180.51
1.22321	1184.48
1.23027	1188.45
1.23737	1192.44
1.24451	1196.42
1.2517	1200.39
1.25893	1204.38
1.26619	1208.38
1.2735	1212.39
1.28086	1216.42
1.28825	1220.46
1.29569	1224.52
1.30317	1228.59
1.31069	1232.67
1.31826	1236.77
1.32587	1240.89
1.33352	1245.02
1.34122	1249.17
1.34896	1253.33
1.35675	1257.5
1.36458	1261.7
1.37246	1265.91
1.38038	1270.13
1.38835	1274.37
1.39637	1278.63
1.40443	1282.9
1.41254	1287.2
1.42069	1291.51
1.42889	1295.83
1.43714	1300.18
1.44544	1304.54
1.45378	1308.92
1.46218	1313.32
1.47062	1317.74
1.47911	1322.18
1.48765	1326.64
1.49624	1331.11
1.50487	1335.61
1.51356	1340.13
1.5223	1344.67
1.53109	1349.23
1.53993	1353.81
1.54882	1358.41
1.55776	1363.03
1.56675	1367.68
1.5758	1372.34
1.58489	1377.03
1.59404	1381.75
1.60325	1386.48
1.6125	1391.24
1.62181	1396.02
1.63117	1400.83
1.64059	1405.65
1.65006	1410.51
1.65959	1415.38
1.66917	1420.28
1.6788	1425.2
1.6885	1430.15
1.69824	1435.12
1.70805	1440.12
1.71791	1445.14
1.72783	1450.18
1.7378	1455.25
1.74783	1460.35
1.75792	1465.47
1.76807	1470.61
1.77828	1475.78
1.78855	1480.98
1.79887	1486.2
1.80926	1491.45
1.8197	1496.73
1.83021	1502.03
1.84077	1507.36
1.8514	1512.71
1.86209	1518.1
1.87284	1523.51
1.88365	1528.95
1.89452	1534.41
1.90546	1539.9
1.91646	1545.42
1.92752	1550.96
1.93865	1556.54
1.94984	1562.14
1.9611	1567.76
1.97242	1573.41
1.98381	1579.09
1.99526	1584.79
2.00678	1590.52
2.01837	1596.28
2.03002	1602.06
2.04174	1607.87
2.05353	1613.7
2.06538	1619.56
2.0773	1625.44
2.0893	1631.34
2.10136	1637.28
2.11349	1643.23
2.12569	1649.21
2.13796	1655.21
2.1503	1661.24
2.16272	1667.29
2.1752	1673.36
2.18776	1679.45
2.20039	1685.57
2.21309	1691.71
2.22587	1697.87
2.23872	1704.05
2.25165	1710.25
2.26464	1716.47
2.27772	1722.72
2.29087	1728.98
2.30409	1735.26
2.31739	1741.56
2.33077	1747.88
2.34423	1754.22
2.35776	1760.58
2.37137	1766.95
2.38506	1773.34
2.39883	1779.75
2.41268	1786.17
2.42661	1792.61
2.44062	1799.06
2.45471	1805.53
2.46888	1812.01
2.48313	1818.5
2.49747	1825.01
2.51189	1831.53
2.52639	1838.06
2.54097	1844.6
2.55564	1851.15
2.5704	1857.72
2.58523	1864.29
2.60016	1870.88
2.61517	1877.47
2.63027	1884.07
2.64545	1890.68
2.66073	1897.3
2.67609	1903.93
2.69153	1910.57
2.70707	1917.21
2.7227	1923.86
2.73842	1930.51
2.75423	1937.17
2.77013	1943.84
2.78612	1950.51
2.80221	1957.18
2.81838	1963.86
2.83465	1970.54
2.85102	1977.23
2.86748	1983.91
2.88403	1990.6
2.90068	1997.29
2.91743	2003.99
2.93427	2010.68
2.95121	2017.37
2.96825	2024.07
2.98538	2030.77
3.00262	2037.46
3.01995	2044.16
3.03739	2050.85
3.05492	2057.55
3.07256	2064.24
3.0903	2070.93
3.10814	2077.62
3.12608	2084.31
3.14413	2091
3.16228	2097.69
3.18053	2104.37
3.1989	2111.06
3.21736	2117.73
3.23594	2124.41
3.25462	2131.07
3.27341	2137.74
3.2923	2144.4
3.31131	2151.06
3.33043	2157.71
3.34965	2164.35
3.36899	2170.99
3.38844	2177.63
3.408	2184.26
3.42768	2190.88
3.44747	2197.49
3.46737	2204.1
3.48739	2210.71
3.50752	2217.3
3.52777	2223.89
3.54813	2230.48
3.56862	2237.05
3.58922	2243.62
3.60994	2250.18
3.63078	2256.73
3.65174	2263.28
3.67282	2269.81
3.69403	2276.34
3.71535	2282.86
3.7368	2289.37
3.75837	2295.87
3.78007	2302.36
3.80189	2308.84
3.82384	2315.32
3.84592	2321.78
3.86812	2328.24
3.89045	2334.69
3.91291	2341.12
3.9355	2347.55
3.95822	2353.96
3.98107	2360.37
4.00405	2366.77
4.02717	2373.16
4.05042	2379.53
4.0738	2385.9
4.09732	2392.26
4.12098	2398.6
4.14477	2404.94
4.16869	2411.27
4.19276	2417.58
4.21697	2423.89
4.24131	2430.19
4.2658	2436.47
4.29042	2442.75
4.31519	2449.02
4.3401	2455.27
4.36516	2461.52
4.39036	2467.76
4.4157	2473.99
4.4412	2480.21
4.46684	2486.42
4.49262	2492.62
4.51856	2498.82
4.54465	2505
4.57088	2511.18
4.59727	2517.35
4.62381	2523.51
4.6505	2529.66
4.67735	2535.71
4.70435	2541.75
4.73151	2547.78
4.75883	2553.81
4.7863	2559.82
4.81393	2565.83
4.84172	2571.82
4.86968	2577.81
4.89779	2583.79
4.92606	2589.75
4.9545	2595.71
4.9831	2601.66
5.01187	2607.59
5.04081	2613.52
5.06991	2619.43
5.09918	2625.34
5.12861	2631.23
5.15822	2637.11
5.188	2642.97
5.21795	2648.83
5.24807	2654.67
5.27837	2660.5
5.30884	2666.31
5.33949	2672.12
5.37032	2677.91
5.40132	2683.68
5.4325	2689.44
5.46387	2695.19
5.49541	2700.92
5.52713	2706.64
5.55904	2712.34
5.59114	2718.03
5.62341	2723.71
5.65588	2729.36
5.68853	2735.01
5.72137	2740.63
5.7544	2746.24
5.78762	2751.84
5.82103	2757.42
5.85464	2762.98
5.88844	2768.52
5.92243	2774.05
5.95662	2779.57
5.99101	2785.06
6.0256	2790.54
6.06038	2796
6.09537	2801.45
6.13056	2806.88
6.16595	2812.29
6.20155	2817.68
6.23735	2823.08
6.27336	2828.47
6.30957	2833.84
6.346	2839.19
6.38263	2844.52
6.41948	2849.83
6.45654	2855.13
6.49382	2860.41
6.53131	2865.67
6.56901	2870.91
6.60693	2876.13
6.64508	2881.34
6.68344	2886.52
6.72202	2891.69
6.76083	2896.84
6.79986	2901.98
6.83912	2907.09
6.8786	2912.19
6.91831	2917.26
6.95825	2922.32
6.99842	2927.36
7.03882	2932.38
7.07946	2937.39
7.12033	2942.37
7.16143	2947.34
7.20278	2952.29
7.24436	2957.22
7.28618	2962.14
7.32825	2967.03
7.37055	2971.91
7.4131	2976.78
7.4559	2981.62
7.49894	2986.45
7.54223	2991.27
7.58578	2996.07
7.62957	3000.85
7.67361	3005.61
7.71792	3010.37
7.76247	3015.11
7.80728	3019.83
7.85236	3024.54
7.89769	3029.24
7.94328	3033.92
7.98914	3038.59
8.03526	3043.24
8.08165	3047.87
8.12831	3052.49
8.17523	3057.1
8.22243	3061.69
8.2699	3066.27
8.31764	3070.83
8.36566	3075.37
8.41395	3079.9
8.46253	3084.41
8.51138	3088.91
8.56052	3093.39
8.60994	3097.85
8.65964	3102.3
8.70964	3106.73
8.75992	3111.15
8.81049	3115.55
8.86135	3119.93
8.91251	3124.3
8.96396	3128.65
9.01571	3132.99
9.06776	3137.31
9.12011	3141.61
9.17276	3145.9
9.22571	3150.17
9.27897	3154.43
9.33254	3158.67
9.38642	3162.91
9.44061	3167.13
9.49511	3171.33
9.54993	3175.51
9.60506	3179.68
9.66051	3183.84
9.71628	3187.98
9.77237	3192.1
9.82879	3196.2
9.88553	3200.28
9.9426	3204.35
10	3208.4
10.0577	3212.44
10.1158	3216.45
10.1742	3220.45
10.2329	3224.43
10.292	3228.39
10.3514	3232.34
10.4112	3236.26
10.4713	3240.17
10.5317	3244.06
10.5925	3247.93
10.6537	3251.78
10.7152	3255.61
10.7771	3259.42
10.8393	3263.21
10.9018	3266.99
10.9648	3270.75
11.0281	3274.48
11.0917	3278.2
11.1558	3281.9
11.2202	3285.58
11.285	3289.24
11.3501	3292.88
11.4156	3296.5
11.4815	3300.11
11.5478	3303.69
11.6145	3307.26
11.6815	3310.81
11.749	3314.33
11.8168	3317.85
11.885	3321.34
11.9536	3324.81
12.0226	3328.27
12.0921	3331.71
12.1619	3335.13
12.2321	3338.53
12.3027	3341.92
12.3737	3345.29
12.4451	3348.63
12.517	3351.93
12.5893	3355.23
12.6619	3358.5
12.735	3361.76
12.8086	3365
12.8825	3368.22
12.9569	3371.42
13.0317	3374.6
13.1069	3377.77
13.1826	3380.91
13.2587	3384.04
13.3352	3387.15
13.4122	3390.23
13.4896	3393.3
13.5675	3396.34
13.6458	3399.36
13.7246	3402.37
13.8038	3405.35
13.8835	3408.31
13.9637	3411.24
14.0443	3414.16
14.1254	3417.05
14.2069	3419.92
14.2889	3422.76
14.3714	3425.58
14.4544	3428.38
14.5378	3431.15
14.6218	3433.9
14.7062	3436.63
14.7911	3439.33
14.8765	3442
14.9624	3444.65
15.0487	3447.28
15.1356	3449.88
15.223	3452.45
15.3109	3455
15.3993	3457.52
15.4882	3460.01
15.5776	3462.48
15.6675	3464.93
15.758	3467.35
15.8489	3469.74
15.9404	3472.11
16.0325	3474.44
16.125	3476.75
16.2181	3479.03
16.3117	3481.28
16.4059	3483.51
16.5006	3485.7
16.5959	3487.86
16.6917	3490
16.788	3492.1
16.885	3494.17
16.9824	3496.22
17.0805	3498.23
17.1791	3500.21
17.2783	3502.16
17.378	3504.08
17.4783	3505.97
17.5792	3507.83
17.6807	3509.66
17.7828	3511.45
17.8855	3513.22
17.9887	3514.95
18.0926	3516.65
18.197	3518.32
18.3021	3519.96
18.4077	3521.56
18.514	3523.13
18.6209	3524.67
18.7284	3526.18
18.8365	3527.66
18.9452	3529.1
19.0546	3530.51
19.1646	3531.89
19.2752	3533.23
19.3865	3534.54
19.4984	3535.82
19.611	3537.06
19.7242	3538.27
19.8381	3539.44
19.9526	3540.58
20.0678	3541.69
20.1837	3542.76
20.3002	3543.79
20.4174	3544.8
20.5353	3545.76
20.6538	3546.69
20.773	3547.59
20.893	3548.45
21.0136	3549.27
21.1349	3550.06
21.2569	3550.81
21.3796	3551.53
21.503	3552.21
21.6272	3552.86
21.752	3553.47
21.8776	3554.05
22.0039	3554.59
22.1309	3555.09
22.2587	3555.56
22.3872	3555.99
22.5165	3556.38
22.6464	3556.74
22.7772	3557.06
22.9087	3557.35
23.0409	3557.6
23.1739	3557.81
23.3077	3557.99
23.4423	3558.12
23.5776	3558.23
23.7137	3558.29
23.8506	3558.32
23.9883	3558.31
24.1268	3558.27
24.2661	3558.18
24.4062	3558.07
24.5471	3557.91
24.6888	3557.72
24.8313	3557.49
24.9747	3557.23
25.1189	3556.93
25.2639	3556.59
25.4097	3556.22
25.5564	3555.81
25.704	3555.37
25.8523	3554.89
26.0016	3554.37
26.1517	3553.81
26.3027	3553.22
26.4545	3552.59
26.6073	3551.92
26.7609	3551.22
26.9153	3550.48
27.0707	3549.71
27.227	3548.89
27.3842	3548.04
27.5423	3547.16
27.7013	3546.24
27.8612	3545.28
28.0221	3544.28
28.1838	3543.25
28.3465	3542.19
28.5102	3541.09
28.6748	3539.95
28.8403	3538.78
29.0068	3537.57
29.1743	3536.33
29.3427	3535.05
29.5121	3533.74
29.6825	3532.39
29.8538	3531.01
30.0262	3529.6
30.1995	3528.16
30.3739	3526.68
30.5492	3525.17
30.7256	3523.63
30.903	3522.05
31.0814	3520.45
31.2608	3518.83
31.4413	3517.17
31.6228	3515.48
31.8053	3513.76
31.989	3512.01
32.1736	3510.22
32.3594	3508.41
32.5462	3506.56
32.7341	3504.69
32.923	3502.78
33.1131	3500.84
33.3043	3498.87
33.4965	3496.86
33.6899	3494.83
33.8844	3492.76
34.08	3490.66
34.2768	3488.52
34.4747	3486.36
34.6737	3484.16
34.8739	3481.93
35.0752	3479.67
35.2777	3477.37
35.4813	3475.04
35.6862	3472.68
35.8922	3470.29
36.0994	3467.86
36.3078	3465.4
36.5174	3462.91
36.7282	3460.39
36.9403	3457.83
37.1535	3455.24
37.368	3452.62
37.5837	3449.96
37.8007	3447.28
38.0189	3444.56
38.2384	3441.81
38.4592	3439.02
38.6812	3436.21
38.9045	3433.36
39.1291	3430.48
39.355	3427.57
39.5822	3424.63
39.8107	3421.66
40.0405	3418.66
40.2717	3415.62
40.5042	3412.56
40.738	3409.46
40.9732	3406.34
41.2098	3403.18
41.4477	3400
41.6869	3396.79
41.9276	3393.55
42.1697	3390.28
42.4131	3386.98
42.658	3383.65
42.9042	3380.3
43.1519	3376.92
43.401	3373.52
43.6516	3370.09
43.9036	3366.63
44.157	3363.15
44.412	3359.65
44.6684	3356.12
44.9262	3352.57
45.1856	3349
45.4465	3345.4
45.7088	3341.78
45.9727	3338.15
46.2381	3334.49
46.505	3330.82
46.7735	3327.08
47.0435	3323.33
47.3151	3319.56
47.5883	3315.77
47.863	3311.96
48.1393	3308.14
48.4172	3304.3
48.6968	3300.43
48.9779	3296.55
49.2606	3292.65
49.545	3288.74
49.831	3284.8
50.1187	3280.85
50.4081	3276.87
50.6991	3272.88
50.9918	3268.87
51.2861	3264.85
51.5822	3260.8
51.88	3256.74
52.1795	3252.65
52.4807	3248.55
52.7837	3244.43
53.0884	3240.29
53.3949	3236.14
53.7032	3231.96
54.0132	3227.77
54.325	3223.56
54.6387	3219.33
54.9541	3215.08
55.2713	3210.81
55.5904	3206.53
55.9114	3202.22
56.2341	3197.9
56.5588	3193.56
56.8853	3189.2
57.2137	3184.83
57.544	3180.44
57.8762	3176.02
58.2103	3171.59
58.5464	3167.15
58.8844	3162.68
59.2243	3158.2
59.5662	3153.7
59.9101	3149.18
60.256	3144.65
60.6038	3140.1
60.9537	3135.53
61.3056	3130.94
61.6595	3126.33
62.0155	3121.71
62.3735	3117.07
62.7336	3112.41
63.0957	3107.74
63.46	3103.05
63.8263	3098.34
64.1948	3093.62
64.5654	3088.88
64.9382	3084.12
65.3131	3079.35
65.6901	3074.56
66.0693	3069.75
66.4508	3064.93
66.8344	3060.09
67.2202	3055.24
67.6083	3050.37
67.9986	3045.49
68.3912	3040.59
68.786	3035.68
69.1831	3030.75
69.5825	3025.8
69.9842	3020.84
70.3882	3015.87
70.7946	3010.88
71.2033	3005.88
71.6143	3000.86
72.0278	2995.83
72.4436	2990.79
72.8618	2985.73
73.2825	2980.66
73.7055	2975.57
74.131	2970.47
74.559	2965.36
74.9894	2960.24
75.4223	2955.1
75.8578	2949.96
76.2957	2944.8
76.7361	2939.63
77.1792	2934.44
77.6247	2929.25
78.0728	2924.05
78.5236	2918.83
78.9769	2913.6
79.4328	2908.37
79.8914	2903.12
80.3526	2897.86
80.8165	2892.59
81.2831	2887.31
81.7523	2882.02
82.2243	2876.72
82.699	2871.41
83.1764	2866.09
83.6566	2860.76
84.1395	2855.42
84.6253	2850.07
85.1138	2844.71
85.6052	2839.34
86.0994	2833.97
86.5964	2828.58
87.0964	2823.18
87.5992	2817.77
88.1049	2812.36
88.6135	2806.93
89.1251	2801.5
89.6396	2796.06
90.1571	2790.6
90.6776	2785.14
91.2011	2779.68
91.7276	2774.2
92.2571	2768.71
92.7897	2763.22
93.3254	2757.71
93.8642	2752.2
94.4061	2746.67
94.9511	2741.14
95.4993	2735.6
96.0506	2730.06
96.6051	2724.5
97.1628	2718.94
97.7237	2713.37
98.2879	2707.79
98.8553	2702.21
99.426	2696.62
100	2691.02
100.577	2685.41
101.158	2679.8
101.742	2674.18
102.329	2668.55
102.92	2662.92
103.514	2657.28
104.112	2651.63
104.713	2645.98
105.317	2640.32
105.925	2634.65
106.537	2628.98
107.152	2623.3
107.771	2617.61
108.393	2611.92
109.018	2606.23
109.648	2600.53
110.281	2594.82
110.917	2589.1
111.558	2583.38
112.202	2577.66
112.85	2571.93
113.501	2566.19
114.156	2560.45
114.815	2554.71
115.478	2548.96
116.145	2543.2
116.815	2537.44
117.49	2531.67
118.168	2525.9
118.85	2520.12
119.536	2514.34
120.226	2508.55
120.921	2502.76
121.619	2496.96
122.321	2491.16
123.027	2485.36
123.737	2479.55
124.451	2473.74
125.17	2467.94
125.893	2462.13
126.619	2456.32
127.35	2450.5
128.086	2444.68
128.825	2438.86
129.569	2433.03
130.317	2427.2
131.069	2421.37
131.826	2415.53
132.587	2409.69
133.352	2403.84
134.122	2397.99
134.896	2392.14
135.675	2386.29
136.458	2380.44
137.246	2374.58
138.038	2368.72
138.835	2362.86
139.637	2356.99
140.443	2351.13
141.254	2345.26
142.069	2339.39
142.889	2333.52
143.714	2327.65
144.544	2321.77
145.378	2315.9
146.218	2310.02
147.062	2304.14
147.911	2298.27
148.765	2292.39
149.624	2286.51
150.487	2280.63
151.356	2274.75
152.23	2268.87
153.109	2262.99
153.993	2257.11
154.882	2251.23
155.776	2245.34
156.675	2239.45
157.58	2233.57
158.489	2227.68
159.404	2221.79
160.325	2215.91
161.25	2210.02
162.181	2204.14
163.117	2198.25
164.059	2192.37
165.006	2186.49
165.959	2180.61
166.917	2174.73
167.88	2168.86
168.85	2162.98
169.824	2157.11
170.805	2151.23
171.791	2145.36
172.783	2139.49
173.78	2133.63
174.783	2127.76
175.792	2121.9
176.807	2116.04
177.828	2110.18
178.855	2104.32
179.887	2098.47
180.926	2092.61
181.97	2086.76
183.021	2080.91
184.077	2075.07
185.14	2069.22
186.209	2063.38
187.284	2057.54
188.365	2051.71
189.452	2045.87
190.546	2040.04
191.646	2034.21
192.752	2028.38
193.865	2022.56
194.984	2016.74
196.11	2010.92
197.242	2005.11
198.381	1999.29
199.526	1993.49
200.678	1987.68
201.837	1981.88
203.002	1976.09
204.174	1970.29
205.353	1964.51
206.538	1958.72
207.73	1952.94
208.93	1947.16
210.136	1941.39
211.349	1935.62
212.569	1929.86
213.796	1924.1
215.03	1918.34
216.272	1912.59
217.52	1906.85
218.776	1901.1
220.039	1895.36
221.309	1889.63
222.587	1883.9
223.872	1878.18
225.165	1872.46
226.464	1866.74
227.772	1861.03
229.087	1855.33
230.409	1849.63
231.739	1843.94
233.077	1838.25
234.423	1832.57
235.776	1826.89
237.137	1821.22
238.506	1815.55
239.883	1809.89
241.268	1804.24
242.661	1798.59
244.062	1792.95
245.471	1787.31
246.888	1781.68
248.313	1776.05
249.747	1770.43
251.189	1764.81
252.639	1759.21
254.097	1753.6
255.564	1748.01
257.04	1742.42
258.523	1736.83
260.016	1731.26
261.517	1725.69
263.027	1720.12
264.545	1714.57
266.073	1709.02
267.609	1703.48
269.153	1697.94
270.707	1692.41
272.27	1686.89
273.842	1681.38
275.423	1675.87
277.013	1670.38
278.612	1664.89
280.221	1659.4
281.838	1653.93
283.465	1648.46
285.102	1643
286.748	1637.55
288.403	1632.11
290.068	1626.67
291.743	1621.24
293.427	1615.82
295.121	1610.41
296.825	1605
298.538	1599.6
300.262	1594.21
301.995	1588.83
303.739	1583.46
305.492	1578.09
307.256	1572.73
309.03	1567.38
310.814	1562.03
312.608	1556.68
314.413	1551.34
316.228	1546.01
318.053	1540.69
319.89	1535.38
321.736	1530.07
323.594	1524.77
325.462	1519.48
327.341	1514.2
329.23	1508.93
331.131	1503.66
333.043	1498.41
334.965	1493.16
336.899	1487.93
338.844	1482.7
340.8	1477.49
342.768	1472.28
344.747	1467.09
346.737	1461.9
348.739	1456.73
350.752	1451.57
352.777	1446.41
354.813	1441.27
356.862	1436.14
358.922	1431.02
360.994	1425.92
363.078	1420.82
365.174	1415.73
367.282	1410.66
369.403	1405.6
371.535	1400.55
373.68	1395.51
375.837	1390.49
378.007	1385.47
380.189	1380.47
382.384	1375.48
384.592	1370.51
386.812	1365.54
389.045	1360.59
391.291	1355.65
393.55	1350.72
395.822	1345.8
398.107	1340.9
400.405	1336.01
402.717	1331.13
405.042	1326.26
407.38	1321.41
409.732	1316.56
412.098	1311.73
414.477	1306.91
416.869	1302.1
419.276	1297.3
421.697	1292.52
424.131	1287.74
426.58	1282.98
429.042	1278.23
431.519	1273.48
434.01	1268.75
436.516	1264.03
439.036	1259.31
441.57	1254.61
444.12	1249.92
446.684	1245.23
449.262	1240.55
451.856	1235.89
454.465	1231.22
457.088	1226.57
459.727	1221.92
462.381	1217.28
465.05	1212.65
467.735	1208.11
470.435	1203.58
473.151	1199.05
475.883	1194.53
478.63	1190.02
481.393	1185.51
484.172	1181.01
486.968	1176.52
489.779	1172.04
492.606	1167.56
495.45	1163.09
498.31	1158.63
501.187	1154.18
504.081	1149.74
506.991	1145.31
509.918	1140.88
512.861	1136.46
515.822	1132.06
518.8	1127.66
521.795	1123.27
524.807	1118.9
527.837	1114.53
530.884	1110.17
533.949	1105.83
537.032	1101.49
540.132	1097.16
543.25	1092.85
546.387	1088.55
549.541	1084.26
552.713	1079.97
555.904	1075.71
559.114	1071.45
562.341	1067.2
565.588	1062.97
568.853	1058.75
572.137	1054.54
575.44	1050.35
578.762	1046.16
582.103	1041.99
585.464	1037.83
588.844	1033.69
592.243	1029.56
595.662	1025.44
599.101	1021.33
602.56	1017.24
606.038	1013.16
609.537	1009.09
613.056	1005.04
616.595	1001
620.155	996.976
623.735	992.945
627.336	988.928
630.957	984.924
634.6	980.934
638.263	976.958
641.948	972.996
645.654	969.048
649.382	965.115
653.131	961.195
656.901	957.289
660.693	953.398
664.508	949.521
668.344	945.659
672.202	941.81
676.083	937.976
679.986	934.157
683.912	930.351
687.86	926.56
691.831	922.784
695.825	919.021
699.842	915.273
703.882	911.538
707.946	907.818
712.033	904.112
716.143	900.419
720.278	896.74
724.436	893.075
728.618	889.423
732.825	885.785
737.055	882.159
741.31	878.547
745.59	874.947
749.894	871.359
754.223	867.784
758.578	864.221
762.957	860.67
767.361	857.13
771.792	853.601
776.247	850.083
780.728	846.574
785.236	843.076
789.769	839.589
794.328	836.113
798.914	832.648
803.526	829.194
808.165	825.751
812.831	822.319
817.523	818.899
822.243	815.49
826.99	812.092
831.764	808.707
836.566	805.332
841.395	801.97
846.253	798.619
851.138	795.28
856.052	791.953
860.994	788.637
865.964	785.333
870.964	782.041
875.992	778.761
881.049	775.493
886.135	772.236
891.251	768.992
896.396	765.759
901.571	762.537
906.776	759.328
912.011	756.13
917.276	752.943
922.571	749.768
927.897	746.604
933.254	743.448
938.642	740.301
944.061	737.165
949.511	734.04
954.993	730.927
960.506	727.825
966.051	724.736
971.628	721.658
977.237	718.592
982.879	715.538
988.553	712.496
994.26	709.466
1000	706.449
1005.77	703.444
1011.58	700.451
1017.42	697.47
1023.29	694.502
1029.2	691.546
1035.14	688.603
1041.12	685.672
1047.13	682.754
1053.17	679.849
1059.25	676.955
1065.37	674.075
1071.52	671.207
1077.71	668.351
1083.93	665.508
1090.18	662.677
1096.48	659.859
1102.81	657.053
1109.17	654.259
1115.58	651.477
1122.02	648.707
1128.5	645.949
1135.01	643.203
1141.56	640.469
1148.15	637.746
1154.78	635.035
1161.45	632.335
1168.15	629.646
1174.9	626.968
1181.68	624.3
1188.5	621.643
1195.36	618.996
1202.26	616.359
1209.21	613.732
1216.19	611.114
1223.21	608.505
1230.27	605.905
1237.37	603.314
1244.51	600.743
1251.7	598.188
1258.93	595.642
1266.19	593.103
1273.5	590.574
1280.86	588.053
1288.25	585.54
1295.69	583.037
1303.17	580.542
1310.69	578.056
1318.26	575.58
1325.87	573.112
1333.52	570.654
1341.22	568.205
1348.96	565.766
1356.75	563.336
1364.58	560.915
1372.46	558.504
1380.38	556.103
1388.35	553.712
1396.37	551.33
1404.43	548.958
1412.54	546.596
1420.69	544.244
1428.89	541.902
1437.14	539.57
1445.44	537.248
1453.78	534.936
1462.18	532.634
1470.62	530.342
1479.11	528.06
1487.65	525.788
1496.24	523.526
1504.87	521.274
1513.56	519.032
1522.3	516.8
1531.09	514.577
1539.93	512.365
1548.82	510.162
1557.76	507.965
1566.75	505.777
1575.8	503.599
1584.89	501.43
1594.04	499.271
1603.25	497.122
1612.5	494.983
1621.81	492.854
1631.17	490.734
1640.59	488.625
1650.06	486.525
1659.59	484.435
1669.17	482.355
1678.8	480.285
1688.5	478.225
1698.24	476.174
1708.05	474.133
1717.91	472.102
1727.83	470.08
1737.8	468.068
1747.83	466.066
1757.92	464.072
1768.07	462.088
1778.28	460.113
1788.55	458.148
1798.87	456.191
1809.26	454.243
1819.7	452.303
1830.21	450.373
1840.77	448.45
1851.4	446.536
1862.09	444.629
1872.84	442.731
1883.65	440.84
1894.52	438.957
1905.46	437.082
1916.46	435.215
1927.52	433.356
1938.65	431.506
1949.84	429.663
1961.1	427.829
1972.42	426.002
1983.81	424.184
1995.26	422.374
2006.78	420.573
2018.37	418.779
2030.02	416.994
2041.74	415.217
2053.53	413.448
2065.38	411.687
2077.3	409.934
2089.3	408.19
2101.36	406.453
2113.49	404.724
2125.69	403.004
2137.96	401.291
2150.3	399.586
2162.72	397.889
2175.2	396.199
2187.76	394.517
2200.39	392.843
2213.09	391.176
2225.87	389.517
2238.72	387.866
2251.65	386.222
2264.64	384.586
2277.72	382.958
2290.87	381.337
2304.09	379.724
2317.39	378.119
2330.77	376.521
2344.23	374.931
2357.76	373.348
2371.37	371.773
2385.06	370.205
2398.83	368.645
2412.68	367.092
2426.61	365.546
2440.62	364.008
2454.71	362.476
2468.88	360.952
2483.13	359.434
2497.47	357.923
2511.89	356.42
2526.39	354.923
2540.97	353.433
2555.64	351.949
2570.4	350.473
2585.23	349.004
2600.16	347.542
2615.17	346.086
2630.27	344.638
2645.45	343.197
2660.73	341.762
2676.09	340.335
2691.53	338.914
2707.07	337.5
2722.7	336.094
2738.42	334.693
2754.23	333.3
2770.13	331.914
2786.12	330.534
2802.21	329.161
2818.38	327.794
2834.65	326.434
2851.02	325.081
2867.48	323.734
2884.03	322.393
2900.68	321.059
2917.43	319.731
2934.27	318.41
2951.21	317.094
2968.25	315.784
2985.38	314.481
3002.62	313.183
3019.95	311.891
3037.39	310.605
3054.92	309.324
3072.56	308.049
3090.3	306.779
3108.14	305.513
3126.08	304.25
3144.13	302.993
3162.28	301.74
3180.53	300.493
3198.9	299.251
3217.36	298.015
3235.94	296.784
3254.62	295.559
3273.41	294.339
3292.3	293.124
3311.31	291.915
3330.43	290.712
3349.65	289.515
3368.99	288.324
3388.44	287.138
3408	285.958
3427.68	284.784
3447.47	283.617
3467.37	282.455
3487.39	281.299
3507.52	280.149
3527.77	279.006
3548.13	277.868
3568.62	276.737
3589.22	275.612
3609.94	274.493
3630.78	273.38
3651.74	272.274
3672.82	271.174
3694.03	270.08
3715.35	268.992
3736.8	267.911
3758.37	266.835
3780.07	265.767
3801.89	264.704
3823.84	263.648
3845.92	262.597
3868.12	261.553
3890.45	260.516
3912.91	259.484
3935.5	258.458
3958.22	257.439
3981.07	256.425
4004.05	255.418
4027.17	254.416
4050.42	253.42
4073.8	252.43
4097.32	251.446
4120.98	250.468
4144.77	249.494
4168.69	248.527
4192.76	247.565
4216.97	246.608
4241.31	245.656
4265.8	244.709
4290.42	243.768
4315.19	242.831
4340.1	241.898
4365.16	240.971
4390.36	240.047
4415.7	239.128
4441.2	238.178
4466.84	237.193
4492.62	236.212
4518.56	235.235
4544.65	234.263
4570.88	233.294
4597.27	232.328
4623.81	231.366
4650.5	230.408
4677.35	229.48
4704.35	228.555
4731.51	227.633
4758.83	226.714
4786.3	225.798
4813.93	224.885
4841.72	223.976
4869.68	223.07
4897.79	222.167
4926.06	221.268
4954.5	220.372
4983.1	219.48
5011.87	218.591
5040.81	217.705
5069.91	216.823
5099.18	215.945
5128.61	215.07
5158.22	214.199
5188	213.332
5217.95	212.469
5248.07	211.609
5278.37	210.753
5308.84	209.901
5339.49	209.053
5370.32	208.209
5401.32	207.369
5432.5	206.533
5463.87	205.701
5495.41	204.873
5527.13	204.049
5559.04	203.229
5591.14	202.414
5623.41	201.602
5655.88	200.795
5688.53	199.992
5721.37	199.194
5754.4	198.399
5787.62	197.609
5821.03	196.824
5854.64	196.043
5888.44	195.266
5922.43	194.493
5956.62	193.725
5991.01	192.962
6025.6	192.202
6060.38	191.448
6095.37	190.698
6130.56	189.952
6165.95	189.211
6201.55	188.474
6237.35	187.737
6273.36	187.005
6309.57	186.277
6346	185.554
6382.63	184.836
6419.48	184.121
6456.54	183.412
6493.82	182.707
6531.31	182.006
6569.01	181.31
6606.93	180.618
6645.08	179.931
6683.44	179.248
6722.02	178.569
6760.83	177.895
6799.86	177.226
6839.12	176.56
6878.6	175.899
6918.31	175.243
6958.25	174.59
6998.42	173.942
7038.82	173.298
7079.46	172.658
7120.33	172.023
7161.43	171.391
7202.78	170.763
7244.36	170.139
7286.18	169.519
7328.25	168.903
7370.55	168.291
7413.1	167.682
7455.9	167.077
7498.94	166.475
7542.23	165.877
7585.78	165.282
7629.57	164.69
7673.61	164.101
7717.92	163.515
7762.47	162.932
7807.28	162.352
7852.36	161.775
7897.69	161.2
7943.28	160.628
7989.14	160.059
8035.26	159.493
8081.65	158.93
8128.31	158.369
8175.23	157.812
8222.43	157.257
8269.9	156.706
8317.64	156.157
8365.66	155.611
8413.95	155.068
8462.53	154.528
8511.38	153.991
8560.52	153.457
8609.94	152.926
8659.64	152.398
8709.64	151.873
8759.92	151.35
8810.49	150.831
8861.35	150.314
8912.51	149.8
8963.96	149.29
9015.71	148.782
9067.76	148.276
9120.11	147.774
9172.76	147.274
9225.71	146.778
9278.97	146.284
9332.54	145.792
9386.42	145.302
9440.61	144.815
9495.11	144.33
9549.93	143.849
9605.06	143.37
9660.51	142.894
9716.28	142.421
9772.37	141.95
9828.79	141.483
9885.53	141.018
9942.6	140.556
10000	140.097
10057.7	139.64
10115.8	139.187
10174.2	138.736
10232.9	138.288
10292	137.844
10351.4	137.401
10411.2	136.962
10471.3	136.526
10531.7	136.092
10592.5	135.661
10653.7	135.233
10715.2	134.808
10777.1	134.385
10839.3	133.966
10901.8	133.549
10964.8	133.134
11028.1	132.723
11091.7	132.314
11155.8	131.908
11220.2	131.505
11285	131.104
11350.1	130.705
11415.6	130.31
11481.5	129.916
11547.8	129.526
11614.5	129.137
11681.5	128.751
11749	128.368
11816.8	127.986
11885	127.607
11953.6	127.23
12022.6	126.855
12092.1	126.483
12161.9	126.112
12232.1	125.743
12302.7	125.376
12373.7	125.011
12445.1	124.65
12517	124.291
12589.3	123.935
12661.9	123.58
12735	123.227
12808.6	122.876
12882.5	122.526
12956.9	122.179
13031.7	121.833
13106.9	121.489
13182.6	121.147
13258.7	120.806
13335.2	120.468
13412.2	120.131
13489.6	119.796
13567.5	119.463
13645.8	119.132
13724.6	118.803
13803.8	118.476
13883.5	118.151
13963.7	117.827
14044.3	117.506
14125.4	117.187
14206.9	116.869
14288.9	116.553
14371.4	116.24
14454.4	115.928
14537.8	115.618
14621.8	115.31
14706.2	115.004
14791.1	114.701
14876.5	114.399
14962.4	114.098
15048.7	113.8
15135.6	113.504
15223	113.21
15310.9	112.917
15399.3	112.627
15488.2	112.338
15577.6	112.05
15667.5	111.765
15758	111.481
15848.9	111.199
15940.4	110.919
16032.5	110.64
16125	110.364
16218.1	110.089
16311.7	109.816
16405.9	109.546
16500.6	109.277
16595.9	109.009
16691.7	108.744
16788	108.481
16885	108.219
16982.4	107.959
17080.5	107.701
17179.1	107.445
17278.3	107.19
17378	106.937
17478.3	106.686
17579.2	106.437
17680.7	106.189
17782.8	105.944
17885.5	105.699
17988.7	105.457
18092.6	105.216
18197	104.976
18302.1	104.739
18407.7	104.502
18514	104.267
18620.9	104.034
18728.4	103.802
18836.5	103.571
18945.2	103.342
19054.6	103.115
19164.6	102.888
19275.2	102.663
19386.5	102.44
19498.4	102.218
19611	101.998
19724.2	101.779
19838.1	101.561
19952.6	101.345
20067.8	101.13
20183.7	100.917
20300.2	100.705
20417.4	100.495
20535.3	100.286
20653.8	100.079
20773	99.8728
20893	99.6682
21013.6	99.465
21134.9	99.2632
21256.9	99.0627
21379.6	98.8637
21503	98.666
21627.2	98.4697
21752	98.2747
21877.6	98.081
22003.9	97.8886
22130.9	97.6976
22258.7	97.5079
22387.2	97.3196
22516.5	97.1325
22646.4	96.9468
22777.2	96.7624
22908.7	96.5794
23040.9	96.3976
23173.9	96.2172
23307.7	96.0381
23442.3	95.8602
23577.6	95.6837
23713.7	95.5085
23850.6	95.3345
23988.3	95.1618
24126.8	94.9904
24266.1	94.8202
24406.2	94.6512
24547.1	94.4835
24688.8	94.317
24831.3	94.1516
24974.7	93.9875
25118.9	93.8245
25263.9	93.6627
25409.7	93.502
25556.4	93.3426
25704	93.1843
25852.3	93.0271
26001.6	92.8711
26151.7	92.7163
26302.7	92.5626
26454.5	92.4101
26607.3	92.2587
26760.9	92.1084
26915.3	91.9593
27070.7	91.8112
27227	91.6643
27384.2	91.5184
27542.3	91.3736
27701.3	91.2299
27861.2	91.0872
28022.1	90.9455
28183.8	90.8048
28346.5	90.6652
28510.2	90.5265
28674.8	90.3887
28840.3	90.2519
29006.8	90.116
29174.3	89.981
29342.7	89.8468
29512.1	89.7135
29682.5	89.5809
29853.8	89.4492
30026.2	89.3182
30199.5	89.1879
30373.9	89.0582
30549.2	88.9292
30725.6	88.8008
30903	88.673
31081.4	88.5435
31260.8	88.4123
31441.3	88.282
31622.8	88.1528
31805.3	88.0246
31989	87.8973
32173.6	87.7711
32359.4	87.6458
32546.2	87.5214
32734.1	87.3981
32923	87.2757
33113.1	87.1542
33304.3	87.0337
33496.5	86.9142
33689.9	86.7956
33884.4	86.6779
34080	86.5611
34276.8	86.4453
34474.7	86.3304
34673.7	86.2164
34873.9	86.1033
35075.2	85.9911
35277.7	85.8798
35481.3	85.7694
35686.2	85.6599
35892.2	85.5513
36099.4	85.4435
36307.8	85.3366
36517.4	85.2306
36728.2	85.1255
36940.3	85.0212
37153.5	84.9177
37368	84.8151
37583.7	84.7134
37800.7	84.6125
38018.9	84.5124
38238.4	84.4132
38459.2	84.3147
38681.2	84.2171
38904.5	84.1203
39129.1	84.0244
39355	83.9292
39582.2	83.8348
39810.7	83.7412
40040.5	83.6485
40271.7	83.5565
40504.2	83.4653
40738	83.3748
40973.2	83.2852
41209.8	83.1963
41447.7	83.1082
41686.9	83.0208
41927.6	82.9342
42169.7	82.8483
42413.1	82.7632
42658	82.6789
42904.2	82.5952
43151.9	82.5124
43401	82.4302
43651.6	82.3488
43903.6	82.268
44157	82.1881
44412	82.1088
44668.4	82.0302
44926.2	81.9523
45185.6	81.8752
45446.5	81.7987
45708.8	81.7229
45972.7	81.6478
46238.1	81.5734
46505	81.4997
46773.5	81.4267
47043.5	81.3543
47315.1	81.2826
47588.3	81.2116
47863	81.1412
48139.3	81.0715
48417.2	81.0024
48696.8	80.934
48977.9	80.8662
49260.6	80.7991
49545	80.7326
49831	80.6667
50118.7	80.6015
50408.1	80.5369
50699.1	80.4729
50991.8	80.4095
51286.1	80.3467
51582.2	80.2846
51880	80.2231
52179.5	80.1621
52480.7	80.1018
52783.7	80.042
53088.4	79.9829
53394.9	79.9243
53703.2	79.8664
54013.2	79.809
54325	79.7522
54638.7	79.6959
54954.1	79.6402
55271.3	79.5851
55590.4	79.5306
55911.4	79.4766
56234.1	79.4232
56558.8	79.3703
56885.3	79.318
57213.7	79.2662
57544	79.215
57876.2	79.1643
58210.3	79.1141
58546.4	79.0645
58884.4	79.0154
59224.3	78.9668
59566.2	78.9187
59910.1	78.8712
60256	78.8242
60603.8	78.7776
60953.7	78.7316
61305.6	78.6861
61659.5	78.6411
62015.5	78.5966
62373.5	78.5526
62733.6	78.5091
63095.7	78.4661
63460	78.4236
63826.3	78.3815
64194.8	78.34
64565.4	78.2989
64938.2	78.2582
65313.1	78.2181
65690.1	78.1784
66069.3	78.1392
66450.8	78.1004
66834.4	78.0621
67220.2	78.0242
67608.3	77.9868
67998.6	77.9499
68391.2	77.9134
68786	77.8773
69183.1	77.8417
69582.5	77.8065
69984.2	77.7718
70388.2	77.7374
70794.6	77.7035
71203.3	77.6701
71614.3	77.637
72027.8	77.6044
72443.6	77.5722
72861.8	77.5404
73282.5	77.509
73705.5	77.478
74131	77.4474
74559	77.4172
74989.4	77.3874
75422.3	77.3581
75857.8	77.3291
76295.7	77.3005
76736.1	77.2723
77179.2	77.2444
77624.7	77.217
78072.8	77.1899
78523.6	77.1632
78976.9	77.1369
79432.8	77.111
79891.4	77.0854
80352.6	77.0602
80816.5	77.0353
81283.1	77.0108
81752.3	76.9867
82224.3	76.9629
82699	76.9395
83176.4	76.9165
83656.6	76.8937
84139.5	76.8714
84625.3	76.8493
85113.8	76.8276
85605.2	76.8063
86099.4	76.7853
86596.4	76.7646
87096.4	76.7442
87599.2	76.7242
88104.9	76.7045
88613.5	76.6851
89125.1	76.666
89639.6	76.6473
90157.1	76.6289
90677.6	76.6107
91201.1	76.5929
91727.6	76.5754
92257.1	76.5582
92789.7	76.5414
93325.4	76.5248
93864.2	76.5085
94406.1	76.4925
94951.1	76.4768
95499.3	76.4614
96050.6	76.4463
96605.1	76.4314
97162.8	76.4169
97723.7	76.4026
98287.9	76.3886
98855.3	76.3749
99426	76.3615
100000	76.3484
100577	76.3355
101158	76.3229
101742	76.3105
102329	76.2984
102920	76.2866
103514	76.2751
104112	76.2638
104713	76.2527
105317	76.2419
105925	76.2314
106537	76.2211
107152	76.2111
107771	76.2013
108393	76.1918
109018	76.1825
109648	76.1734
110281	76.1646
110917	76.156
111558	76.1476
112202	76.1395
112850	76.1316
113501	76.1239
114156	76.1165
114815	76.1093
115478	76.1023
116145	76.0955
116815	76.089
117490	76.0826
118168	76.0765
118850	76.0706
119536	76.0649
120226	76.0594
120921	76.0541
121619	76.0491
122321	76.0442
123027	76.0395
123737	76.035
124451	76.0308
125170	76.0267
125893	76.0228
126619	76.0191
127350	76.0156
128086	76.0123
128825	76.0092
129569	76.0062
130317	76.0035
131069	76.0009
131826	75.9985
132587	75.9963
133352	75.9943
134122	75.9924
134896	75.9907
135675	75.9892
136458	75.9878
137246	75.9867
138038	75.9857
138835	75.9848
139637	75.9841
140443	75.9836
141254	75.9833
142069	75.9831
142889	75.983
143714	75.9832
144544	75.9834
145378	75.9839
146218	75.9844
147062	75.9852
147911	75.986
148765	75.9871
149624	75.9882
150487	75.9896
151356	75.991
152230	75.9926
153109	75.9943
153993	75.9962
154882	75.9982
155776	76.0004
156675	76.0027
157580	76.0051
158489	76.0076
159404	76.0103
160325	76.0131
161250	76.016
162181	76.0191
163117	76.0223
164059	76.0256
165006	76.029
165959	76.0325
166917	76.0362
167880	76.04
168850	76.0439
169824	76.0479
170805	76.052
171791	76.0563
172783	76.0606
173780	76.0651
174783	76.0697
175792	76.0743
176807	76.0791
177828	76.084
178855	76.089
179887	76.0941
180926	76.0993
181970	76.1046
183021	76.11
184077	76.1155
185140	76.1211
186209	76.1268
187284	76.1326
188365	76.1384
189452	76.1444
190546	76.1505
191646	76.1566
192752	76.1629
193865	76.1692
194984	76.1756
196110	76.1821
197242	76.1887
198381	76.1953
199526	76.2021
200678	76.2089
201837	76.2158
203002	76.2228
204174	76.2299
205353	76.237
206538	76.2442
207730	76.2515
208930	76.2589
210136	76.2663
211349	76.2739
212569	76.2814
213796	76.2891
215030	76.2968
216272	76.3046
217520	76.3125
218776	76.3204
220039	76.3284
221309	76.3364
222587	76.3446
223872	76.3527
225165	76.361
226464	76.3693
227772	76.3777
229087	76.3861
230409	76.3946
231739	76.4031
233077	76.4117
234423	76.4203
235776	76.429
237137	76.4378
238506	76.4466
239883	76.4555
241268	76.4644
242661	76.4733
244062	76.4824
245471	76.4914
246888	76.5005
248313	76.5097
249747	76.5189
251189	76.5281
252639	76.5374
254097	76.5468
255564	76.5562
257040	76.5656
258523	76.575
260016	76.5846
261517	76.5941
263027	76.6037
264545	76.6133
266073	76.623
267609	76.6327
269153	76.6424
270707	76.6522
272270	76.662
273842	76.6718
275423	76.6817
277013	76.6916
278612	76.7016
280221	76.7115
281838	76.7215
283465	76.7316
285102	76.7416
286748	76.7517
288403	76.7619
290068	76.772
291743	76.7822
293427	76.7924
295121	76.8026
296825	76.8129
298538	76.8232
300262	76.8335
301995	76.8438
303739	76.8541
305492	76.8645
307256	76.8749
309030	76.8853
310814	76.8958
312608	76.9062
314413	76.9167
316228	76.9272
318053	76.9377
319890	76.9482
321736	76.9588
323594	76.9693
325462	76.9799
327341	76.9905
329230	77.0011
331131	77.0118
333043	77.0224
334965	77.0331
336899	77.0437
338844	77.0544
340800	77.0651
342768	77.0758
344747	77.0865
346737	77.0972
348739	77.108
350752	77.1187
352777	77.1295
354813	77.1402
356862	77.151
358922	77.1618
360994	77.1726
363078	77.1833
365174	77.1941
367282	77.205
369403	77.2158
371535	77.2266
373680	77.2374
375837	77.2482
378007	77.259
380189	77.2699
382384	77.2807
384592	77.2915
386812	77.3024
389045	77.3132
391291	77.3241
393550	77.3349
395822	77.3458
398107	77.3566
400405	77.3674
402717	77.3783
405042	77.3891
407380	77.4
409732	77.4108
412098	77.4216
414477	77.4325
416869	77.4433
419276	77.4541
421697	77.465
424131	77.4758
426580	77.4866
429042	77.4974
431519	77.5082
434010	77.519
436516	77.5298
439036	77.5406
441570	77.5514
444120	77.5622
446684	77.5729
449262	77.5837
451856	77.5945
454465	77.6052
457088	77.616
459727	77.6267
462381	77.6374
465050	77.6481
467735	77.6588
470435	77.6695
473151	77.6802
475883	77.6909
478630	77.7016
481393	77.7122
484172	77.7229
486968	77.7335
489779	77.7441
492606	77.7548
495450	77.7654
498310	77.7759
501187	77.7865
504081	77.7971
506991	77.8076
509918	77.8182
512861	77.8287
515822	77.8392
518800	77.8497
521795	77.8602
524807	77.8707
527837	77.8811
530884	77.8916
533949	77.902
537032	77.9124
540132	77.9228
543250	77.9332
546387	77.9435
549541	77.9539
552713	77.9642
555904	77.9745
559114	77.9848
562341	77.9951
565588	78.0054
568853	78.0156
572137	78.0259
575440	78.0361
578762	78.0463
582103	78.0564
585464	78.0666
588844	78.0767
592243	78.0869
595662	78.097
599101	78.1071
602560	78.1171
606038	78.1272
609537	78.1372
613056	78.1472
616595	78.1572
620155	78.1672
623735	78.1771
627336	78.1871
630957	78.197
634600	78.2069
638263	78.2167
641948	78.2266
645654	78.2364
649382	78.2462
653131	78.256
656901	78.2658
660693	78.2755
664508	78.2852
668344	78.2949
672202	78.3046
676083	78.3143
679986	78.3239
683912	78.3335
687860	78.3431
691831	78.3527
695825	78.3622
699842	78.3718
703882	78.3813
707946	78.3907
712033	78.4002
716143	78.4096
720278	78.419
724436	78.4284
728618	78.4378
732825	78.4471
737055	78.4564
741310	78.4657
745590	78.475
749894	78.4842
754223	78.4935
758578	78.5027
762957	78.5118
767361	78.521
771792	78.5301
776247	78.5392
780728	78.5483
785236	78.5573
789769	78.5664
794328	78.5754
798914	78.5843
803526	78.5933
808165	78.6022
812831	78.6111
817523	78.62
822243	78.6289
826990	78.6377
831764	78.6465
836566	78.6553
841395	78.664
846253	78.6728
851138	78.6815
856052	78.6901
860994	78.6988
865964	78.7074
870964	78.716
875992	78.7246
881049	78.7331
886135	78.7417
891251	78.7501
896396	78.7586
901571	78.7671
906776	78.7755
912011	78.7839
917276	78.7922
922571	78.8006
927897	78.8089
933254	78.8172
938642	78.8254
944061	78.8337
949511	78.8419
954993	78.8501
960506	78.8582
966051	78.8663
971628	78.8744
977237	78.8825
982879	78.8906
988553	78.8986
994260	78.9066
1e+06	78.9146
1.00577e+06	78.9225
1.01158e+06	78.9304
1.01742e+06	78.9383
1.02329e+06	78.9462
1.0292e+06	78.954
1.03514e+06	78.9618
1.04112e+06	78.9696
1.04713e+06	78.9773
1.05317e+06	78.9851
1.05925e+06	78.9928
1.06537e+06	79.0005
1.07152e+06	79.0081
1.07771e+06	79.0157
1.08393e+06	79.0233
1.09018e+06	79.0309
1.09648e+06	79.0384
1.10281e+06	79.0459
1.10917e+06	79.0534
1.11558e+06	79.0609
1.12202e+06	79.0683
1.1285e+06	79.0757
1.13501e+06	79.0831
1.14156e+06	79.0904
1.14815e+06	79.0978
1.15478e+06	79.1051
1.16145e+06	79.1123
1.16815e+06	79.1196
1.1749e+06	79.1268
1.18168e+06	79.134
1.1885e+06	79.1411
1.19536e+06	79.1483
1.20226e+06	79.1554
1.20921e+06	79.1625
1.21619e+06	79.1695
1.22321e+06	79.1765
1.23027e+06	79.1835
1.23737e+06	79.1905
1.24451e+06	79.1975
1.2517e+06	79.2044
1.25893e+06	79.2113
1.26619e+06	79.2181
1.2735e+06	79.225
1.28086e+06	79.2318
1.28825e+06	79.2386
1.29569e+06	79.2453
1.30317e+06	79.252
1.31069e+06	79.2587
1.31826e+06	79.2654
1.32587e+06	79.2721
1.33352e+06	79.2787
1.34122e+06	79.2853
1.34896e+06	79.2919
1.35675e+06	79.2984
1.36458e+06	79.3049
1.37246e+06	79.3114
1.38038e+06	79.3179
1.38835e+06	79.3243
1.39637e+06	79.3307
1.40443e+06	79.3371
1.41254e+06	79.3434
1.42069e+06	79.3498
1.42889e+06	79.3561
1.43714e+06	79.3623
1.44544e+06	79.3686
1.45378e+06	79.3748
1.46218e+06	79.381
1.47062e+06	79.3872
1.47911e+06	79.3933
1.48765e+06	79.3994
1.49624e+06	79.4055
1.50487e+06	79.4116
1.51356e+06	79.4176
1.5223e+06	79.4236
1.53109e+06	79.4296
1.53993e+06	79.4356
1.54882e+06	79.4415
1.55776e+06	79.4474
1.56675e+06	79.4533
1.5758e+06	79.4591
1.58489e+06	79.4649
1.59404e+06	79.4707
1.60325e+06	79.4765
1.6125e+06	79.4823
1.62181e+06	79.488
1.63117e+06	79.4937
1.64059e+06	79.4993
1.65006e+06	79.505
1.65959e+06	79.5106
1.66917e+06	79.5162
1.6788e+06	79.5218
1.6885e+06	79.5273
1.69824e+06	79.5328
1.70805e+06	79.5383
1.71791e+06	79.5438
1.72783e+06	79.5492
1.7378e+06	79.5546
1.74783e+06	79.56
1.75792e+06	79.5654
1.76807e+06	79.5707
1.77828e+06	79.576
1.78855e+06	79.5813
1.79887e+06	79.5865
1.80926e+06	79.5918
1.8197e+06	79.597
1.83021e+06	79.6022
1.84077e+06	79.6073
1.8514e+06	79.6125
1.86209e+06	79.6176
1.87284e+06	79.6226
1.88365e+06	79.6277
1.89452e+06	79.6327
1.90546e+06	79.6377
1.91646e+06	79.6427
1.92752e+06	79.6477
1.93865e+06	79.6526
1.94984e+06	79.6575
1.9611e+06	79.6624
1.97242e+06	79.6673
1.98381e+06	79.6721
1.99526e+06	79.6769
2.00678e+06	79.6817
2.01837e+06	79.6864
2.03002e+06	79.6912
2.04174e+06	79.6959
2.05353e+06	79.7006
2.06538e+06	79.7052
2.0773e+06	79.7099
2.0893e+06	79.7145
2.10136e+06	79.7191
2.11349e+06	79.7237
2.12569e+06	79.7282
2.13796e+06	79.7327
2.1503e+06	79.7372
2.16272e+06	79.7417
2.1752e+06	79.7461
2.18776e+06	79.7506
2.20039e+06	79.755
2.21309e+06	79.7593
2.22587e+06	79.7637
2.23872e+06	79.768
2.25165e+06	79.7723
2.26464e+06	79.7766
2.27772e+06	79.7809
2.29087e+06	79.7851
2.30409e+06	79.7893
2.31739e+06	79.7935
2.33077e+06	79.7977
2.34423e+06	79.8018
2.35776e+06	79.8059
2.37137e+06	79.81
2.38506e+06	79.8141
2.39883e+06	79.8181
2.41268e+06	79.8222
2.42661e+06	79.8262
2.44062e+06	79.8302
2.45471e+06	79.8341
2.46888e+06	79.8381
2.48313e+06	79.842
2.49747e+06	79.8459
2.51189e+06	79.8497
2.52639e+06	79.8536
2.54097e+06	79.8574
2.55564e+06	79.8612
2.5704e+06	79.865
2.58523e+06	79.8688
2.60016e+06	79.8725
2.61517e+06	79.8762
2.63027e+06	79.8799
2.64545e+06	79.8836
2.66073e+06	79.8872
2.67609e+06	79.8908
2.69153e+06	79.8945
2.70707e+06	79.898
2.7227e+06	79.9016
2.73842e+06	79.9051
2.75423e+06	79.9087
2.77013e+06	79.9122
2.78612e+06	79.9156
2.80221e+06	79.9191
2.81838e+06	79.9225
2.83465e+06	79.9259
2.85102e+06	79.9293
2.86748e+06	79.9327
2.88403e+06	79.936
2.90068e+06	79.9394
2.91743e+06	79.9427
2.93427e+06	79.946
2.95121e+06	79.9492
2.96825e+06	79.9525
2.98538e+06	79.9557
3.00262e+06	79.9589
3.01995e+06	79.9621
3.03739e+06	79.9653
3.05492e+06	79.9684
3.07256e+06	79.9715
3.0903e+06	79.9746
3.10814e+06	79.9777
3.12608e+06	79.9808
3.14413e+06	79.9838
3.16228e+06	79.9868
3.18053e+06	79.9898
3.1989e+06	79.9928
3.21736e+06	79.9958
3.23594e+06	79.9987
3.25462e+06	80.0017
3.27341e+06	80.0046
3.2923e+06	80.0075
3.31131e+06	80.0103
3.33043e+06	80.0132
3.34965e+06	80.016
3.36899e+06	80.0188
3.38844e+06	80.0216
3.408e+06	80.0244
3.42768e+06	80.0271
3.44747e+06	80.0298
3.46737e+06	80.0326
3.48739e+06	80.0352
3.50752e+06	80.0379
3.52777e+06	80.0406
3.54813e+06	80.0432
3.56862e+06	80.0458
3.58922e+06	80.0484
3.60994e+06	80.051
3.63078e+06	80.0536
3.65174e+06	80.0561
3.67282e+06	80.0587
3.69403e+06	80.0612
3.71535e+06	80.0637
3.7368e+06	80.0661
3.75837e+06	80.0686
3.78007e+06	80.071
3.80189e+06	80.0734
3.82384e+06	80.0758
3.84592e+06	80.0782
3.86812e+06	80.0806
3.89045e+06	80.0829
3.91291e+06	80.0853
3.9355e+06	80.0876
3.95822e+06	80.0899
3.98107e+06	80.0921
4.00405e+06	80.0944
4.02717e+06	80.0967
4.05042e+06	80.0989
4.0738e+06	80.1011
4.09732e+06	80.1033
4.12098e+06	80.1055
4.14477e+06	80.1076
4.16869e+06	80.1098
4.19276e+06	80.1119
4.21697e+06	80.114
4.24131e+06	80.1161
4.2658e+06	80.1182
4.29042e+06	80.1202
4.31519e+06	80.1223
4.3401e+06	80.1243
4.36516e+06	80.1263
4.39036e+06	80.1283
4.4157e+06	80.1303
4.4412e+06	80.1322
4.46684e+06	80.1342
4.49262e+06	80.1361
4.51856e+06	80.138
4.54465e+06	80.1399
4.57088e+06	80.1418
4.59727e+06	80.1437
4.62381e+06	80.1455
4.6505e+06	80.1474
4.67735e+06	80.1492
4.70435e+06	80.151
4.73151e+06	80.1528
4.75883e+06	80.1545
4.7863e+06	80.1563
4.81393e+06	80.158
4.84172e+06	80.1598
4.86968e+06	80.1615
4.89779e+06	80.1632
4.92606e+06	80.1649
4.9545e+06	80.1665
4.9831e+06	80.1682
5.01187e+06	80.1698
5.04081e+06	80.1715
5.06991e+06	80.1731
5.09918e+06	80.1747
5.12861e+06	80.1763
5.15822e+06	80.1778
5.188e+06	80.1794
5.21795e+06	80.1809
5.24807e+06	80.1824
5.27837e+06	80.184
5.30884e+06	80.1855
5.33949e+06	80.1869
5.37032e+06	80.1884
5.40132e+06	80.1899
5.4325e+06	80.1913
5.46387e+06	80.1927
5.49541e+06	80.1942
5.52713e+06	80.1956
5.55904e+06	80.1969
5.59114e+06	80.1983
5.62341e+06	80.1997
5.65588e+06	80.201
5.68853e+06	80.2024
5.72137e+06	80.2037
5.7544e+06	80.205
5.78762e+06	80.2063
5.82103e+06	80.2076
5.85464e+06	80.2089
5.88844e+06	80.2101
5.92243e+06	80.2114
5.95662e+06	80.2126
5.99101e+06	80.2138
6.0256e+06	80.215
6.06038e+06	80.2162
6.09537e+06	80.2174
6.13056e+06	80.2186
6.16595e+06	80.2197
6.20155e+06	80.2209
6.23735e+06	80.222
6.27336e+06	80.2231
6.30957e+06	80.2243
6.346e+06	80.2254
6.38263e+06	80.2264
6.41948e+06	80.2275
6.45654e+06	80.2286
6.49382e+06	80.2296
6.53131e+06	80.2307
6.56901e+06	80.2317
6.60693e+06	80.2327
6.64508e+06	80.2337
6.68344e+06	80.2347
6.72202e+06	80.2357
6.76083e+06	80.2367
6.79986e+06	80.2377
6.83912e+06	80.2386
6.8786e+06	80.2396
6.91831e+06	80.2405
6.95825e+06	80.2414
6.99842e+06	80.2423
7.03882e+06	80.2432
7.07946e+06	80.2441
7.12033e+06	80.245
7.16143e+06	80.2458
7.20278e+06	80.2467
7.24436e+06	80.2476
7.28618e+06	80.2484
7.32825e+06	80.2492
7.37055e+06	80.25
7.4131e+06	80.2508
7.4559e+06	80.2516
7.49894e+06	80.2524
7.54223e+06	80.2532
7.58578e+06	80.254
7.62957e+06	80.2547
7.67361e+06	80.2555
7.71792e+06	80.2562
7.76247e+06	80.2569
7.80728e+06	80.2577
7.85236e+06	80.2584
7.89769e+06	80.2591
7.94328e+06	80.2598
7.98914e+06	80.2604
8.03526e+06	80.2611
8.08165e+06	80.2618
8.12831e+06	80.2624
8.17523e+06	80.2631
8.22243e+06	80.2637
8.2699e+06	80.2643
8.31764e+06	80.265
8.36566e+06	80.2656
8.41395e+06	80.2662
8.46253e+06	80.2668
8.51138e+06	80.2674
8.56052e+06	80.2679
8.60994e+06	80.2685
8.65964e+06	80.2691
8.70964e+06	80.2696
8.75992e+06	80.2702
8.81049e+06	80.2707
8.86135e+06	80.2712
8.91251e+06	80.2717
8.96396e+06	80.2723
9.01571e+06	80.2728
9.06776e+06	80.2733
9.12011e+06	80.2737
9.17276e+06	80.2742
9.22571e+06	80.2747
9.27897e+06	80.2752
9.33254e+06	80.2756
9.38642e+06	80.2761
9.44061e+06	80.2765
9.49511e+06	80.277
9.54993e+06	80.2774
9.60506e+06	80.2778
9.66051e+06	80.2782
9.71628e+06	80.2786
9.77237e+06	80.279
9.82879e+06	80.2794
9.88553e+06	80.2798
9.9426e+06	80.2802
1e+07	80.2806
