Stopping power dEdx from Ionisation for pi+ Z = 0 in Water, process name: hIoni
E [MeV]	dEdx [MeV/mm]
0.001	44.5556
0.00100577	44.684
0.00101158	44.8128
0.00101742	44.942
0.00102329	45.0715
0.0010292	45.2014
0.00103514	45.3317
0.00104112	45.4624
0.00104713	45.5934
0.00105317	45.7248
0.00105925	45.8566
0.00106537	45.9888
0.00107152	46.1214
0.00107771	46.2543
0.00108393	46.3876
0.00109018	46.5213
0.00109648	46.6554
0.00110281	46.7899
0.00110917	46.9248
0.00111558	47.06
0.00112202	47.1957
0.0011285	47.3317
0.00113501	47.4681
0.00114156	47.605
0.00114815	47.7422
0.00115478	47.8798
0.00116145	48.0178
0.00116815	48.1562
0.0011749	48.295
0.00118168	48.4342
0.0011885	48.5738
0.00119536	48.7138
0.00120226	48.8542
0.00120921	48.9951
0.00121619	49.1363
0.00122321	49.2779
0.00123027	49.4199
0.00123737	49.5624
0.00124451	49.7052
0.0012517	49.8485
0.00125893	49.9922
0.00126619	50.1363
0.0012735	50.2808
0.00128086	50.4257
0.00128825	50.5711
0.00129569	50.7168
0.00130317	50.863
0.00131069	51.0096
0.00131826	51.1567
0.00132587	51.3041
0.00133352	51.452
0.00134122	51.6003
0.00134896	51.749
0.00135675	51.8982
0.00136458	52.0478
0.00137246	52.1978
0.00138038	52.3483
0.00138835	52.4991
0.00139637	52.6505
0.00140443	52.8022
0.00141254	52.9544
0.00142069	53.1071
0.00142889	53.2601
0.00143714	53.4137
0.00144544	53.5676
0.00145378	53.722
0.00146218	53.8769
0.00147062	54.0322
0.00147911	54.1879
0.00148765	54.3441
0.00149624	54.5007
0.00150487	54.64
0.00151356	54.7739
0.0015223	54.908
0.00153109	55.0423
0.00153993	55.1769
0.00154882	55.3117
0.00155776	55.4468
0.00156675	55.5822
0.0015758	55.7178
0.00158489	55.8537
0.00159404	55.9898
0.00160325	56.1262
0.0016125	56.2628
0.00162181	56.3996
0.00163117	56.5368
0.00164059	56.6741
0.00165006	56.8117
0.00165959	56.9496
0.00166917	57.0877
0.0016788	57.2261
0.0016885	57.3647
0.00169824	57.5035
0.00170805	57.6426
0.00171791	57.782
0.00172783	57.9216
0.0017378	58.0614
0.00174783	58.2015
0.00175792	58.3418
0.00176807	58.4823
0.00177828	58.6231
0.00178855	58.7642
0.00179887	58.9054
0.00180926	59.0469
0.0018197	59.1887
0.00183021	59.3307
0.00184077	59.4729
0.0018514	59.6153
0.00186209	59.758
0.00187284	59.9009
0.00188365	60.0441
0.00189452	60.1875
0.00190546	60.3311
0.00191646	60.4749
0.00192752	60.619
0.00193865	60.7633
0.00194984	60.9078
0.0019611	61.0525
0.00197242	61.1975
0.00198381	61.3427
0.00199526	61.4881
0.00200678	61.6337
0.00201837	61.7796
0.00203002	61.9256
0.00204174	62.0719
0.00205353	62.2184
0.00206538	62.3651
0.0020773	62.512
0.0020893	62.6592
0.00210136	62.8065
0.00211349	62.9541
0.00212569	63.1018
0.00213796	63.2498
0.0021503	63.398
0.00216272	63.5463
0.0021752	63.6949
0.00218776	63.8437
0.00220039	63.9927
0.00221309	64.1418
0.00222587	64.2912
0.00223872	64.4408
0.00225165	64.5905
0.00226464	64.7404
0.00227772	64.8906
0.00229087	65.0409
0.00230409	65.1914
0.00231739	65.3421
0.00233077	65.4929
0.00234423	65.644
0.00235776	65.7952
0.00237137	65.9466
0.00238506	66.0982
0.00239883	66.25
0.00241268	66.4019
0.00242661	66.554
0.00244062	66.7062
0.00245471	66.8586
0.00246888	67.0112
0.00248313	67.164
0.00249747	67.3169
0.00251189	67.4699
0.00252639	67.6231
0.00254097	67.7765
0.00255564	67.93
0.0025704	68.0837
0.00258523	68.2375
0.00260016	68.3914
0.00261517	68.5455
0.00263027	68.6997
0.00264545	68.8541
0.00266073	69.0086
0.00267609	69.1632
0.00269153	69.3179
0.00270707	69.4728
0.0027227	69.6278
0.00273842	69.7829
0.00275423	69.9381
0.00277013	70.0935
0.00278612	70.249
0.00280221	70.4045
0.00281838	70.5602
0.00283465	70.716
0.00285102	70.8719
0.00286748	71.0278
0.00288403	71.1839
0.00290068	71.3401
0.00291743	71.4963
0.00293427	71.6527
0.00295121	71.8091
0.00296825	71.9656
0.00298538	72.1221
0.00300262	72.2788
0.00301995	72.4355
0.00303739	72.5923
0.00305492	72.7491
0.00307256	72.906
0.0030903	73.063
0.00310814	73.22
0.00312608	73.3771
0.00314413	73.5342
0.00316228	73.6913
0.00318053	73.8485
0.0031989	74.0057
0.00321736	74.163
0.00323594	74.3203
0.00325462	74.4776
0.00327341	74.6349
0.0032923	74.7922
0.00331131	74.9496
0.00333043	75.1069
0.00334965	75.2643
0.00336899	75.4217
0.00338844	75.579
0.003408	75.7364
0.00342768	75.8937
0.00344747	76.051
0.00346737	76.2083
0.00348739	76.3656
0.00350752	76.5228
0.00352777	76.68
0.00354813	76.8372
0.00356862	76.9943
0.00358922	77.1514
0.00360994	77.3084
0.00363078	77.4654
0.00365174	77.6223
0.00367282	77.7791
0.00369403	77.9359
0.00371535	78.0926
0.0037368	78.2492
0.00375837	78.4057
0.00378007	78.5621
0.00380189	78.7184
0.00382384	78.8747
0.00384592	79.0308
0.00386812	79.1868
0.00389045	79.3427
0.00391291	79.4985
0.0039355	79.6541
0.00395822	79.8096
0.00398107	79.965
0.00400405	80.1202
0.00402717	80.2753
0.00405042	80.4302
0.0040738	80.585
0.00409732	80.7396
0.00412098	80.894
0.00414477	81.0482
0.00416869	81.2023
0.00419276	81.3562
0.00421697	81.5098
0.00424131	81.6633
0.0042658	81.8166
0.00429042	81.9696
0.00431519	82.1224
0.0043401	82.275
0.00436516	82.4274
0.00439036	82.5795
0.0044157	82.7314
0.0044412	82.8831
0.00446684	83.0344
0.00449262	83.1856
0.00451856	83.3364
0.00454465	83.4869
0.00457088	83.6372
0.00459727	83.7872
0.00462381	83.9369
0.0046505	84.0863
0.00467735	84.2353
0.00470435	84.3841
0.00473151	84.5325
0.00475883	84.6806
0.0047863	84.8283
0.00481393	84.9758
0.00484172	85.1228
0.00486968	85.2695
0.00489779	85.4158
0.00492606	85.5617
0.0049545	85.7073
0.0049831	85.8525
0.00501187	85.9972
0.00504081	86.1416
0.00506991	86.2855
0.00509918	86.429
0.00512861	86.5721
0.00515822	86.7148
0.005188	86.857
0.00521795	86.9988
0.00524807	87.1401
0.00527837	87.2809
0.00530884	87.4212
0.00533949	87.5611
0.00537032	87.7005
0.00540132	87.8393
0.0054325	87.9777
0.00546387	88.1156
0.00549541	88.2529
0.00552713	88.3897
0.00555904	88.5259
0.00559114	88.6616
0.00562341	88.7967
0.00565588	88.9313
0.00568853	89.0653
0.00572137	89.1987
0.0057544	89.3315
0.00578762	89.4637
0.00582103	89.5953
0.00585464	89.7262
0.00588844	89.8566
0.00592243	89.9863
0.00595662	90.1153
0.00599101	90.2437
0.0060256	90.3715
0.00606038	90.4985
0.00609537	90.6249
0.00613056	90.7506
0.00616595	90.8756
0.00620155	90.9998
0.00623735	91.1234
0.00627336	91.2462
0.00630957	91.3683
0.006346	91.4896
0.00638263	91.6102
0.00641948	91.73
0.00645654	91.8491
0.00649382	91.9673
0.00653131	92.0848
0.00656901	92.2014
0.00660693	92.3173
0.00664508	92.4323
0.00668344	92.5465
0.00672202	92.6598
0.00676083	92.7723
0.00679986	92.884
0.00683912	92.9947
0.0068786	93.1046
0.00691831	93.2136
0.00695825	93.3217
0.00699842	93.4289
0.00703882	93.5351
0.00707946	93.6404
0.00712033	93.7448
0.00716143	93.8483
0.00720278	93.9508
0.00724436	94.0523
0.00728618	94.1528
0.00732825	94.2523
0.00737055	94.3509
0.0074131	94.4484
0.0074559	94.545
0.00749894	94.6404
0.00754223	94.7349
0.00758578	94.8283
0.00762957	94.9207
0.00767361	95.0119
0.00771792	95.1022
0.00776247	95.1913
0.00780728	95.2793
0.00785236	95.3662
0.00789769	95.452
0.00794328	95.5367
0.00798914	95.6202
0.00803526	95.7026
0.00808165	95.7839
0.00812831	95.8639
0.00817523	95.9428
0.00822243	96.0205
0.0082699	96.0971
0.00831764	96.1724
0.00836566	96.2465
0.00841395	96.3194
0.00846253	96.391
0.00851138	96.4614
0.00856052	96.5306
0.00860994	96.5984
0.00865964	96.6651
0.00870964	96.7304
0.00875992	96.7944
0.00881049	96.8572
0.00886135	96.9186
0.00891251	96.9788
0.00896396	97.0376
0.00901571	97.095
0.00906776	97.1511
0.00912011	97.2059
0.00917276	97.2593
0.00922571	97.3113
0.00927897	97.362
0.00933254	97.4112
0.00938642	97.4591
0.00944061	97.5055
0.00949511	97.5506
0.00954993	97.5942
0.00960506	97.6364
0.00966051	97.6771
0.00971628	97.7164
0.00977237	97.7542
0.00982879	97.7906
0.00988553	97.8255
0.0099426	97.8589
0.01	97.8908
0.0100577	97.9212
0.0101158	97.9501
0.0101742	97.9775
0.0102329	98.0034
0.010292	98.0277
0.0103514	98.0505
0.0104112	98.0718
0.0104713	98.0915
0.0105317	98.1097
0.0105925	98.1263
0.0106537	98.1413
0.0107152	98.1547
0.0107771	98.1666
0.0108393	98.1768
0.0109018	98.1855
0.0109648	98.1925
0.0110281	98.198
0.0110917	98.2018
0.0111558	98.204
0.0112202	98.2046
0.011285	98.2035
0.0113501	98.2008
0.0114156	98.1964
0.0114815	98.1904
0.0115478	98.1827
0.0116145	98.1734
0.0116815	98.1624
0.011749	98.1497
0.0118168	98.1354
0.011885	98.1193
0.0119536	98.1016
0.0120226	98.0822
0.0120921	98.0611
0.0121619	98.0383
0.0122321	98.0138
0.0123027	97.9875
0.0123737	97.9596
0.0124451	97.93
0.012517	97.8986
0.0125893	97.8655
0.0126619	97.8307
0.012735	97.7941
0.0128086	97.7559
0.0128825	97.7159
0.0129569	97.6741
0.0130317	97.6307
0.0131069	97.5854
0.0131826	97.5385
0.0132587	97.4898
0.0133352	97.4393
0.0134122	97.3872
0.0134896	97.3332
0.0135675	97.2775
0.0136458	97.2201
0.0137246	97.1609
0.0138038	97.1
0.0138835	97.0373
0.0139637	96.9729
0.0140443	96.9067
0.0141254	96.8388
0.0142069	96.7691
0.0142889	96.6977
0.0143714	96.6245
0.0144544	96.5496
0.0145378	96.4729
0.0146218	96.3945
0.0147062	96.3143
0.0147911	96.2324
0.0148765	96.1488
0.0149624	96.0634
0.0150487	95.9763
0.0151356	95.8875
0.015223	95.7969
0.0153109	95.7046
0.0153993	95.6106
0.0154882	95.5149
0.0155776	95.4174
0.0156675	95.3183
0.015758	95.2174
0.0158489	95.1148
0.0159404	95.0105
0.0160325	94.9045
0.016125	94.7969
0.0162181	94.6875
0.0163117	94.5765
0.0164059	94.4638
0.0165006	94.3494
0.0165959	94.2334
0.0166917	94.1157
0.016788	93.9963
0.016885	93.8753
0.0169824	93.7527
0.0170805	93.6284
0.0171791	93.5025
0.0172783	93.375
0.017378	93.2458
0.0174783	93.1151
0.0175792	92.9828
0.0176807	92.8488
0.0177828	92.7133
0.0178855	92.5763
0.0179887	92.4376
0.0180926	92.2974
0.018197	92.1557
0.0183021	92.0124
0.0184077	91.8676
0.018514	91.7212
0.0186209	91.5734
0.0187284	91.4241
0.0188365	91.2732
0.0189452	91.1209
0.0190546	90.9671
0.0191646	90.8119
0.0192752	90.6552
0.0193865	90.497
0.0194984	90.3375
0.019611	90.1765
0.0197242	90.0141
0.0198381	89.8503
0.0199526	89.6851
0.0200678	89.5186
0.0201837	89.3507
0.0203002	89.1815
0.0204174	89.0109
0.0205353	88.839
0.0206538	88.6658
0.020773	88.4913
0.020893	88.3155
0.0210136	88.1384
0.0211349	87.9601
0.0212569	87.7805
0.0213796	87.5997
0.021503	87.4177
0.0216272	87.2344
0.021752	87.05
0.0218776	86.8644
0.0220039	86.6777
0.0221309	86.4897
0.0222587	86.3007
0.0223872	86.1105
0.0225165	85.9192
0.0226464	85.7269
0.0227772	85.5334
0.0229087	85.3389
0.0230409	85.1433
0.0231739	84.9467
0.0233077	84.7491
0.0234423	84.5505
0.0235776	84.3509
0.0237137	84.1503
0.0238506	83.9488
0.0239883	83.7463
0.0241268	83.5429
0.0242661	83.3385
0.0244062	83.1333
0.0245471	82.9272
0.0246888	82.7202
0.0248313	82.5124
0.0249747	82.3038
0.0251189	82.0943
0.0252639	81.884
0.0254097	81.673
0.0255564	81.4612
0.025704	81.2486
0.0258523	81.0353
0.0260016	80.8212
0.0261517	80.6065
0.0263027	80.391
0.0264545	80.1749
0.0266073	79.9582
0.0267609	79.7408
0.0269153	79.5227
0.0270707	79.3041
0.027227	79.0848
0.0273842	78.865
0.0275423	78.6446
0.0277013	78.4237
0.0278612	78.2023
0.0280221	77.9803
0.0281838	77.7578
0.0283465	77.5349
0.0285102	77.3115
0.0286748	77.0876
0.0288403	76.8634
0.0290068	76.6387
0.0291743	76.4135
0.0293427	76.1881
0.0295121	75.9622
0.0296825	75.736
0.0298538	75.5094
0.0300262	75.2825
0.0301995	75.0554
0.0303739	74.8279
0.0305492	74.6001
0.0307256	74.3721
0.030903	74.1438
0.0310814	73.9153
0.0312608	73.6866
0.0314413	73.4577
0.0316228	73.2286
0.0318053	72.9993
0.031989	72.7699
0.0321736	72.5403
0.0323594	72.3106
0.0325462	72.0808
0.0327341	71.8509
0.032923	71.6209
0.0331131	71.3908
0.0333043	71.1607
0.0334965	70.9305
0.0336899	70.7003
0.0338844	70.4701
0.03408	70.2399
0.0342768	70.0097
0.0344747	69.7795
0.0346737	69.5494
0.0348739	69.3193
0.0350752	69.0892
0.0352777	68.8593
0.0354813	68.6294
0.0356862	68.3996
0.0358922	68.17
0.0360994	67.9405
0.0363078	67.7111
0.0365174	67.4818
0.0367282	67.2528
0.0369403	67.0239
0.0371535	66.7951
0.037368	66.5666
0.0375837	66.3383
0.0378007	66.1102
0.0380189	65.8823
0.0382384	65.6547
0.0384592	65.4273
0.0386812	65.2002
0.0389045	64.9734
0.0391291	64.7468
0.039355	64.5206
0.0395822	64.2946
0.0398107	64.069
0.0400405	63.8436
0.0402717	63.6186
0.0405042	63.394
0.040738	63.1697
0.0409732	62.9457
0.0412098	62.7221
0.0414477	62.4989
0.0416869	62.2761
0.0419276	62.0537
0.0421697	61.8316
0.0424131	61.61
0.042658	61.3888
0.0429042	61.168
0.0431519	60.9477
0.043401	60.7278
0.0436516	60.5083
0.0439036	60.2893
0.044157	60.0707
0.044412	59.8527
0.0446684	59.6351
0.0449262	59.4179
0.0451856	59.2013
0.0454465	58.9852
0.0457088	58.7695
0.0459727	58.5544
0.0462381	58.3398
0.046505	58.1257
0.0467735	57.9121
0.0470435	57.699
0.0473151	57.4865
0.0475883	57.2745
0.047863	57.0631
0.0481393	56.8522
0.0484172	56.6418
0.0486968	56.432
0.0489779	56.2228
0.0492606	56.0142
0.049545	55.8061
0.049831	55.5985
0.0501187	55.3916
0.0504081	55.1852
0.0506991	54.9795
0.0509918	54.7743
0.0512861	54.5697
0.0515822	54.3657
0.05188	54.1623
0.0521795	53.9595
0.0524807	53.7573
0.0527837	53.5557
0.0530884	53.3547
0.0533949	53.1543
0.0537032	52.9546
0.0540132	52.7554
0.054325	52.5569
0.0546387	52.359
0.0549541	52.1617
0.0552713	51.9651
0.0555904	51.769
0.0559114	51.5736
0.0562341	51.3788
0.0565588	51.1847
0.0568853	50.9912
0.0572137	50.7983
0.057544	50.606
0.0578762	50.4144
0.0582103	50.2234
0.0585464	50.033
0.0588844	49.8433
0.0592243	49.6542
0.0595662	49.4658
0.0599101	49.278
0.060256	49.0908
0.0606038	48.9043
0.0609537	48.7184
0.0613056	48.5331
0.0616595	48.3485
0.0620155	48.1645
0.0623735	47.9812
0.0627336	47.7985
0.0630957	47.6164
0.06346	47.435
0.0638263	47.2542
0.0641948	47.074
0.0645654	46.8945
0.0649382	46.7156
0.0653131	46.5374
0.0656901	46.3598
0.0660693	46.1828
0.0664508	46.0064
0.0668344	45.8307
0.0672202	45.6556
0.0676083	45.4812
0.0679986	45.3073
0.0683912	45.1341
0.068786	44.9615
0.0691831	44.7896
0.0695825	44.6182
0.0699842	44.4475
0.0703882	44.2774
0.0707946	44.108
0.0712033	43.9391
0.0716143	43.7709
0.0720278	43.6033
0.0724436	43.4363
0.0728618	43.2699
0.0732825	43.1041
0.0737055	42.9389
0.074131	42.7743
0.074559	42.6104
0.0749894	42.447
0.0754223	42.2842
0.0758578	42.1221
0.0762957	41.9605
0.0767361	41.7996
0.0771792	41.6392
0.0776247	41.4794
0.0780728	41.3202
0.0785236	41.1616
0.0789769	41.0036
0.0794328	40.8461
0.0798914	40.6893
0.0803526	40.533
0.0808165	40.3773
0.0812831	40.2222
0.0817523	40.0677
0.0822243	39.9137
0.082699	39.7603
0.0831764	39.6075
0.0836566	39.4552
0.0841395	39.3035
0.0846253	39.1523
0.0851138	39.0018
0.0856052	38.8517
0.0860994	38.7022
0.0865964	38.5533
0.0870964	38.405
0.0875992	38.2571
0.0881049	38.1098
0.0886135	37.9631
0.0891251	37.8169
0.0896396	37.6713
0.0901571	37.5261
0.0906776	37.3816
0.0912011	37.2375
0.0917276	37.094
0.0922571	36.951
0.0927897	36.8085
0.0933254	36.6666
0.0938642	36.5252
0.0944061	36.3843
0.0949511	36.2439
0.0954993	36.104
0.0960506	35.9647
0.0966051	35.8258
0.0971628	35.6875
0.0977237	35.5496
0.0982879	35.4123
0.0988553	35.2755
0.099426	35.1391
0.1	35.0033
0.100577	34.868
0.101158	34.7331
0.101742	34.5988
0.102329	34.4649
0.10292	34.3315
0.103514	34.1986
0.104112	34.0662
0.104713	33.9343
0.105317	33.8028
0.105925	33.6719
0.106537	33.5414
0.107152	33.4113
0.107771	33.2818
0.108393	33.1527
0.109018	33.024
0.109648	32.8959
0.110281	32.7682
0.110917	32.6409
0.111558	32.5141
0.112202	32.3878
0.11285	32.2619
0.113501	32.1365
0.114156	32.0115
0.114815	31.887
0.115478	31.7629
0.116145	31.6393
0.116815	31.5161
0.11749	31.3933
0.118168	31.271
0.11885	31.1491
0.119536	31.0277
0.120226	30.9066
0.120921	30.786
0.121619	30.6659
0.122321	30.5462
0.123027	30.4269
0.123737	30.308
0.124451	30.1895
0.12517	30.0715
0.125893	29.9539
0.126619	29.8366
0.12735	29.7199
0.128086	29.6035
0.128825	29.4875
0.129569	29.372
0.130317	29.2568
0.131069	29.1421
0.131826	29.0277
0.132587	28.9138
0.133352	28.8003
0.134122	28.6871
0.134896	28.5744
0.135675	28.462
0.136458	28.3501
0.137246	28.2385
0.138038	28.1274
0.138835	28.0166
0.139637	27.9062
0.140443	27.7962
0.141254	27.6866
0.142069	27.5774
0.142889	27.4686
0.143714	27.3601
0.144544	27.252
0.145378	27.1443
0.146218	27.037
0.147062	26.9301
0.147911	26.8235
0.148765	26.7173
0.149624	26.6114
0.150487	26.506
0.151356	26.4009
0.15223	26.2962
0.153109	26.1918
0.153993	26.0878
0.154882	25.9842
0.155776	25.8809
0.156675	25.778
0.15758	25.6754
0.158489	25.5732
0.159404	25.4714
0.160325	25.3699
0.16125	25.2688
0.162181	25.168
0.163117	25.0676
0.164059	24.9675
0.165006	24.8678
0.165959	24.7684
0.166917	24.6694
0.16788	24.5707
0.16885	24.4724
0.169824	24.3744
0.170805	24.2767
0.171791	24.1794
0.172783	24.0824
0.17378	23.9858
0.174783	23.8895
0.175792	23.7935
0.176807	23.6979
0.177828	23.6026
0.178855	23.5076
0.179887	23.413
0.180926	23.3187
0.18197	23.2247
0.183021	23.1311
0.184077	23.0378
0.18514	22.9448
0.186209	22.8521
0.187284	22.7598
0.188365	22.6678
0.189452	22.5761
0.190546	22.4847
0.191646	22.3937
0.192752	22.3029
0.193865	22.2125
0.194984	22.1224
0.19611	22.0326
0.197242	21.9432
0.198381	21.854
0.199526	21.7652
0.200678	21.6766
0.201837	21.5884
0.203002	21.5005
0.204174	21.4129
0.205353	21.3256
0.206538	21.2387
0.20773	21.152
0.20893	21.0656
0.210136	20.9795
0.211349	20.8938
0.212569	20.8083
0.213796	20.7232
0.21503	20.6383
0.216272	20.5538
0.21752	20.4695
0.218776	20.3855
0.220039	20.3019
0.221309	20.2185
0.222587	20.1354
0.223872	20.0527
0.225165	19.9702
0.226464	19.888
0.227772	19.8061
0.229087	19.7245
0.230409	19.6432
0.231739	19.5622
0.233077	19.4814
0.234423	19.401
0.235776	19.3208
0.237137	19.2409
0.238506	19.1613
0.239883	19.082
0.241268	19.003
0.242661	18.9243
0.244062	18.8458
0.245471	18.7677
0.246888	18.6898
0.248313	18.6121
0.249747	18.5348
0.251189	18.4577
0.252639	18.381
0.254097	18.3045
0.255564	18.2282
0.25704	18.1523
0.258523	18.0766
0.260016	18.0012
0.261517	17.9261
0.263027	17.8512
0.264545	17.7766
0.266073	17.7023
0.267609	17.6282
0.269153	17.5544
0.270707	17.4809
0.27227	17.4077
0.273842	17.3347
0.275423	17.262
0.277013	17.1895
0.278612	17.1173
0.280221	17.0454
0.281838	16.9737
0.283465	16.9023
0.285102	16.8312
0.286748	16.7603
0.288403	16.6897
0.290068	16.6194
0.291743	16.5492
0.293427	16.4794
0.295121	16.4098
0.296825	16.3405
0.298538	16.2699
0.300262	16.1986
0.301995	16.1275
0.303739	16.0568
0.305492	15.9863
0.307256	15.9162
0.30903	15.8463
0.310814	15.7781
0.312608	15.7089
0.314413	15.6399
0.316228	15.5712
0.318053	15.5028
0.31989	15.4346
0.321736	15.3668
0.323594	15.2992
0.325462	15.2319
0.327341	15.1649
0.32923	15.0982
0.331131	15.0317
0.333043	14.9685
0.334965	14.9026
0.336899	14.8369
0.338844	14.7715
0.3408	14.7064
0.342768	14.6416
0.344747	14.5771
0.346737	14.5128
0.348739	14.4487
0.350752	14.385
0.352777	14.3215
0.354813	14.2583
0.356862	14.1953
0.358922	14.1326
0.360994	14.0702
0.363078	14.008
0.365174	13.9461
0.367282	13.8844
0.369403	13.823
0.371535	13.7618
0.37368	13.6605
0.375837	13.5993
0.378007	13.542
0.380189	13.4813
0.382384	13.4208
0.384592	13.3606
0.386812	13.3007
0.389045	13.241
0.391291	13.1815
0.39355	13.1223
0.395822	13.0634
0.398107	13.0047
0.400405	12.9462
0.402717	12.888
0.405042	12.8301
0.40738	12.7724
0.409732	12.7149
0.412098	12.6577
0.414477	12.6007
0.416869	12.5439
0.419276	12.4874
0.421697	12.4311
0.424131	12.3751
0.42658	12.3193
0.429042	12.2637
0.431519	12.2084
0.43401	12.1533
0.436516	12.0984
0.439036	12.0438
0.44157	11.9894
0.44412	11.9464
0.446684	11.8923
0.449262	11.8386
0.451856	11.785
0.454465	11.7317
0.457088	11.6786
0.459727	11.6257
0.462381	11.5731
0.46505	11.5207
0.467735	11.4684
0.470435	11.4165
0.473151	11.3647
0.475883	11.3132
0.47863	11.2618
0.481393	11.2107
0.484172	11.1598
0.486968	11.1092
0.489779	11.0587
0.492606	11.0085
0.49545	10.9584
0.49831	10.9086
0.501187	10.859
0.504081	10.8096
0.506991	10.7604
0.509918	10.7114
0.512861	10.6627
0.515822	10.6141
0.5188	10.5658
0.521795	10.5176
0.524807	10.4708
0.527837	10.4247
0.530884	10.3787
0.533949	10.3329
0.537032	10.2873
0.540132	10.2419
0.54325	10.1966
0.546387	10.1516
0.549541	10.1067
0.552713	10.0619
0.555904	10.0174
0.559114	9.973
0.562341	9.9288
0.565588	9.88477
0.568853	9.84092
0.572137	9.79723
0.57544	9.75372
0.578762	9.71039
0.582103	9.66722
0.585464	9.62423
0.588844	9.58141
0.592243	9.53876
0.595662	9.49627
0.599101	9.45396
0.60256	9.41182
0.606038	9.36985
0.609537	9.32805
0.613056	9.28641
0.616595	9.24494
0.620155	9.20364
0.623735	9.16251
0.627336	9.12154
0.630957	9.08074
0.6346	9.04011
0.638263	8.99964
0.641948	8.95933
0.645654	8.91919
0.649382	8.87922
0.653131	8.83941
0.656901	8.79976
0.660693	8.76027
0.664508	8.72095
0.668344	8.6905
0.672202	8.65139
0.676083	8.61245
0.679986	8.57367
0.683912	8.53506
0.68786	8.4966
0.691831	8.4583
0.695825	8.42016
0.699842	8.38218
0.703882	8.34436
0.707946	8.30669
0.712033	8.26918
0.716143	8.23183
0.720278	8.19464
0.724436	8.1576
0.728618	8.12072
0.732825	8.08399
0.737055	8.04742
0.74131	8.011
0.74559	7.97473
0.749894	7.93862
0.754223	7.90265
0.758578	7.86685
0.762957	7.83119
0.767361	7.79568
0.771792	7.76032
0.776247	7.72512
0.780728	7.69006
0.785236	7.65515
0.789769	7.62039
0.794328	7.58578
0.798914	7.55131
0.803526	7.517
0.808165	7.48282
0.812831	7.4488
0.817523	7.41492
0.822243	7.38118
0.82699	7.34759
0.831764	7.31414
0.836566	7.28084
0.841395	7.24768
0.846253	7.21466
0.851138	7.18178
0.856052	7.14905
0.860994	7.11645
0.865964	7.084
0.870964	7.05168
0.875992	7.01951
0.881049	6.98747
0.886135	6.95557
0.891251	6.92381
0.896396	6.89219
0.901571	6.8607
0.906776	6.82935
0.912011	6.79814
0.917276	6.76706
0.922571	6.73612
0.927897	6.70531
0.933254	6.67463
0.938642	6.64409
0.944061	6.61368
0.949511	6.5834
0.954993	6.55325
0.960506	6.52324
0.966051	6.49335
0.971628	6.4636
0.977237	6.43398
0.982879	6.40448
0.988553	6.37512
0.99426	6.34588
1	6.31677
1.00577	6.28779
1.01158	6.25894
1.01742	6.23021
1.02329	6.20161
1.0292	6.17313
1.03514	6.14478
1.04112	6.11655
1.04713	6.08845
1.05317	6.06047
1.05925	6.03261
1.06537	6.00488
1.07152	5.97727
1.07771	5.94978
1.08393	5.92241
1.09018	5.89516
1.09648	5.86803
1.10281	5.84103
1.10917	5.81414
1.11558	5.79015
1.12202	5.76345
1.1285	5.73686
1.13501	5.7104
1.14156	5.68405
1.14815	5.65782
1.15478	5.6317
1.16145	5.6057
1.16815	5.57981
1.1749	5.55405
1.18168	5.52839
1.1885	5.50285
1.19536	5.47742
1.20226	5.45211
1.20921	5.42691
1.21619	5.40182
1.22321	5.37684
1.23027	5.35197
1.23737	5.32722
1.24451	5.30257
1.2517	5.27804
1.25893	5.25361
1.26619	5.22929
1.2735	5.20509
1.28086	5.18099
1.28825	5.157
1.29569	5.13311
1.30317	5.10933
1.31069	5.08566
1.31826	5.0621
1.32587	5.03864
1.33352	5.01528
1.34122	4.99203
1.34896	4.96889
1.35675	4.94585
1.36458	4.92291
1.37246	4.90008
1.38038	4.87734
1.38835	4.85471
1.39637	4.83219
1.40443	4.80976
1.41254	4.78743
1.42069	4.76521
1.42889	4.74308
1.43714	4.72106
1.44544	4.69913
1.45378	4.67731
1.46218	4.65558
1.47062	4.63395
1.47911	4.61242
1.48765	4.59098
1.49624	4.56964
1.50487	4.5484
1.51356	4.52726
1.5223	4.50621
1.53109	4.48525
1.53993	4.46439
1.54882	4.44363
1.55776	4.42296
1.56675	4.40238
1.5758	4.38353
1.58489	4.36311
1.59404	4.34279
1.60325	4.32255
1.6125	4.30241
1.62181	4.28237
1.63117	4.26241
1.64059	4.24254
1.65006	4.22277
1.65959	4.20308
1.66917	4.18349
1.6788	4.16398
1.6885	4.14456
1.69824	4.12523
1.70805	4.10599
1.71791	4.08684
1.72783	4.06777
1.7378	4.0488
1.74783	4.0299
1.75792	4.0111
1.76807	3.99238
1.77828	3.97375
1.78855	3.9552
1.79887	3.93674
1.80926	3.91836
1.8197	3.90007
1.83021	3.88186
1.84077	3.86373
1.8514	3.84569
1.86209	3.82772
1.87284	3.80985
1.88365	3.79205
1.89452	3.77434
1.90546	3.7567
1.91646	3.73915
1.92752	3.72168
1.93865	3.70429
1.94984	3.68698
1.9611	3.66975
1.97242	3.6526
1.98381	3.63553
1.99526	3.61853
2.00678	3.60162
2.01837	3.58478
2.03002	3.56802
2.04174	3.55134
2.05353	3.53474
2.06538	3.51821
2.0773	3.50176
2.0893	3.48538
2.10136	3.46908
2.11349	3.45286
2.12569	3.43671
2.13796	3.42063
2.1503	3.40463
2.16272	3.3887
2.1752	3.37285
2.18776	3.35707
2.20039	3.34137
2.21309	3.32573
2.22587	3.31017
2.23872	3.29469
2.25165	3.27927
2.26464	3.26393
2.27772	3.24866
2.29087	3.23347
2.30409	3.21834
2.31739	3.20328
2.33077	3.1883
2.34423	3.17338
2.35776	3.15853
2.37137	3.14376
2.38506	3.12905
2.39883	3.1144
2.41268	3.09983
2.42661	3.08533
2.44062	3.07089
2.45471	3.05652
2.46888	3.04221
2.48313	3.02797
2.49747	3.0138
2.51189	2.9997
2.52639	2.98566
2.54097	2.97168
2.55564	2.95777
2.5704	2.94393
2.58523	2.93015
2.60016	2.91643
2.61517	2.90278
2.63027	2.88919
2.64545	2.87567
2.66073	2.86221
2.67609	2.84881
2.69153	2.83547
2.70707	2.8222
2.7227	2.80899
2.73842	2.79584
2.75423	2.78275
2.77013	2.76972
2.78612	2.75676
2.80221	2.74385
2.81838	2.731
2.83465	2.71822
2.85102	2.70549
2.86748	2.69283
2.88403	2.68022
2.90068	2.66768
2.91743	2.65519
2.93427	2.64276
2.95121	2.63039
2.96825	2.61807
2.98538	2.60582
3.00262	2.59362
3.01995	2.58148
3.03739	2.5694
3.05492	2.55737
3.07256	2.5454
3.0903	2.53348
3.10814	2.52163
3.12608	2.50982
3.14413	2.49808
3.16228	2.48639
3.18053	2.47475
3.1989	2.46317
3.21736	2.45164
3.23594	2.44017
3.25462	2.42875
3.27341	2.41739
3.2923	2.40608
3.31131	2.39482
3.33043	2.38361
3.34965	2.37246
3.36899	2.36136
3.38844	2.35032
3.408	2.33932
3.42768	2.32838
3.44747	2.31749
3.46737	2.30665
3.48739	2.29586
3.50752	2.28513
3.52777	2.27444
3.54813	2.26381
3.56862	2.25322
3.58922	2.24269
3.60994	2.2322
3.63078	2.22177
3.65174	2.21138
3.67282	2.20105
3.69403	2.19076
3.71535	2.18052
3.7368	2.17033
3.75837	2.16019
3.78007	2.1501
3.80189	2.14005
3.82384	2.13005
3.84592	2.1201
3.86812	2.1102
3.89045	2.10034
3.91291	2.09054
3.9355	2.08077
3.95822	2.07106
3.98107	2.06139
4.00405	2.05177
4.02717	2.04219
4.05042	2.03266
4.0738	2.02317
4.09732	2.01373
4.12098	2.00433
4.14477	1.99498
4.16869	1.98567
4.19276	1.97641
4.21697	1.96719
4.24131	1.95802
4.2658	1.94889
4.29042	1.9398
4.31519	1.93076
4.3401	1.92176
4.36516	1.9128
4.39036	1.90389
4.4157	1.89502
4.4412	1.88619
4.46684	1.8774
4.49262	1.86866
4.51856	1.85996
4.54465	1.8513
4.57088	1.84268
4.59727	1.8341
4.62381	1.82556
4.6505	1.81707
4.67735	1.80861
4.70435	1.8002
4.73151	1.79182
4.75883	1.78349
4.7863	1.77519
4.81393	1.76694
4.84172	1.75872
4.86968	1.75055
4.89779	1.74241
4.92606	1.73432
4.9545	1.72626
4.9831	1.71824
5.01187	1.71026
5.04081	1.70232
5.06991	1.69441
5.09918	1.68655
5.12861	1.67872
5.15822	1.67093
5.188	1.66318
5.21795	1.65546
5.24807	1.64779
5.27837	1.64015
5.30884	1.63254
5.33949	1.62497
5.37032	1.61744
5.40132	1.60995
5.4325	1.60249
5.46387	1.59507
5.49541	1.58768
5.52713	1.58033
5.55904	1.57302
5.59114	1.56574
5.62341	1.55849
5.65588	1.55128
5.68853	1.54411
5.72137	1.53697
5.7544	1.52987
5.78762	1.52279
5.82103	1.51576
5.85464	1.50876
5.88844	1.50179
5.92243	1.49485
5.95662	1.48795
5.99101	1.48108
6.0256	1.47425
6.06038	1.46745
6.09537	1.46068
6.13056	1.45395
6.16595	1.44724
6.20155	1.44057
6.23735	1.43394
6.27336	1.42733
6.30957	1.42076
6.346	1.41422
6.38263	1.40771
6.41948	1.40123
6.45654	1.39479
6.49382	1.38837
6.53131	1.38199
6.56901	1.37564
6.60693	1.36931
6.64508	1.36302
6.68344	1.35676
6.72202	1.35053
6.76083	1.34434
6.79986	1.33817
6.83912	1.33203
6.8786	1.32592
6.91831	1.31984
6.95825	1.31379
6.99842	1.30777
7.03882	1.30178
7.07946	1.29582
7.12033	1.28989
7.16143	1.28399
7.20278	1.27811
7.24436	1.27227
7.28618	1.26645
7.32825	1.26067
7.37055	1.25491
7.4131	1.24918
7.4559	1.24347
7.49894	1.2378
7.54223	1.23215
7.58578	1.22653
7.62957	1.22094
7.67361	1.21537
7.71792	1.20984
7.76247	1.20433
7.80728	1.19884
7.85236	1.19339
7.89769	1.18796
7.94328	1.18255
7.98914	1.17718
8.03526	1.17183
8.08165	1.16651
8.12831	1.16121
8.17523	1.15594
8.22243	1.15069
8.2699	1.14547
8.31764	1.14028
8.36566	1.13511
8.41395	1.12997
8.46253	1.12485
8.51138	1.11976
8.56052	1.11469
8.60994	1.10965
8.65964	1.10463
8.70964	1.09964
8.75992	1.09467
8.81049	1.08973
8.86135	1.08481
8.91251	1.07992
8.96396	1.07505
9.01571	1.0702
9.06776	1.06538
9.12011	1.06058
9.17276	1.05581
9.22571	1.05106
9.27897	1.04633
9.33254	1.04163
9.38642	1.03694
9.44061	1.03229
9.49511	1.02765
9.54993	1.02304
9.60506	1.01845
9.66051	1.01389
9.71628	1.00935
9.77237	1.00482
9.82879	1.00033
9.88553	0.995851
9.9426	0.991398
10	0.986966
10.0577	0.982557
10.1158	0.97817
10.1742	0.973804
10.2329	0.969461
10.292	0.965138
10.3514	0.960838
10.4112	0.956559
10.4713	0.952301
10.5317	0.948064
10.5925	0.943849
10.6537	0.939654
10.7152	0.93548
10.7771	0.931328
10.8393	0.927196
10.9018	0.923084
10.9648	0.918993
11.0281	0.914923
11.0917	0.910873
11.1558	0.906843
11.2202	0.902833
11.285	0.898843
11.3501	0.894874
11.4156	0.890924
11.4815	0.886994
11.5478	0.883083
11.6145	0.879193
11.6815	0.875321
11.749	0.871469
11.8168	0.867637
11.885	0.863823
11.9536	0.860029
12.0226	0.856254
12.0921	0.852497
12.1619	0.84876
12.2321	0.845041
12.3027	0.841341
12.3737	0.83766
12.4451	0.833997
12.517	0.830353
12.5893	0.826727
12.6619	0.823119
12.735	0.819529
12.8086	0.815957
12.8825	0.812404
12.9569	0.808868
13.0317	0.80535
13.1069	0.80185
13.1826	0.798367
13.2587	0.794902
13.3352	0.791455
13.4122	0.788025
13.4896	0.784612
13.5675	0.781217
13.6458	0.777838
13.7246	0.774477
13.8038	0.771133
13.8835	0.767805
13.9637	0.764495
14.0443	0.761201
14.1254	0.757924
14.2069	0.754663
14.2889	0.751419
14.3714	0.748192
14.4544	0.744981
14.5378	0.741786
14.6218	0.738607
14.7062	0.735445
14.7911	0.732298
14.8765	0.729168
14.9624	0.726053
15.0487	0.722954
15.1356	0.719871
15.223	0.716804
15.3109	0.713752
15.3993	0.710716
15.4882	0.707696
15.5776	0.70469
15.6675	0.7017
15.758	0.698726
15.8489	0.695766
15.9404	0.692821
16.0325	0.689892
16.125	0.686977
16.2181	0.684078
16.3117	0.681193
16.4059	0.678323
16.5006	0.675468
16.5959	0.672627
16.6917	0.669801
16.788	0.666989
16.885	0.664191
16.9824	0.661408
17.0805	0.65864
17.1791	0.655885
17.2783	0.653144
17.378	0.650418
17.4783	0.647706
17.5792	0.645007
17.6807	0.642323
17.7828	0.639652
17.8855	0.636995
17.9887	0.634351
18.0926	0.631721
18.197	0.629105
18.3021	0.626502
18.4077	0.623913
18.514	0.621337
18.6209	0.618774
18.7284	0.616224
18.8365	0.613688
18.9452	0.611165
19.0546	0.608654
19.1646	0.606157
19.2752	0.603673
19.3865	0.601201
19.4984	0.598742
19.611	0.596296
19.7242	0.593863
19.8381	0.591442
19.9526	0.589034
20.0678	0.586638
20.1837	0.584255
20.3002	0.581884
20.4174	0.579525
20.5353	0.577179
20.6538	0.574844
20.773	0.572522
20.893	0.570212
21.0136	0.567914
21.1349	0.565628
21.2569	0.563354
21.3796	0.561092
21.503	0.558841
21.6272	0.556603
21.752	0.554376
21.8776	0.55216
22.0039	0.549956
22.1309	0.547764
22.2587	0.545583
22.3872	0.543414
22.5165	0.541256
22.6464	0.539109
22.7772	0.536973
22.9087	0.534849
23.0409	0.532736
23.1739	0.530633
23.3077	0.528542
23.4423	0.526462
23.5776	0.524393
23.7137	0.522335
23.8506	0.520287
23.9883	0.51825
24.1268	0.516224
24.2661	0.514209
24.4062	0.512204
24.5471	0.51021
24.6888	0.508226
24.8313	0.506253
24.9747	0.504291
25.1189	0.502338
25.2639	0.500396
25.4097	0.498464
25.5564	0.496543
25.704	0.494632
25.8523	0.49273
26.0016	0.490839
26.1517	0.488958
26.3027	0.487087
26.4545	0.485226
26.6073	0.483374
26.7609	0.481533
26.9153	0.479701
27.0707	0.477879
27.227	0.476067
27.3842	0.474265
27.5423	0.472472
27.7013	0.470688
27.8612	0.468915
28.0221	0.46715
28.1838	0.465395
28.3465	0.46365
28.5102	0.461913
28.6748	0.460187
28.8403	0.458469
29.0068	0.456761
29.1743	0.455061
29.3427	0.453371
29.5121	0.45169
29.6825	0.450018
29.8538	0.448355
30.0262	0.446701
30.1995	0.445056
30.3739	0.443419
30.5492	0.441792
30.7256	0.440173
30.903	0.438563
31.0814	0.436962
31.2608	0.43537
31.4413	0.433786
31.6228	0.43221
31.8053	0.430643
31.989	0.429085
32.1736	0.427535
32.3594	0.425994
32.5462	0.424461
32.7341	0.422936
32.923	0.421419
33.1131	0.419911
33.3043	0.418411
33.4965	0.41692
33.6899	0.415436
33.8844	0.41396
34.08	0.412493
34.2768	0.411033
34.4747	0.409582
34.6737	0.408139
34.8739	0.406703
35.0752	0.405275
35.2777	0.403855
35.4813	0.402443
35.6862	0.401039
35.8922	0.399643
36.0994	0.398254
36.3078	0.396873
36.5174	0.395499
36.7282	0.394133
36.9403	0.392775
37.1535	0.391424
37.368	0.39008
37.5837	0.388744
37.8007	0.387416
38.0189	0.386094
38.2384	0.384781
38.4592	0.383474
38.6812	0.382175
38.9045	0.380883
39.1291	0.379598
39.355	0.37832
39.5822	0.37705
39.8107	0.375786
40.0405	0.37453
40.2717	0.373281
40.5042	0.372038
40.738	0.370803
40.9732	0.369575
41.2098	0.368353
41.4477	0.367138
41.6869	0.365931
41.9276	0.36473
42.1697	0.363535
42.4131	0.362348
42.658	0.361167
42.9042	0.359993
43.1519	0.358826
43.401	0.357665
43.6516	0.356511
43.9036	0.355363
44.157	0.354222
44.412	0.353087
44.6684	0.351959
44.9262	0.350838
45.1856	0.349722
45.4465	0.348613
45.7088	0.347511
45.9727	0.346414
46.2381	0.345325
46.505	0.344241
46.7735	0.343163
47.0435	0.342092
47.3151	0.341027
47.5883	0.339968
47.863	0.338915
48.1393	0.337868
48.4172	0.336828
48.6968	0.335793
48.9779	0.334764
49.2606	0.333742
49.545	0.332725
49.831	0.331714
50.1187	0.330709
50.4081	0.32971
50.6991	0.328717
50.9918	0.327729
51.2861	0.326747
51.5822	0.325772
51.88	0.324801
52.1795	0.323837
52.4807	0.322878
52.7837	0.321925
53.0884	0.320977
53.3949	0.320035
53.7032	0.319099
54.0132	0.318168
54.325	0.317243
54.6387	0.316323
54.9541	0.315409
55.2713	0.3145
55.5904	0.313596
55.9114	0.312698
56.2341	0.311806
56.5588	0.310918
56.8853	0.310036
57.2137	0.309159
57.544	0.308288
57.8762	0.307422
58.2103	0.306561
58.5464	0.305705
58.8844	0.304854
59.2243	0.304009
59.5662	0.303168
59.9101	0.302333
60.256	0.301503
60.6038	0.300677
60.9537	0.299857
61.3056	0.299042
61.6595	0.298232
62.0155	0.297427
62.3735	0.296627
62.7336	0.295831
63.0957	0.295041
63.46	0.294255
63.8263	0.293475
64.1948	0.292699
64.5654	0.291928
64.9382	0.291161
65.3131	0.2904
65.6901	0.289643
66.0693	0.288891
66.4508	0.288144
66.8344	0.287401
67.2202	0.286663
67.6083	0.28593
67.9986	0.285201
68.3912	0.284477
68.786	0.283757
69.1831	0.283042
69.5825	0.282331
69.9842	0.281625
70.3882	0.280924
70.7946	0.280227
71.2033	0.279534
71.6143	0.278846
72.0278	0.278162
72.4436	0.277482
72.8618	0.276807
73.2825	0.276136
73.7055	0.27547
74.131	0.274808
74.559	0.27415
74.9894	0.273497
75.4223	0.272847
75.8578	0.272202
76.2957	0.271561
76.7361	0.270925
77.1792	0.270292
77.6247	0.269664
78.0728	0.269039
78.5236	0.268419
78.9769	0.267803
79.4328	0.267191
79.8914	0.266583
80.3526	0.265979
80.8165	0.26538
81.2831	0.264784
81.7523	0.264192
82.2243	0.263604
82.699	0.26302
83.1764	0.26244
83.6566	0.261864
84.1395	0.261292
84.6253	0.260723
85.1138	0.260159
85.6052	0.259598
86.0994	0.259041
86.5964	0.258488
87.0964	0.257939
87.5992	0.257394
88.1049	0.256852
88.6135	0.256314
89.1251	0.25578
89.6396	0.255249
90.1571	0.254723
90.6776	0.254199
91.2011	0.25368
91.7276	0.253164
92.2571	0.252652
92.7897	0.252143
93.3254	0.251638
93.8642	0.251137
94.4061	0.250639
94.9511	0.250144
95.4993	0.249654
96.0506	0.249166
96.6051	0.248682
97.1628	0.248202
97.7237	0.247725
98.2879	0.247252
98.8553	0.246782
99.426	0.246315
100	0.245852
100.577	0.245392
101.158	0.244935
101.742	0.244482
102.329	0.244033
102.92	0.243586
103.514	0.243143
104.112	0.242703
104.713	0.242267
105.317	0.241833
105.925	0.241403
106.537	0.240976
107.152	0.240553
107.771	0.240132
108.393	0.239715
109.018	0.239301
109.648	0.23889
110.281	0.238483
110.917	0.238078
111.558	0.237677
112.202	0.237278
112.85	0.236883
113.501	0.236491
114.156	0.236102
114.815	0.235716
115.478	0.235333
116.145	0.234953
116.815	0.234576
117.49	0.234202
118.168	0.233831
118.85	0.233463
119.536	0.233098
120.226	0.232736
120.921	0.232376
121.619	0.23202
122.321	0.231667
123.027	0.231316
123.737	0.230969
124.451	0.230624
125.17	0.230282
125.893	0.229943
126.619	0.229607
127.35	0.229273
128.086	0.228943
128.825	0.228615
129.569	0.22829
130.317	0.227967
131.069	0.227648
131.826	0.227331
132.587	0.227017
133.352	0.226706
134.122	0.226397
134.896	0.226091
135.675	0.225788
136.458	0.225487
137.246	0.225189
138.038	0.224894
138.835	0.224596
139.637	0.224294
140.443	0.223996
141.254	0.223699
142.069	0.223406
142.889	0.223114
143.714	0.222825
144.544	0.222539
145.378	0.222255
146.218	0.221973
147.062	0.221694
147.911	0.221417
148.765	0.221143
149.624	0.220871
150.487	0.220601
151.356	0.220334
152.23	0.220069
153.109	0.219806
153.993	0.219546
154.882	0.219288
155.776	0.219032
156.675	0.218779
157.58	0.218528
158.489	0.218279
159.404	0.218032
160.325	0.217787
161.25	0.217545
162.181	0.217305
163.117	0.217067
164.059	0.216832
165.006	0.216598
165.959	0.216367
166.917	0.216138
167.88	0.215911
168.85	0.215686
169.824	0.215464
170.805	0.215243
171.791	0.215025
172.783	0.214808
173.78	0.214594
174.783	0.214382
175.792	0.214172
176.807	0.213964
177.828	0.213758
178.855	0.213554
179.887	0.213352
180.926	0.213152
181.97	0.212955
183.021	0.212759
184.077	0.212565
185.14	0.212373
186.209	0.212183
187.284	0.211995
188.365	0.211809
189.452	0.211625
190.546	0.211443
191.646	0.211263
192.752	0.211085
193.865	0.210908
194.984	0.210734
196.11	0.210561
197.242	0.210391
198.381	0.210222
199.526	0.210055
200.678	0.20989
201.837	0.209726
203.002	0.209565
204.174	0.209405
205.353	0.209248
206.538	0.209092
207.73	0.208937
208.93	0.208785
210.136	0.208634
211.349	0.208485
212.569	0.208338
213.796	0.208193
215.03	0.208049
216.272	0.207907
217.52	0.207767
218.776	0.207628
220.039	0.207492
221.309	0.207356
222.587	0.207223
223.872	0.207091
225.165	0.206961
226.464	0.206833
227.772	0.206706
229.087	0.206581
230.409	0.206457
231.739	0.206336
233.077	0.206215
234.423	0.206097
235.776	0.20598
237.137	0.205864
238.506	0.20575
239.883	0.205638
241.268	0.205527
242.661	0.205418
244.062	0.20531
245.471	0.205204
246.888	0.2051
248.313	0.204997
249.747	0.204895
251.189	0.204795
252.639	0.204696
254.097	0.204599
255.564	0.204504
257.04	0.20441
258.523	0.204317
260.016	0.204226
261.517	0.204136
263.027	0.204048
264.545	0.203961
266.073	0.203876
267.609	0.203792
269.153	0.203709
270.707	0.203628
272.27	0.203548
273.842	0.20347
275.423	0.203393
277.013	0.203317
278.612	0.203243
280.221	0.20317
281.838	0.203098
283.465	0.203028
285.102	0.202959
286.748	0.202891
288.403	0.202825
290.068	0.20276
291.743	0.202696
293.427	0.202634
295.121	0.202573
296.825	0.202513
298.538	0.202454
300.262	0.202397
301.995	0.202341
303.739	0.202286
305.492	0.202233
307.256	0.202181
309.03	0.20213
310.814	0.20208
312.608	0.202031
314.413	0.201984
316.228	0.201937
318.053	0.201892
319.89	0.201848
321.736	0.201806
323.594	0.201764
325.462	0.201724
327.341	0.201685
329.23	0.201647
331.131	0.20161
333.043	0.201574
334.965	0.201539
336.899	0.201506
338.844	0.201474
340.8	0.201442
342.768	0.201412
344.747	0.201383
346.737	0.201355
348.739	0.201328
350.752	0.201302
352.777	0.201277
354.813	0.201254
356.862	0.201231
358.922	0.201209
360.994	0.201189
363.078	0.201169
365.174	0.201151
367.282	0.201133
369.403	0.201117
371.535	0.201101
373.68	0.201087
375.837	0.201074
378.007	0.201061
380.189	0.20105
382.384	0.201039
384.592	0.201029
386.812	0.201021
389.045	0.201013
391.291	0.201007
393.55	0.201001
395.822	0.200996
398.107	0.200992
400.405	0.200989
402.717	0.200987
405.042	0.200986
407.38	0.200986
409.732	0.200987
412.098	0.200988
414.477	0.200991
416.869	0.200994
419.276	0.200998
421.697	0.201004
424.131	0.20101
426.58	0.201016
429.042	0.201024
431.519	0.201033
434.01	0.201042
436.516	0.201052
439.036	0.201063
441.57	0.201075
444.12	0.201088
446.684	0.201102
449.262	0.201116
451.856	0.201131
454.465	0.201147
457.088	0.201164
459.727	0.201181
462.381	0.2012
465.05	0.201219
467.735	0.201239
470.435	0.201259
473.151	0.201281
475.883	0.201303
478.63	0.201326
481.393	0.201349
484.172	0.201373
486.968	0.201399
489.779	0.201424
492.606	0.201451
495.45	0.201478
498.31	0.201506
501.187	0.201535
504.081	0.201564
506.991	0.201594
509.918	0.201625
512.861	0.201656
515.822	0.201688
518.8	0.201721
521.795	0.201755
524.807	0.201789
527.837	0.201824
530.884	0.201859
533.949	0.201895
537.032	0.201932
540.132	0.201969
543.25	0.202007
546.387	0.202046
549.541	0.202085
552.713	0.202125
555.904	0.202165
559.114	0.202206
562.341	0.202248
565.588	0.20229
568.853	0.202333
572.137	0.202377
575.44	0.202421
578.762	0.202466
582.103	0.202511
585.464	0.202557
588.844	0.202603
592.243	0.20265
595.662	0.202697
599.101	0.202745
602.56	0.202794
606.038	0.202843
609.537	0.202893
613.056	0.202943
616.595	0.202994
620.155	0.203045
623.735	0.203097
627.336	0.203149
630.957	0.203202
634.6	0.203255
638.263	0.203309
641.948	0.203364
645.654	0.203419
649.382	0.203474
653.131	0.20353
656.901	0.203586
660.693	0.203643
664.508	0.2037
668.344	0.203758
672.202	0.203816
676.083	0.203875
679.986	0.203934
683.912	0.203993
687.86	0.204054
691.831	0.204114
695.825	0.204175
699.842	0.204236
703.882	0.204298
707.946	0.20436
712.033	0.204423
716.143	0.204486
720.278	0.20455
724.436	0.204614
728.618	0.204678
732.825	0.204743
737.055	0.204808
741.31	0.204874
745.59	0.20494
749.894	0.205006
754.223	0.205073
758.578	0.20514
762.957	0.205207
767.361	0.205275
771.792	0.205344
776.247	0.205412
780.728	0.205481
785.236	0.205551
789.769	0.20562
794.328	0.205691
798.914	0.205761
803.526	0.205832
808.165	0.205903
812.831	0.205975
817.523	0.206046
822.243	0.206119
826.99	0.206191
831.764	0.206264
836.566	0.206337
841.395	0.206411
846.253	0.206485
851.138	0.206559
856.052	0.206633
860.994	0.206708
865.964	0.206783
870.964	0.206859
875.992	0.206934
881.049	0.20701
886.135	0.207087
891.251	0.207163
896.396	0.20724
901.571	0.207317
906.776	0.207395
912.011	0.207472
917.276	0.20755
922.571	0.207629
927.897	0.207707
933.254	0.207786
938.642	0.207865
944.061	0.207945
949.511	0.208024
954.993	0.208104
960.506	0.208184
966.051	0.208265
971.628	0.208345
977.237	0.208426
982.879	0.208507
988.553	0.208589
994.26	0.20867
1000	0.208752
1005.77	0.208834
1011.58	0.208917
1017.42	0.208999
1023.29	0.209082
1029.2	0.209165
1035.14	0.209248
1041.12	0.209332
1047.13	0.209415
1053.17	0.209499
1059.25	0.209583
1065.37	0.209668
1071.52	0.209752
1077.71	0.209837
1083.93	0.209922
1090.18	0.210007
1096.48	0.210092
1102.81	0.210177
1109.17	0.210263
1115.58	0.210349
1122.02	0.210435
1128.5	0.210521
1135.01	0.210608
1141.56	0.210694
1148.15	0.210781
1154.78	0.210868
1161.45	0.210955
1168.15	0.211042
1174.9	0.21113
1181.68	0.211217
1188.5	0.211305
1195.36	0.211393
1202.26	0.211481
1209.21	0.211569
1216.19	0.211657
1223.21	0.211746
1230.27	0.211835
1237.37	0.211924
1244.51	0.212012
1251.7	0.212102
1258.93	0.212191
1266.19	0.21228
1273.5	0.21237
1280.86	0.212459
1288.25	0.212549
1295.69	0.212639
1303.17	0.212729
1310.69	0.212819
1318.26	0.21291
1325.87	0.213
1333.52	0.213091
1341.22	0.213181
1348.96	0.213272
1356.75	0.213363
1364.58	0.213454
1372.46	0.213545
1380.38	0.213636
1388.35	0.213728
1396.37	0.213819
1404.43	0.213911
1412.54	0.214003
1420.69	0.214094
1428.89	0.214186
1437.14	0.214278
1445.44	0.21437
1453.78	0.214462
1462.18	0.214555
1470.62	0.214647
1479.11	0.214739
1487.65	0.214832
1496.24	0.214924
1504.87	0.215017
1513.56	0.21511
1522.3	0.215203
1531.09	0.215296
1539.93	0.215389
1548.82	0.215482
1557.76	0.215575
1566.75	0.215668
1575.8	0.215761
1584.89	0.215855
1594.04	0.215948
1603.25	0.216042
1612.5	0.216135
1621.81	0.216229
1631.17	0.216323
1640.59	0.216416
1650.06	0.21651
1659.59	0.216604
1669.17	0.216698
1678.8	0.216792
1688.5	0.216886
1698.24	0.21698
1708.05	0.217074
1717.91	0.217168
1727.83	0.217263
1737.8	0.217357
1747.83	0.217451
1757.92	0.217546
1768.07	0.21764
1778.28	0.217734
1788.55	0.217829
1798.87	0.217924
1809.26	0.218018
1819.7	0.218113
1830.21	0.218207
1840.77	0.218302
1851.4	0.218397
1862.09	0.218492
1872.84	0.218586
1883.65	0.218681
1894.52	0.218776
1905.46	0.218871
1916.46	0.218966
1927.52	0.219061
1938.65	0.219156
1949.84	0.219251
1961.1	0.219346
1972.42	0.219441
1983.81	0.219536
1995.26	0.219631
2006.78	0.219726
2018.37	0.219821
2030.02	0.219916
2041.74	0.220011
2053.53	0.220106
2065.38	0.220201
2077.3	0.220296
2089.3	0.220392
2101.36	0.220487
2113.49	0.220582
2125.69	0.220677
2137.96	0.220772
2150.3	0.220867
2162.72	0.220963
2175.2	0.221058
2187.76	0.221153
2200.39	0.221248
2213.09	0.221343
2225.87	0.221439
2238.72	0.221534
2251.65	0.221629
2264.64	0.221724
2277.72	0.221819
2290.87	0.221915
2304.09	0.22201
2317.39	0.222105
2330.77	0.2222
2344.23	0.222295
2357.76	0.22239
2371.37	0.222486
2385.06	0.222581
2398.83	0.222676
2412.68	0.222771
2426.61	0.222866
2440.62	0.222961
2454.71	0.223056
2468.88	0.223151
2483.13	0.223246
2497.47	0.223341
2511.89	0.223436
2526.39	0.223531
2540.97	0.223626
2555.64	0.223721
2570.4	0.223816
2585.23	0.223911
2600.16	0.224006
2615.17	0.224101
2630.27	0.224195
2645.45	0.22429
2660.73	0.224385
2676.09	0.22448
2691.53	0.224574
2707.07	0.224669
2722.7	0.224764
2738.42	0.224858
2754.23	0.224953
2770.13	0.225048
2786.12	0.225142
2802.21	0.225237
2818.38	0.225331
2834.65	0.225425
2851.02	0.22552
2867.48	0.225614
2884.03	0.225709
2900.68	0.225803
2917.43	0.225897
2934.27	0.225991
2951.21	0.226086
2968.25	0.22618
2985.38	0.226274
3002.62	0.226368
3019.95	0.226462
3037.39	0.226556
3054.92	0.22665
3072.56	0.226744
3090.3	0.226838
3108.14	0.226932
3126.08	0.227026
3144.13	0.227119
3162.28	0.227213
3180.53	0.227307
3198.9	0.2274
3217.36	0.227494
3235.94	0.227588
3254.62	0.227681
3273.41	0.227775
3292.3	0.227868
3311.31	0.227961
3330.43	0.228055
3349.65	0.228148
3368.99	0.228241
3388.44	0.228334
3408	0.228427
3427.68	0.228521
3447.47	0.228614
3467.37	0.228707
3487.39	0.228799
3507.52	0.228892
3527.77	0.228985
3548.13	0.229078
3568.62	0.229171
3589.22	0.229263
3609.94	0.229356
3630.78	0.229448
3651.74	0.229541
3672.82	0.229633
3694.03	0.229726
3715.35	0.229818
3736.8	0.22991
3758.37	0.230003
3780.07	0.230095
3801.89	0.230187
3823.84	0.230279
3845.92	0.230371
3868.12	0.230463
3890.45	0.230555
3912.91	0.230647
3935.5	0.230739
3958.22	0.23083
3981.07	0.230922
4004.05	0.231013
4027.17	0.231105
4050.42	0.231196
4073.8	0.231288
4097.32	0.231379
4120.98	0.231471
4144.77	0.231562
4168.69	0.231653
4192.76	0.231744
4216.97	0.231835
4241.31	0.231926
4265.8	0.232017
4290.42	0.232108
4315.19	0.232199
4340.1	0.232289
4365.16	0.23238
4390.36	0.232471
4415.7	0.232561
4441.2	0.232652
4466.84	0.232742
4492.62	0.232833
4518.56	0.232923
4544.65	0.233013
4570.88	0.233103
4597.27	0.233193
4623.81	0.233283
4650.5	0.233373
4677.35	0.233463
4704.35	0.233553
4731.51	0.233643
4758.83	0.233732
4786.3	0.233822
4813.93	0.233912
4841.72	0.234001
4869.68	0.234091
4897.79	0.23418
4926.06	0.234269
4954.5	0.234358
4983.1	0.234448
5011.87	0.234537
5040.81	0.234626
5069.91	0.234715
5099.18	0.234803
5128.61	0.234892
5158.22	0.234981
5188	0.23507
5217.95	0.235158
5248.07	0.235247
5278.37	0.235335
5308.84	0.235424
5339.49	0.235512
5370.32	0.2356
5401.32	0.235688
5432.5	0.235776
5463.87	0.235864
5495.41	0.235952
5527.13	0.23604
5559.04	0.236128
5591.14	0.236216
5623.41	0.236304
5655.88	0.236391
5688.53	0.236479
5721.37	0.236566
5754.4	0.236653
5787.62	0.236741
5821.03	0.236828
5854.64	0.236915
5888.44	0.237002
5922.43	0.237089
5956.62	0.237176
5991.01	0.237263
6025.6	0.23735
6060.38	0.237437
6095.37	0.237523
6130.56	0.23761
6165.95	0.237696
6201.55	0.237783
6237.35	0.237869
6273.36	0.237955
6309.57	0.238042
6346	0.238128
6382.63	0.238214
6419.48	0.2383
6456.54	0.238386
6493.82	0.238472
6531.31	0.238557
6569.01	0.238643
6606.93	0.238729
6645.08	0.238814
6683.44	0.2389
6722.02	0.238985
6760.83	0.239071
6799.86	0.239156
6839.12	0.239241
6878.6	0.239326
6918.31	0.239411
6958.25	0.239496
6998.42	0.239581
7038.82	0.239666
7079.46	0.23975
7120.33	0.239835
7161.43	0.23992
7202.78	0.240004
7244.36	0.240089
7286.18	0.240173
7328.25	0.240257
7370.55	0.240341
7413.1	0.240426
7455.9	0.24051
7498.94	0.240594
7542.23	0.240678
7585.78	0.240761
7629.57	0.240845
7673.61	0.240929
7717.92	0.241012
7762.47	0.241096
7807.28	0.241179
7852.36	0.241263
7897.69	0.241346
7943.28	0.241429
7989.14	0.241512
8035.26	0.241596
8081.65	0.241679
8128.31	0.241762
8175.23	0.241844
8222.43	0.241927
8269.9	0.24201
8317.64	0.242093
8365.66	0.242175
8413.95	0.242258
8462.53	0.24234
8511.38	0.242422
8560.52	0.242505
8609.94	0.242587
8659.64	0.242669
8709.64	0.242751
8759.92	0.242833
8810.49	0.242915
8861.35	0.242997
8912.51	0.243078
8963.96	0.24316
9015.71	0.243242
9067.76	0.243323
9120.11	0.243405
9172.76	0.243486
9225.71	0.243567
9278.97	0.243648
9332.54	0.24373
9386.42	0.243811
9440.61	0.243892
9495.11	0.243973
9549.93	0.244053
9605.06	0.244134
9660.51	0.244215
9716.28	0.244296
9772.37	0.244376
9828.79	0.244457
9885.53	0.244537
9942.6	0.244617
10000	0.244698
10057.7	0.244778
10115.8	0.244858
10174.2	0.244938
10232.9	0.245018
10292	0.245098
10351.4	0.245178
10411.2	0.245258
10471.3	0.245337
10531.7	0.245417
10592.5	0.245496
10653.7	0.245576
10715.2	0.245655
10777.1	0.245735
10839.3	0.245814
10901.8	0.245893
10964.8	0.245972
11028.1	0.246051
11091.7	0.24613
11155.8	0.246209
11220.2	0.246288
11285	0.246367
11350.1	0.246446
11415.6	0.246524
11481.5	0.246603
11547.8	0.246681
11614.5	0.24676
11681.5	0.246838
11749	0.246916
11816.8	0.246995
11885	0.247073
11953.6	0.247151
12022.6	0.247229
12092.1	0.247307
12161.9	0.247385
12232.1	0.247462
12302.7	0.24754
12373.7	0.247618
12445.1	0.247695
12517	0.247773
12589.3	0.24785
12661.9	0.247928
12735	0.248005
12808.6	0.248082
12882.5	0.248159
12956.9	0.248237
13031.7	0.248314
13106.9	0.248391
13182.6	0.248468
13258.7	0.248544
13335.2	0.248621
13412.2	0.248698
13489.6	0.248775
13567.5	0.248851
13645.8	0.248928
13724.6	0.249004
13803.8	0.249081
13883.5	0.249157
13963.7	0.249233
14044.3	0.249309
14125.4	0.249386
14206.9	0.249462
14288.9	0.249538
14371.4	0.249614
14454.4	0.249689
14537.8	0.249765
14621.8	0.249841
14706.2	0.249917
14791.1	0.249992
14876.5	0.250068
14962.4	0.250143
15048.7	0.250219
15135.6	0.250294
15223	0.25037
15310.9	0.250445
15399.3	0.25052
15488.2	0.250595
15577.6	0.25067
15667.5	0.250745
15758	0.25082
15848.9	0.250895
15940.4	0.25097
16032.5	0.251045
16125	0.251119
16218.1	0.251194
16311.7	0.251269
16405.9	0.251343
16500.6	0.251418
16595.9	0.251492
16691.7	0.251566
16788	0.251641
16885	0.251715
16982.4	0.251789
17080.5	0.251863
17179.1	0.251937
17278.3	0.252011
17378	0.252085
17478.3	0.252159
17579.2	0.252232
17680.7	0.252306
17782.8	0.25238
17885.5	0.252453
17988.7	0.252527
18092.6	0.2526
18197	0.252674
18302.1	0.252747
18407.7	0.25282
18514	0.252893
18620.9	0.252966
18728.4	0.253039
18836.5	0.253112
18945.2	0.253185
19054.6	0.253258
19164.6	0.253331
19275.2	0.253404
19386.5	0.253476
19498.4	0.253549
19611	0.253621
19724.2	0.253694
19838.1	0.253766
19952.6	0.253839
20067.8	0.253911
20183.7	0.253983
20300.2	0.254055
20417.4	0.254127
20535.3	0.254199
20653.8	0.254271
20773	0.254343
20893	0.254415
21013.6	0.254487
21134.9	0.254558
21256.9	0.25463
21379.6	0.254701
21503	0.254773
21627.2	0.254844
21752	0.254916
21877.6	0.254987
22003.9	0.255058
22130.9	0.255129
22258.7	0.2552
22387.2	0.255271
22516.5	0.255342
22646.4	0.255413
22777.2	0.255484
22908.7	0.255555
23040.9	0.255626
23173.9	0.255696
23307.7	0.255767
23442.3	0.255837
23577.6	0.255908
23713.7	0.255978
23850.6	0.256048
23988.3	0.256119
24126.8	0.256189
24266.1	0.256259
24406.2	0.256329
24547.1	0.256399
24688.8	0.256469
24831.3	0.256539
24974.7	0.256608
25118.9	0.256678
25263.9	0.256748
25409.7	0.256817
25556.4	0.256887
25704	0.256956
25852.3	0.257026
26001.6	0.257095
26151.7	0.257164
26302.7	0.257234
26454.5	0.257303
26607.3	0.257372
26760.9	0.257441
26915.3	0.25751
27070.7	0.257579
27227	0.257647
27384.2	0.257716
27542.3	0.257785
27701.3	0.257853
27861.2	0.257922
28022.1	0.25799
28183.8	0.258059
28346.5	0.258127
28510.2	0.258195
28674.8	0.258264
28840.3	0.258332
29006.8	0.2584
29174.3	0.258468
29342.7	0.258536
29512.1	0.258604
29682.5	0.258672
29853.8	0.258739
30026.2	0.258807
30199.5	0.258875
30373.9	0.258942
30549.2	0.25901
30725.6	0.259077
30903	0.259145
31081.4	0.259212
31260.8	0.259279
31441.3	0.259347
31622.8	0.259414
31805.3	0.259481
31989	0.259548
32173.6	0.259615
32359.4	0.259682
32546.2	0.259748
32734.1	0.259815
32923	0.259882
33113.1	0.259948
33304.3	0.260015
33496.5	0.260082
33689.9	0.260148
33884.4	0.260214
34080	0.260281
34276.8	0.260347
34474.7	0.260413
34673.7	0.260479
34873.9	0.260545
35075.2	0.260611
35277.7	0.260677
35481.3	0.260743
35686.2	0.260809
35892.2	0.260875
36099.4	0.26094
36307.8	0.261006
36517.4	0.261072
36728.2	0.261137
36940.3	0.261203
37153.5	0.261268
37368	0.261333
37583.7	0.261399
37800.7	0.261464
38018.9	0.261529
38238.4	0.261594
38459.2	0.261659
38681.2	0.261724
38904.5	0.261789
39129.1	0.261854
39355	0.261919
39582.2	0.261983
39810.7	0.262048
40040.5	0.262113
40271.7	0.262177
40504.2	0.262242
40738	0.262306
40973.2	0.262371
41209.8	0.262435
41447.7	0.262499
41686.9	0.262563
41927.6	0.262628
42169.7	0.262692
42413.1	0.262756
42658	0.26282
42904.2	0.262883
43151.9	0.262947
43401	0.263011
43651.6	0.263075
43903.6	0.263139
44157	0.263202
44412	0.263266
44668.4	0.263329
44926.2	0.263393
45185.6	0.263456
45446.5	0.263519
45708.8	0.263583
45972.7	0.263646
46238.1	0.263709
46505	0.263772
46773.5	0.263835
47043.5	0.263898
47315.1	0.263961
47588.3	0.264024
47863	0.264087
48139.3	0.26415
48417.2	0.264212
48696.8	0.264275
48977.9	0.264338
49260.6	0.2644
49545	0.264463
49831	0.264525
50118.7	0.264587
50408.1	0.26465
50699.1	0.264712
50991.8	0.264774
51286.1	0.264836
51582.2	0.264898
51880	0.264961
52179.5	0.265023
52480.7	0.265084
52783.7	0.265146
53088.4	0.265208
53394.9	0.26527
53703.2	0.265332
54013.2	0.265393
54325	0.265455
54638.7	0.265517
54954.1	0.265578
55271.3	0.26564
55590.4	0.265701
55911.4	0.265762
56234.1	0.265824
56558.8	0.265885
56885.3	0.265946
57213.7	0.266007
57544	0.266068
57876.2	0.266129
58210.3	0.26619
58546.4	0.266251
58884.4	0.266312
59224.3	0.266373
59566.2	0.266434
59910.1	0.266495
60256	0.266555
60603.8	0.266616
60953.7	0.266677
61305.6	0.266737
61659.5	0.266798
62015.5	0.266858
62373.5	0.266919
62733.6	0.266979
63095.7	0.267039
63460	0.267099
63826.3	0.26716
64194.8	0.26722
64565.4	0.26728
64938.2	0.26734
65313.1	0.2674
65690.1	0.26746
66069.3	0.26752
66450.8	0.26758
66834.4	0.267639
67220.2	0.267699
67608.3	0.267759
67998.6	0.267819
68391.2	0.267878
68786	0.267938
69183.1	0.267997
69582.5	0.268057
69984.2	0.268116
70388.2	0.268176
70794.6	0.268235
71203.3	0.268294
71614.3	0.268354
72027.8	0.268413
72443.6	0.268472
72861.8	0.268531
73282.5	0.26859
73705.5	0.268649
74131	0.268708
74559	0.268767
74989.4	0.268826
75422.3	0.268885
75857.8	0.268944
76295.7	0.269002
76736.1	0.269061
77179.2	0.26912
77624.7	0.269178
78072.8	0.269237
78523.6	0.269296
78976.9	0.269354
79432.8	0.269412
79891.4	0.269471
80352.6	0.269529
80816.5	0.269588
81283.1	0.269646
81752.3	0.269704
82224.3	0.269762
82699	0.26982
83176.4	0.269879
83656.6	0.269937
84139.5	0.269995
84625.3	0.270053
85113.8	0.270111
85605.2	0.270168
86099.4	0.270226
86596.4	0.270284
87096.4	0.270342
87599.2	0.2704
88104.9	0.270457
88613.5	0.270515
89125.1	0.270573
89639.6	0.27063
90157.1	0.270688
90677.6	0.270745
91201.1	0.270803
91727.6	0.27086
92257.1	0.270917
92789.7	0.270975
93325.4	0.271032
93864.2	0.271089
94406.1	0.271147
94951.1	0.271204
95499.3	0.271261
96050.6	0.271318
96605.1	0.271375
97162.8	0.271432
97723.7	0.271489
98287.9	0.271546
98855.3	0.271603
99426	0.27166
100000	0.271717
100577	0.271773
101158	0.27183
101742	0.271887
102329	0.271944
102920	0.272
103514	0.272057
104112	0.272113
104713	0.27217
105317	0.272227
105925	0.272283
106537	0.272339
107152	0.272396
107771	0.272452
108393	0.272509
109018	0.272565
109648	0.272621
110281	0.272677
110917	0.272733
111558	0.27279
112202	0.272846
112850	0.272902
113501	0.272958
114156	0.273014
114815	0.27307
115478	0.273126
116145	0.273182
116815	0.273238
117490	0.273293
118168	0.273349
118850	0.273405
119536	0.273461
120226	0.273517
120921	0.273572
121619	0.273628
122321	0.273683
123027	0.273739
123737	0.273795
124451	0.27385
125170	0.273906
125893	0.273961
126619	0.274017
127350	0.274072
128086	0.274127
128825	0.274183
129569	0.274238
130317	0.274293
131069	0.274348
131826	0.274404
132587	0.274459
133352	0.274514
134122	0.274569
134896	0.274624
135675	0.274679
136458	0.274734
137246	0.274789
138038	0.274844
138835	0.274899
139637	0.274954
140443	0.275009
141254	0.275064
142069	0.275119
142889	0.275173
143714	0.275228
144544	0.275283
145378	0.275337
146218	0.275392
147062	0.275447
147911	0.275501
148765	0.275556
149624	0.275611
150487	0.275665
151356	0.27572
152230	0.275774
153109	0.275829
153993	0.275883
154882	0.275937
155776	0.275992
156675	0.276046
157580	0.2761
158489	0.276155
159404	0.276209
160325	0.276263
161250	0.276317
162181	0.276372
163117	0.276426
164059	0.27648
165006	0.276534
165959	0.276588
166917	0.276642
167880	0.276696
168850	0.27675
169824	0.276804
170805	0.276858
171791	0.276912
172783	0.276966
173780	0.27702
174783	0.277074
175792	0.277127
176807	0.277181
177828	0.277235
178855	0.277289
179887	0.277342
180926	0.277396
181970	0.27745
183021	0.277503
184077	0.277557
185140	0.277611
186209	0.277664
187284	0.277718
188365	0.277771
189452	0.277825
190546	0.277878
191646	0.277932
192752	0.277985
193865	0.278039
194984	0.278092
196110	0.278145
197242	0.278199
198381	0.278252
199526	0.278305
200678	0.278359
201837	0.278412
203002	0.278465
204174	0.278518
205353	0.278572
206538	0.278625
207730	0.278678
208930	0.278731
210136	0.278784
211349	0.278837
212569	0.27889
213796	0.278943
215030	0.278996
216272	0.279049
217520	0.279102
218776	0.279155
220039	0.279208
221309	0.279261
222587	0.279314
223872	0.279367
225165	0.27942
226464	0.279473
227772	0.279526
229087	0.279578
230409	0.279631
231739	0.279684
233077	0.279737
234423	0.279789
235776	0.279842
237137	0.279895
238506	0.279947
239883	0.28
241268	0.280053
242661	0.280105
244062	0.280158
245471	0.280211
246888	0.280263
248313	0.280316
249747	0.280368
251189	0.280421
252639	0.280473
254097	0.280526
255564	0.280578
257040	0.28063
258523	0.280683
260016	0.280735
261517	0.280788
263027	0.28084
264545	0.280892
266073	0.280945
267609	0.280997
269153	0.281049
270707	0.281101
272270	0.281154
273842	0.281206
275423	0.281258
277013	0.28131
278612	0.281363
280221	0.281415
281838	0.281467
283465	0.281519
285102	0.281571
286748	0.281623
288403	0.281675
290068	0.281727
291743	0.281779
293427	0.281831
295121	0.281883
296825	0.281935
298538	0.281987
300262	0.282039
301995	0.282091
303739	0.282143
305492	0.282195
307256	0.282247
309030	0.282299
310814	0.282351
312608	0.282403
314413	0.282455
316228	0.282506
318053	0.282558
319890	0.28261
321736	0.282662
323594	0.282714
325462	0.282765
327341	0.282817
329230	0.282869
331131	0.282921
333043	0.282972
334965	0.283024
336899	0.283076
338844	0.283127
340800	0.283179
342768	0.283231
344747	0.283282
346737	0.283334
348739	0.283385
350752	0.283437
352777	0.283488
354813	0.28354
356862	0.283592
358922	0.283643
360994	0.283695
363078	0.283746
365174	0.283798
367282	0.283849
369403	0.2839
371535	0.283952
373680	0.284003
375837	0.284055
378007	0.284106
380189	0.284158
382384	0.284209
384592	0.28426
386812	0.284312
389045	0.284363
391291	0.284414
393550	0.284466
395822	0.284517
398107	0.284568
400405	0.284619
402717	0.284671
405042	0.284722
407380	0.284773
409732	0.284824
412098	0.284876
414477	0.284927
416869	0.284978
419276	0.285029
421697	0.28508
424131	0.285132
426580	0.285183
429042	0.285234
431519	0.285285
434010	0.285336
436516	0.285387
439036	0.285438
441570	0.285489
444120	0.28554
446684	0.285592
449262	0.285643
451856	0.285694
454465	0.285745
457088	0.285796
459727	0.285847
462381	0.285898
465050	0.285949
467735	0.286
470435	0.286051
473151	0.286101
475883	0.286152
478630	0.286203
481393	0.286254
484172	0.286305
486968	0.286356
489779	0.286407
492606	0.286458
495450	0.286509
498310	0.28656
501187	0.28661
504081	0.286661
506991	0.286712
509918	0.286763
512861	0.286814
515822	0.286864
518800	0.286915
521795	0.286966
524807	0.287017
527837	0.287068
530884	0.287118
533949	0.287169
537032	0.28722
540132	0.287271
543250	0.287321
546387	0.287372
549541	0.287423
552713	0.287473
555904	0.287524
559114	0.287575
562341	0.287625
565588	0.287676
568853	0.287727
572137	0.287777
575440	0.287828
578762	0.287879
582103	0.287929
585464	0.28798
588844	0.28803
592243	0.288081
595662	0.288131
599101	0.288182
602560	0.288233
606038	0.288283
609537	0.288334
613056	0.288384
616595	0.288435
620155	0.288485
623735	0.288536
627336	0.288586
630957	0.288637
634600	0.288687
638263	0.288738
641948	0.288788
645654	0.288839
649382	0.288889
653131	0.28894
656901	0.28899
660693	0.28904
664508	0.289091
668344	0.289141
672202	0.289192
676083	0.289242
679986	0.289292
683912	0.289343
687860	0.289393
691831	0.289444
695825	0.289494
699842	0.289544
703882	0.289595
707946	0.289645
712033	0.289695
716143	0.289746
720278	0.289796
724436	0.289846
728618	0.289897
732825	0.289947
737055	0.289997
741310	0.290047
745590	0.290098
749894	0.290148
754223	0.290198
758578	0.290248
762957	0.290299
767361	0.290349
771792	0.290399
776247	0.290449
780728	0.2905
785236	0.29055
789769	0.2906
794328	0.29065
798914	0.2907
803526	0.290751
808165	0.290801
812831	0.290851
817523	0.290901
822243	0.290951
826990	0.291002
831764	0.291052
836566	0.291102
841395	0.291152
846253	0.291202
851138	0.291252
856052	0.291302
860994	0.291352
865964	0.291403
870964	0.291453
875992	0.291503
881049	0.291553
886135	0.291603
891251	0.291653
896396	0.291703
901571	0.291753
906776	0.291803
912011	0.291853
917276	0.291903
922571	0.291953
927897	0.292003
933254	0.292054
938642	0.292104
944061	0.292154
949511	0.292204
954993	0.292254
960506	0.292304
966051	0.292354
971628	0.292404
977237	0.292454
982879	0.292504
988553	0.292554
994260	0.292604
1e+06	0.292654
1.00577e+06	0.292704
1.01158e+06	0.292753
1.01742e+06	0.292803
1.02329e+06	0.292853
1.0292e+06	0.292903
1.03514e+06	0.292953
1.04112e+06	0.293003
1.04713e+06	0.293053
1.05317e+06	0.293103
1.05925e+06	0.293153
1.06537e+06	0.293203
1.07152e+06	0.293253
1.07771e+06	0.293303
1.08393e+06	0.29331
1.09018e+06	0.29331
1.09648e+06	0.29331
1.10281e+06	0.29331
1.10917e+06	0.29331
1.11558e+06	0.29331
1.12202e+06	0.29331
1.1285e+06	0.29331
1.13501e+06	0.29331
1.14156e+06	0.29331
1.14815e+06	0.29331
1.15478e+06	0.29331
1.16145e+06	0.29331
1.16815e+06	0.29331
1.1749e+06	0.29331
1.18168e+06	0.29331
1.1885e+06	0.29331
1.19536e+06	0.29331
1.20226e+06	0.29331
1.20921e+06	0.29331
1.21619e+06	0.29331
1.22321e+06	0.29331
1.23027e+06	0.29331
1.23737e+06	0.29331
1.24451e+06	0.29331
1.2517e+06	0.29331
1.25893e+06	0.29331
1.26619e+06	0.29331
1.2735e+06	0.29331
1.28086e+06	0.29331
1.28825e+06	0.29331
1.29569e+06	0.29331
1.30317e+06	0.29331
1.31069e+06	0.29331
1.31826e+06	0.29331
1.32587e+06	0.29331
1.33352e+06	0.29331
1.34122e+06	0.29331
1.34896e+06	0.29331
1.35675e+06	0.29331
1.36458e+06	0.29331
1.37246e+06	0.29331
1.38038e+06	0.29331
1.38835e+06	0.29331
1.39637e+06	0.29331
1.40443e+06	0.29331
1.41254e+06	0.29331
1.42069e+06	0.29331
1.42889e+06	0.29331
1.43714e+06	0.29331
1.44544e+06	0.29331
1.45378e+06	0.29331
1.46218e+06	0.29331
1.47062e+06	0.29331
1.47911e+06	0.29331
1.48765e+06	0.29331
1.49624e+06	0.29331
1.50487e+06	0.29331
1.51356e+06	0.29331
1.5223e+06	0.29331
1.53109e+06	0.29331
1.53993e+06	0.29331
1.54882e+06	0.29331
1.55776e+06	0.29331
1.56675e+06	0.29331
1.5758e+06	0.29331
1.58489e+06	0.29331
1.59404e+06	0.29331
1.60325e+06	0.29331
1.6125e+06	0.29331
1.62181e+06	0.29331
1.63117e+06	0.29331
1.64059e+06	0.29331
1.65006e+06	0.29331
1.65959e+06	0.29331
1.66917e+06	0.29331
1.6788e+06	0.29331
1.6885e+06	0.29331
1.69824e+06	0.29331
1.70805e+06	0.29331
1.71791e+06	0.29331
1.72783e+06	0.29331
1.7378e+06	0.29331
1.74783e+06	0.29331
1.75792e+06	0.29331
1.76807e+06	0.29331
1.77828e+06	0.29331
1.78855e+06	0.29331
1.79887e+06	0.29331
1.80926e+06	0.29331
1.8197e+06	0.29331
1.83021e+06	0.29331
1.84077e+06	0.29331
1.8514e+06	0.29331
1.86209e+06	0.29331
1.87284e+06	0.29331
1.88365e+06	0.29331
1.89452e+06	0.29331
1.90546e+06	0.29331
1.91646e+06	0.29331
1.92752e+06	0.29331
1.93865e+06	0.29331
1.94984e+06	0.29331
1.9611e+06	0.29331
1.97242e+06	0.29331
1.98381e+06	0.29331
1.99526e+06	0.29331
2.00678e+06	0.29331
2.01837e+06	0.29331
2.03002e+06	0.29331
2.04174e+06	0.29331
2.05353e+06	0.29331
2.06538e+06	0.29331
2.0773e+06	0.29331
2.0893e+06	0.29331
2.10136e+06	0.29331
2.11349e+06	0.29331
2.12569e+06	0.29331
2.13796e+06	0.29331
2.1503e+06	0.29331
2.16272e+06	0.29331
2.1752e+06	0.29331
2.18776e+06	0.29331
2.20039e+06	0.29331
2.21309e+06	0.29331
2.22587e+06	0.29331
2.23872e+06	0.29331
2.25165e+06	0.29331
2.26464e+06	0.29331
2.27772e+06	0.29331
2.29087e+06	0.29331
2.30409e+06	0.29331
2.31739e+06	0.29331
2.33077e+06	0.29331
2.34423e+06	0.29331
2.35776e+06	0.29331
2.37137e+06	0.29331
2.38506e+06	0.29331
2.39883e+06	0.29331
2.41268e+06	0.29331
2.42661e+06	0.29331
2.44062e+06	0.29331
2.45471e+06	0.29331
2.46888e+06	0.29331
2.48313e+06	0.29331
2.49747e+06	0.29331
2.51189e+06	0.29331
2.52639e+06	0.29331
2.54097e+06	0.29331
2.55564e+06	0.29331
2.5704e+06	0.29331
2.58523e+06	0.29331
2.60016e+06	0.29331
2.61517e+06	0.29331
2.63027e+06	0.29331
2.64545e+06	0.29331
2.66073e+06	0.29331
2.67609e+06	0.29331
2.69153e+06	0.29331
2.70707e+06	0.29331
2.7227e+06	0.29331
2.73842e+06	0.29331
2.75423e+06	0.29331
2.77013e+06	0.29331
2.78612e+06	0.29331
2.80221e+06	0.29331
2.81838e+06	0.29331
2.83465e+06	0.29331
2.85102e+06	0.29331
2.86748e+06	0.29331
2.88403e+06	0.29331
2.90068e+06	0.29331
2.91743e+06	0.29331
2.93427e+06	0.29331
2.95121e+06	0.29331
2.96825e+06	0.29331
2.98538e+06	0.29331
3.00262e+06	0.29331
3.01995e+06	0.29331
3.03739e+06	0.29331
3.05492e+06	0.29331
3.07256e+06	0.29331
3.0903e+06	0.29331
3.10814e+06	0.29331
3.12608e+06	0.29331
3.14413e+06	0.29331
3.16228e+06	0.29331
3.18053e+06	0.29331
3.1989e+06	0.29331
3.21736e+06	0.29331
3.23594e+06	0.29331
3.25462e+06	0.29331
3.27341e+06	0.29331
3.2923e+06	0.29331
3.31131e+06	0.29331
3.33043e+06	0.29331
3.34965e+06	0.29331
3.36899e+06	0.29331
3.38844e+06	0.29331
3.408e+06	0.29331
3.42768e+06	0.29331
3.44747e+06	0.29331
3.46737e+06	0.29331
3.48739e+06	0.29331
3.50752e+06	0.29331
3.52777e+06	0.29331
3.54813e+06	0.29331
3.56862e+06	0.29331
3.58922e+06	0.29331
3.60994e+06	0.29331
3.63078e+06	0.29331
3.65174e+06	0.29331
3.67282e+06	0.29331
3.69403e+06	0.29331
3.71535e+06	0.29331
3.7368e+06	0.29331
3.75837e+06	0.29331
3.78007e+06	0.29331
3.80189e+06	0.29331
3.82384e+06	0.29331
3.84592e+06	0.29331
3.86812e+06	0.29331
3.89045e+06	0.29331
3.91291e+06	0.29331
3.9355e+06	0.29331
3.95822e+06	0.29331
3.98107e+06	0.29331
4.00405e+06	0.29331
4.02717e+06	0.29331
4.05042e+06	0.29331
4.0738e+06	0.29331
4.09732e+06	0.29331
4.12098e+06	0.29331
4.14477e+06	0.29331
4.16869e+06	0.29331
4.19276e+06	0.29331
4.21697e+06	0.29331
4.24131e+06	0.29331
4.2658e+06	0.29331
4.29042e+06	0.29331
4.31519e+06	0.29331
4.3401e+06	0.29331
4.36516e+06	0.29331
4.39036e+06	0.29331
4.4157e+06	0.29331
4.4412e+06	0.29331
4.46684e+06	0.29331
4.49262e+06	0.29331
4.51856e+06	0.29331
4.54465e+06	0.29331
4.57088e+06	0.29331
4.59727e+06	0.29331
4.62381e+06	0.29331
4.6505e+06	0.29331
4.67735e+06	0.29331
4.70435e+06	0.29331
4.73151e+06	0.29331
4.75883e+06	0.29331
4.7863e+06	0.29331
4.81393e+06	0.29331
4.84172e+06	0.29331
4.86968e+06	0.29331
4.89779e+06	0.29331
4.92606e+06	0.29331
4.9545e+06	0.29331
4.9831e+06	0.29331
5.01187e+06	0.29331
5.04081e+06	0.29331
5.06991e+06	0.29331
5.09918e+06	0.29331
5.12861e+06	0.29331
5.15822e+06	0.29331
5.188e+06	0.29331
5.21795e+06	0.29331
5.24807e+06	0.29331
5.27837e+06	0.29331
5.30884e+06	0.29331
5.33949e+06	0.29331
5.37032e+06	0.29331
5.40132e+06	0.29331
5.4325e+06	0.29331
5.46387e+06	0.29331
5.49541e+06	0.29331
5.52713e+06	0.29331
5.55904e+06	0.29331
5.59114e+06	0.29331
5.62341e+06	0.29331
5.65588e+06	0.29331
5.68853e+06	0.29331
5.72137e+06	0.29331
5.7544e+06	0.29331
5.78762e+06	0.29331
5.82103e+06	0.29331
5.85464e+06	0.29331
5.88844e+06	0.29331
5.92243e+06	0.29331
5.95662e+06	0.29331
5.99101e+06	0.29331
6.0256e+06	0.29331
6.06038e+06	0.29331
6.09537e+06	0.29331
6.13056e+06	0.29331
6.16595e+06	0.29331
6.20155e+06	0.29331
6.23735e+06	0.29331
6.27336e+06	0.29331
6.30957e+06	0.29331
6.346e+06	0.29331
6.38263e+06	0.29331
6.41948e+06	0.29331
6.45654e+06	0.29331
6.49382e+06	0.29331
6.53131e+06	0.29331
6.56901e+06	0.29331
6.60693e+06	0.29331
6.64508e+06	0.29331
6.68344e+06	0.29331
6.72202e+06	0.29331
6.76083e+06	0.29331
6.79986e+06	0.29331
6.83912e+06	0.29331
6.8786e+06	0.29331
6.91831e+06	0.29331
6.95825e+06	0.29331
6.99842e+06	0.29331
7.03882e+06	0.29331
7.07946e+06	0.29331
7.12033e+06	0.29331
7.16143e+06	0.29331
7.20278e+06	0.29331
7.24436e+06	0.29331
7.28618e+06	0.29331
7.32825e+06	0.29331
7.37055e+06	0.29331
7.4131e+06	0.29331
7.4559e+06	0.29331
7.49894e+06	0.29331
7.54223e+06	0.29331
7.58578e+06	0.29331
7.62957e+06	0.29331
7.67361e+06	0.29331
7.71792e+06	0.29331
7.76247e+06	0.29331
7.80728e+06	0.29331
7.85236e+06	0.29331
7.89769e+06	0.29331
7.94328e+06	0.29331
7.98914e+06	0.29331
8.03526e+06	0.29331
8.08165e+06	0.29331
8.12831e+06	0.29331
8.17523e+06	0.29331
8.22243e+06	0.29331
8.2699e+06	0.29331
8.31764e+06	0.29331
8.36566e+06	0.29331
8.41395e+06	0.29331
8.46253e+06	0.29331
8.51138e+06	0.29331
8.56052e+06	0.29331
8.60994e+06	0.29331
8.65964e+06	0.29331
8.70964e+06	0.29331
8.75992e+06	0.29331
8.81049e+06	0.29331
8.86135e+06	0.29331
8.91251e+06	0.29331
8.96396e+06	0.29331
9.01571e+06	0.29331
9.06776e+06	0.29331
9.12011e+06	0.29331
9.17276e+06	0.29331
9.22571e+06	0.29331
9.27897e+06	0.29331
9.33254e+06	0.29331
9.38642e+06	0.29331
9.44061e+06	0.29331
9.49511e+06	0.29331
9.54993e+06	0.29331
9.60506e+06	0.29331
9.66051e+06	0.29331
9.71628e+06	0.29331
9.77237e+06	0.29331
9.82879e+06	0.29331
9.88553e+06	0.29331
9.9426e+06	0.29331
1e+07	0.29331
