Stopping power dEdx from Ionisation for S32[0.0] Z = 16 in G4_Si, process name: ionIoni
E [MeV]	dEdx [MeV/mm]
0.001	33.0145
0.00100577	33.1105
0.00101158	33.2067
0.00101742	33.3032
0.00102329	33.4
0.0010292	33.4971
0.00103514	33.5944
0.00104112	33.6921
0.00104713	33.79
0.00105317	33.8882
0.00105925	33.9867
0.00106537	34.0854
0.00107152	34.1845
0.00107771	34.2838
0.00108393	34.3834
0.00109018	34.4833
0.00109648	34.5835
0.00110281	34.684
0.00110917	34.7848
0.00111558	34.8858
0.00112202	34.9872
0.0011285	35.0888
0.00113501	35.1908
0.00114156	35.293
0.00114815	35.3955
0.00115478	35.4983
0.00116145	35.6015
0.00116815	35.7049
0.0011749	35.8086
0.00118168	35.9126
0.0011885	36.0169
0.00119536	36.1215
0.00120226	36.2264
0.00120921	36.3317
0.00121619	36.4372
0.00122321	36.543
0.00123027	36.6491
0.00123737	36.7556
0.00124451	36.8623
0.0012517	36.9694
0.00125893	37.0767
0.00126619	37.1844
0.0012735	37.2924
0.00128086	37.4007
0.00128825	37.5093
0.00129569	37.6182
0.00130317	37.7274
0.00131069	37.8369
0.00131826	37.9468
0.00132587	38.057
0.00133352	38.1675
0.00134122	38.2783
0.00134896	38.3894
0.00135675	38.5009
0.00136458	38.6126
0.00137246	38.7247
0.00138038	38.8371
0.00138835	38.9499
0.00139637	39.063
0.00140443	39.1764
0.00141254	39.2901
0.00142069	39.4041
0.00142889	39.5185
0.00143714	39.6332
0.00144544	39.7482
0.00145378	39.8636
0.00146218	39.9793
0.00147062	40.0953
0.00147911	40.2117
0.00148765	40.3284
0.00149624	40.4455
0.00150487	40.5628
0.00151356	40.6805
0.0015223	40.7986
0.00153109	40.917
0.00153993	41.0357
0.00154882	41.1548
0.00155776	41.2742
0.00156675	41.394
0.0015758	41.5141
0.00158489	41.6346
0.00159404	41.7554
0.00160325	41.8765
0.0016125	41.998
0.00162181	42.1199
0.00163117	42.2421
0.00164059	42.3646
0.00165006	42.4876
0.00165959	42.6108
0.00166917	42.7344
0.0016788	42.8584
0.0016885	42.9827
0.00169824	43.1074
0.00170805	43.2325
0.00171791	43.3579
0.00172783	43.4837
0.0017378	43.6098
0.00174783	43.7363
0.00175792	43.8632
0.00176807	43.9904
0.00177828	44.118
0.00178855	44.246
0.00179887	44.3743
0.00180926	44.503
0.0018197	44.6321
0.00183021	44.7615
0.00184077	44.8913
0.0018514	45.0215
0.00186209	45.1521
0.00187284	45.283
0.00188365	45.4144
0.00189452	45.5461
0.00190546	45.6781
0.00191646	45.8106
0.00192752	45.9434
0.00193865	46.0767
0.00194984	46.2103
0.0019611	46.3443
0.00197242	46.4786
0.00198381	46.6134
0.00199526	46.7486
0.00200678	46.8841
0.00201837	47.02
0.00203002	47.1564
0.00204174	47.2931
0.00205353	47.4302
0.00206538	47.5677
0.0020773	47.7056
0.0020893	47.8439
0.00210136	47.9826
0.00211349	48.1217
0.00212569	48.2612
0.00213796	48.4012
0.0021503	48.5415
0.00216272	48.6822
0.0021752	48.8233
0.00218776	48.9648
0.00220039	49.1068
0.00221309	49.2491
0.00222587	49.3918
0.00223872	49.535
0.00225165	49.6786
0.00226464	49.8226
0.00227772	49.967
0.00229087	50.1118
0.00230409	50.257
0.00231739	50.4027
0.00233077	50.5488
0.00234423	50.6953
0.00235776	50.8422
0.00237137	50.9896
0.00238506	51.1373
0.00239883	51.2855
0.00241268	51.4341
0.00242661	51.5832
0.00244062	51.7327
0.00245471	51.8826
0.00246888	52.0329
0.00248313	52.1837
0.00249747	52.3349
0.00251189	52.4866
0.00252639	52.6386
0.00254097	52.7912
0.00255564	52.9441
0.0025704	53.0975
0.00258523	53.2514
0.00260016	53.4057
0.00261517	53.5604
0.00263027	53.7156
0.00264545	53.8712
0.00266073	54.0273
0.00267609	54.1838
0.00269153	54.3408
0.00270707	54.4982
0.0027227	54.6561
0.00273842	54.8144
0.00275423	54.9732
0.00277013	55.1325
0.00278612	55.2922
0.00280221	55.4524
0.00281838	55.613
0.00283465	55.7741
0.00285102	55.9357
0.00286748	56.0977
0.00288403	56.2602
0.00290068	56.4231
0.00291743	56.5866
0.00293427	56.7505
0.00295121	56.9149
0.00296825	57.0797
0.00298538	57.245
0.00300262	57.4108
0.00301995	57.5771
0.00303739	57.7439
0.00305492	57.9111
0.00307256	58.0788
0.0030903	58.247
0.00310814	58.4157
0.00312608	58.5849
0.00314413	58.7546
0.00316228	58.9247
0.00318053	59.0953
0.0031989	59.2665
0.00321736	59.4381
0.00323594	59.6102
0.00325462	59.7828
0.00327341	59.956
0.0032923	60.1296
0.00331131	60.3037
0.00333043	60.4783
0.00334965	60.6534
0.00336899	60.8291
0.00338844	61.0052
0.003408	61.1818
0.00342768	61.359
0.00344747	61.5366
0.00346737	61.7148
0.00348739	61.8935
0.00350752	62.0727
0.00352777	62.2524
0.00354813	62.4326
0.00356862	62.6134
0.00358922	62.7947
0.00360994	62.9765
0.00363078	63.1588
0.00365174	63.3416
0.00367282	63.525
0.00369403	63.7089
0.00371535	63.8933
0.0037368	64.0783
0.00375837	64.2638
0.00378007	64.4498
0.00380189	64.6364
0.00382384	64.8235
0.00384592	65.0111
0.00386812	65.1993
0.00389045	65.388
0.00391291	65.5773
0.0039355	65.7671
0.00395822	65.9575
0.00398107	66.1484
0.00400405	66.3399
0.00402717	66.5319
0.00405042	66.7245
0.0040738	66.9176
0.00409732	67.1113
0.00412098	67.3055
0.00414477	67.5003
0.00416869	67.6957
0.00419276	67.8916
0.00421697	68.0881
0.00424131	68.2851
0.0042658	68.4828
0.00429042	68.6809
0.00431519	68.8797
0.0043401	69.079
0.00436516	69.279
0.00439036	69.4794
0.0044157	69.6805
0.0044412	69.8821
0.00446684	70.0844
0.00449262	70.2872
0.00451856	70.4906
0.00454465	70.6946
0.00457088	70.8991
0.00459727	71.1043
0.00462381	71.31
0.0046505	71.5164
0.00467735	71.7233
0.00470435	71.9308
0.00473151	72.139
0.00475883	72.3477
0.0047863	72.557
0.00481393	72.767
0.00484172	72.9775
0.00486968	73.1886
0.00489779	73.4004
0.00492606	73.6128
0.0049545	73.8258
0.0049831	74.0393
0.00501187	74.2536
0.00504081	74.4684
0.00506991	74.6838
0.00509918	74.8999
0.00512861	75.1166
0.00515822	75.3339
0.005188	75.5518
0.00521795	75.7704
0.00524807	75.9896
0.00527837	76.2094
0.00530884	76.4299
0.00533949	76.651
0.00537032	76.8727
0.00540132	77.0951
0.0054325	77.3181
0.00546387	77.5418
0.00549541	77.7661
0.00552713	77.991
0.00555904	78.2166
0.00559114	78.4429
0.00562341	78.6698
0.00565588	78.8973
0.00568853	79.1255
0.00572137	79.3544
0.0057544	79.5839
0.00578762	79.8141
0.00582103	80.045
0.00585464	80.2765
0.00588844	80.5087
0.00592243	80.7415
0.00595662	80.9751
0.00599101	81.2093
0.0060256	81.4441
0.00606038	81.6797
0.00609537	81.9159
0.00613056	82.1528
0.00616595	82.3904
0.00620155	82.6287
0.00623735	82.8677
0.00627336	83.1073
0.00630957	83.3477
0.006346	83.5887
0.00638263	83.8304
0.00641948	84.0729
0.00645654	84.316
0.00649382	84.5598
0.00653131	84.8044
0.00656901	85.0496
0.00660693	85.2955
0.00664508	85.5422
0.00668344	85.7895
0.00672202	86.0376
0.00676083	86.2864
0.00679986	86.5359
0.00683912	86.7862
0.0068786	87.0371
0.00691831	87.2888
0.00695825	87.5412
0.00699842	87.7943
0.00703882	88.0482
0.00707946	88.3027
0.00712033	88.5581
0.00716143	88.8141
0.00720278	89.0709
0.00724436	89.3284
0.00728618	89.5867
0.00732825	89.8457
0.00737055	90.1055
0.0074131	90.366
0.0074559	90.6273
0.00749894	90.8893
0.00754223	91.1521
0.00758578	91.4156
0.00762957	91.6799
0.00767361	91.945
0.00771792	92.2108
0.00776247	92.4774
0.00780728	92.7447
0.00785236	93.0129
0.00789769	93.2818
0.00794328	93.5514
0.00798914	93.8219
0.00803526	94.0931
0.00808165	94.3651
0.00812831	94.6379
0.00817523	94.9115
0.00822243	95.1859
0.0082699	95.461
0.00831764	95.737
0.00836566	96.0137
0.00841395	96.2913
0.00846253	96.5696
0.00851138	96.8488
0.00856052	97.1287
0.00860994	97.4095
0.00865964	97.691
0.00870964	97.9734
0.00875992	98.2566
0.00881049	98.5406
0.00886135	98.8255
0.00891251	99.1111
0.00896396	99.3976
0.00901571	99.6849
0.00906776	99.973
0.00912011	100.262
0.00917276	100.552
0.00922571	100.842
0.00927897	101.134
0.00933254	101.426
0.00938642	101.719
0.00944061	102.013
0.00949511	102.308
0.00954993	102.604
0.00960506	102.9
0.00966051	103.198
0.00971628	103.496
0.00977237	103.795
0.00982879	104.095
0.00988553	104.396
0.0099426	104.698
0.01	105
0.0100577	105.304
0.0101158	105.608
0.0101742	105.913
0.0102329	106.219
0.010292	106.526
0.0103514	106.834
0.0104112	107.143
0.0104713	107.452
0.0105317	107.763
0.0105925	108.074
0.0106537	108.387
0.0107152	108.7
0.0107771	109.014
0.0108393	109.329
0.0109018	109.645
0.0109648	109.962
0.0110281	110.28
0.0110917	110.875
0.0111558	111.195
0.0112202	111.515
0.011285	111.837
0.0113501	112.159
0.0114156	112.482
0.0114815	112.807
0.0115478	113.132
0.0116145	113.458
0.0116815	113.785
0.011749	114.113
0.0118168	114.442
0.011885	114.772
0.0119536	115.103
0.0120226	115.434
0.0120921	115.767
0.0121619	116.101
0.0122321	116.435
0.0123027	116.771
0.0123737	117.108
0.0124451	117.445
0.012517	117.784
0.0125893	118.123
0.0126619	118.464
0.012735	118.805
0.0128086	119.147
0.0128825	119.491
0.0129569	119.835
0.0130317	120.181
0.0131069	120.527
0.0131826	120.875
0.0132587	121.223
0.0133352	121.572
0.0134122	121.923
0.0134896	122.274
0.0135675	122.627
0.0136458	122.98
0.0137246	123.335
0.0138038	123.69
0.0138835	124.047
0.0139637	124.404
0.0140443	124.763
0.0141254	125.122
0.0142069	125.483
0.0142889	125.845
0.0143714	126.207
0.0144544	126.571
0.0145378	126.936
0.0146218	127.302
0.0147062	127.669
0.0147911	128.037
0.0148765	128.406
0.0149624	128.776
0.0150487	129.147
0.0151356	129.519
0.015223	129.893
0.0153109	130.267
0.0153993	130.643
0.0154882	131.019
0.0155776	131.397
0.0156675	131.776
0.015758	132.155
0.0158489	132.536
0.0159404	132.918
0.0160325	133.301
0.016125	133.686
0.0162181	134.071
0.0163117	134.457
0.0164059	134.845
0.0165006	135.234
0.0165959	135.623
0.0166917	136.014
0.016788	136.406
0.016885	136.8
0.0169824	137.194
0.0170805	137.589
0.0171791	137.986
0.0172783	138.384
0.017378	138.783
0.0174783	139.183
0.0175792	139.584
0.0176807	139.986
0.0177828	140.39
0.0178855	140.794
0.0179887	141.2
0.0180926	141.607
0.018197	142.015
0.0183021	142.425
0.0184077	142.835
0.018514	143.247
0.0186209	143.66
0.0187284	144.074
0.0188365	144.489
0.0189452	144.905
0.0190546	145.323
0.0191646	145.742
0.0192752	146.162
0.0193865	146.583
0.0194984	147.006
0.019611	147.43
0.0197242	147.855
0.0198381	148.281
0.0199526	148.708
0.0200678	149.137
0.0201837	149.567
0.0203002	149.998
0.0204174	150.43
0.0205353	150.864
0.0206538	151.299
0.020773	151.735
0.020893	152.172
0.0210136	152.611
0.0211349	153.051
0.0212569	153.492
0.0213796	153.934
0.021503	154.378
0.0216272	154.823
0.021752	155.269
0.0218776	155.717
0.0220039	156.165
0.0221309	156.616
0.0222587	157.067
0.0223872	157.52
0.0225165	157.974
0.0226464	158.429
0.0227772	158.886
0.0229087	159.344
0.0230409	159.803
0.0231739	160.264
0.0233077	160.726
0.0234423	161.189
0.0235776	161.653
0.0237137	162.119
0.0238506	162.587
0.0239883	163.055
0.0241268	163.525
0.0242661	163.997
0.0244062	164.469
0.0245471	164.943
0.0246888	165.419
0.0248313	165.896
0.0249747	166.374
0.0251189	166.853
0.0252639	167.334
0.0254097	167.817
0.0255564	168.3
0.025704	168.785
0.0258523	169.272
0.0260016	169.76
0.0261517	170.249
0.0263027	170.74
0.0264545	171.232
0.0266073	171.726
0.0267609	172.22
0.0269153	172.717
0.0270707	173.215
0.027227	173.714
0.0273842	174.215
0.0275423	174.717
0.0277013	175.22
0.0278612	175.726
0.0280221	176.232
0.0281838	176.74
0.0283465	177.249
0.0285102	177.76
0.0286748	178.273
0.0288403	178.787
0.0290068	179.302
0.0291743	179.819
0.0293427	180.337
0.0295121	180.857
0.0296825	181.378
0.0298538	181.901
0.0300262	182.425
0.0301995	182.951
0.0303739	183.478
0.0305492	184.007
0.0307256	184.538
0.030903	185.069
0.0310814	185.603
0.0312608	186.138
0.0314413	186.674
0.0316228	187.212
0.0318053	187.752
0.031989	188.293
0.0321736	188.836
0.0323594	189.38
0.0325462	189.926
0.0327341	190.474
0.032923	191.023
0.0331131	191.573
0.0333043	192.125
0.0334965	192.679
0.0336899	193.235
0.0338844	193.792
0.03408	194.35
0.0342768	194.91
0.0344747	195.472
0.0346737	196.036
0.0348739	196.601
0.0350752	197.167
0.0352777	197.736
0.0354813	198.306
0.0356862	198.877
0.0358922	199.45
0.0360994	200.025
0.0363078	200.602
0.0365174	201.18
0.0367282	201.76
0.0369403	202.341
0.0371535	202.925
0.037368	203.51
0.0375837	204.096
0.0378007	204.684
0.0380189	205.274
0.0382384	205.866
0.0384592	206.459
0.0386812	207.055
0.0389045	207.651
0.0391291	208.25
0.039355	208.85
0.0395822	209.452
0.0398107	210.056
0.0400405	210.661
0.0402717	211.269
0.0405042	211.877
0.040738	212.488
0.0409732	213.101
0.0412098	213.715
0.0414477	214.331
0.0416869	214.949
0.0419276	215.568
0.0421697	216.19
0.0424131	216.813
0.042658	217.438
0.0429042	218.064
0.0431519	218.693
0.043401	219.323
0.0436516	219.955
0.0439036	220.589
0.044157	221.225
0.044412	221.863
0.0446684	222.502
0.0449262	223.144
0.0451856	223.787
0.0454465	224.432
0.0457088	225.079
0.0459727	225.728
0.0462381	226.378
0.046505	227.031
0.0467735	227.685
0.0470435	228.341
0.0473151	229
0.0475883	229.66
0.047863	230.322
0.0481393	230.986
0.0484172	231.651
0.0486968	232.319
0.0489779	232.989
0.0492606	233.66
0.049545	234.334
0.049831	235.009
0.0501187	235.687
0.0504081	236.366
0.0506991	237.047
0.0509918	237.73
0.0512861	238.416
0.0515822	239.103
0.05188	239.792
0.0521795	240.483
0.0524807	241.176
0.0527837	241.872
0.0530884	242.569
0.0533949	243.268
0.0537032	243.969
0.0540132	244.672
0.054325	245.378
0.0546387	246.085
0.0549541	246.794
0.0552713	247.505
0.0555904	248.219
0.0559114	248.934
0.0562341	249.652
0.0565588	250.371
0.0568853	251.093
0.0572137	251.817
0.057544	252.543
0.0578762	253.271
0.0582103	254.001
0.0585464	254.733
0.0588844	255.467
0.0592243	256.203
0.0595662	256.942
0.0599101	257.682
0.060256	258.425
0.0606038	259.17
0.0609537	259.917
0.0613056	260.666
0.0616595	261.418
0.0620155	262.171
0.0623735	262.927
0.0627336	263.685
0.0630957	264.445
0.06346	265.207
0.0638263	265.971
0.0641948	266.738
0.0645654	267.507
0.0649382	268.278
0.0653131	269.051
0.0656901	269.827
0.0660693	270.604
0.0664508	271.384
0.0668344	272.167
0.0672202	272.951
0.0676083	273.738
0.0679986	274.527
0.0683912	275.318
0.068786	276.112
0.0691831	276.908
0.0695825	277.706
0.0699842	278.506
0.0703882	279.309
0.0707946	280.114
0.0712033	280.921
0.0716143	281.731
0.0720278	282.543
0.0724436	283.358
0.0728618	284.174
0.0732825	284.993
0.0737055	285.815
0.074131	286.639
0.074559	287.465
0.0749894	288.293
0.0754223	289.124
0.0758578	289.958
0.0762957	290.794
0.0767361	291.632
0.0771792	292.472
0.0776247	293.315
0.0780728	294.161
0.0785236	295.009
0.0789769	295.859
0.0794328	296.712
0.0798914	297.567
0.0803526	298.425
0.0808165	299.285
0.0812831	300.148
0.0817523	301.013
0.0822243	301.88
0.082699	302.75
0.0831764	303.623
0.0836566	304.498
0.0841395	305.376
0.0846253	306.256
0.0851138	307.139
0.0856052	308.024
0.0860994	308.912
0.0865964	309.802
0.0870964	310.695
0.0875992	311.591
0.0881049	312.489
0.0886135	313.39
0.0891251	314.293
0.0896396	315.199
0.0901571	316.108
0.0906776	317.019
0.0912011	317.932
0.0917276	318.849
0.0922571	319.768
0.0927897	320.69
0.0933254	321.614
0.0938642	322.541
0.0944061	323.471
0.0949511	324.403
0.0954993	325.338
0.0960506	326.276
0.0966051	327.216
0.0971628	328.159
0.0977237	329.105
0.0982879	330.054
0.0988553	331.005
0.099426	331.959
0.1	332.916
0.100577	333.876
0.101158	334.838
0.101742	335.803
0.102329	336.771
0.10292	337.742
0.103514	338.715
0.104112	339.692
0.104713	340.671
0.105317	341.653
0.105925	342.637
0.106537	343.625
0.107152	344.616
0.107771	345.609
0.108393	346.605
0.109018	347.604
0.109648	348.606
0.110281	349.611
0.110917	350.618
0.111558	351.629
0.112202	352.643
0.11285	353.659
0.113501	354.678
0.114156	355.701
0.114815	356.726
0.115478	357.754
0.116145	358.785
0.116815	359.82
0.11749	360.857
0.118168	361.897
0.11885	362.94
0.119536	363.986
0.120226	365.035
0.120921	366.087
0.121619	367.143
0.122321	368.201
0.123027	369.262
0.123737	370.327
0.124451	371.394
0.12517	372.464
0.125893	373.538
0.126619	374.615
0.12735	375.694
0.128086	376.777
0.128825	377.863
0.129569	378.953
0.130317	380.045
0.131069	381.14
0.131826	382.239
0.132587	383.341
0.133352	384.446
0.134122	385.554
0.134896	386.665
0.135675	387.779
0.136458	388.897
0.137246	390.018
0.138038	391.142
0.138835	392.27
0.139637	393.4
0.140443	394.534
0.141254	395.672
0.142069	396.812
0.142889	397.956
0.143714	399.103
0.144544	400.253
0.145378	401.407
0.146218	402.564
0.147062	403.724
0.147911	404.888
0.148765	406.055
0.149624	407.225
0.150487	408.399
0.151356	409.576
0.15223	410.757
0.153109	411.941
0.153993	413.128
0.154882	414.319
0.155776	415.513
0.156675	416.711
0.15758	417.912
0.158489	419.117
0.159404	420.325
0.160325	421.536
0.16125	422.751
0.162181	423.97
0.163117	425.192
0.164059	426.417
0.165006	427.646
0.165959	428.879
0.166917	430.115
0.16788	431.355
0.16885	432.598
0.169824	433.845
0.170805	435.096
0.171791	436.35
0.172783	437.608
0.17378	438.869
0.174783	440.134
0.175792	441.403
0.176807	442.675
0.177828	443.951
0.178855	445.23
0.179887	446.514
0.180926	447.801
0.18197	449.091
0.183021	450.386
0.184077	451.684
0.18514	452.986
0.186209	454.292
0.187284	455.601
0.188365	456.914
0.189452	458.231
0.190546	459.552
0.191646	460.877
0.192752	462.205
0.193865	463.537
0.194984	464.874
0.19611	466.213
0.197242	467.557
0.198381	468.905
0.199526	470.257
0.200678	471.612
0.201837	472.971
0.203002	474.335
0.204174	475.702
0.205353	477.073
0.206538	478.448
0.20773	479.827
0.20893	481.21
0.210136	482.597
0.211349	483.988
0.212569	485.383
0.213796	486.782
0.21503	488.185
0.216272	489.593
0.21752	491.004
0.218776	492.419
0.220039	493.838
0.221309	495.262
0.222587	496.689
0.223872	498.121
0.225165	499.557
0.226464	500.997
0.227772	502.441
0.229087	503.889
0.230409	505.341
0.231739	506.798
0.233077	508.259
0.234423	509.724
0.235776	511.193
0.237137	512.666
0.238506	514.144
0.239883	515.626
0.241268	517.112
0.242661	518.603
0.244062	520.098
0.245471	521.597
0.246888	523.1
0.248313	524.608
0.249747	526.12
0.251189	527.636
0.252639	529.157
0.254097	530.683
0.255564	532.212
0.25704	533.746
0.258523	535.285
0.260016	536.828
0.261517	538.375
0.263027	539.927
0.264545	541.483
0.266073	543.044
0.267609	544.609
0.269153	546.179
0.270707	547.753
0.27227	549.332
0.273842	550.915
0.275423	552.503
0.277013	554.096
0.278612	555.693
0.280221	557.295
0.281838	558.901
0.283465	560.512
0.285102	562.127
0.286748	563.748
0.288403	565.373
0.290068	567.002
0.291743	568.637
0.293427	570.276
0.295121	571.919
0.296825	573.568
0.298538	575.221
0.300262	576.879
0.301995	578.542
0.303739	580.209
0.305492	581.882
0.307256	583.559
0.30903	585.241
0.310814	586.928
0.312608	588.62
0.314413	590.316
0.316228	592.018
0.318053	593.724
0.31989	595.436
0.321736	597.152
0.323594	598.873
0.325462	600.599
0.327341	602.33
0.32923	604.067
0.331131	605.808
0.333043	607.554
0.334965	609.305
0.336899	611.061
0.338844	612.823
0.3408	614.589
0.342768	616.361
0.344747	618.137
0.346737	619.919
0.348739	621.706
0.350752	623.498
0.352777	625.295
0.354813	627.097
0.356862	628.905
0.358922	630.717
0.360994	632.535
0.363078	634.359
0.365174	636.187
0.367282	638.021
0.369403	639.86
0.371535	641.704
0.37368	643.554
0.375837	645.409
0.378007	647.269
0.380189	649.135
0.382384	651.006
0.384592	652.882
0.386812	654.764
0.389045	656.651
0.391291	658.544
0.39355	660.442
0.395822	662.346
0.398107	664.255
0.400405	666.17
0.402717	668.09
0.405042	670.015
0.40738	671.947
0.409732	673.883
0.412098	675.826
0.414477	677.774
0.416869	679.727
0.419276	681.687
0.421697	683.652
0.424131	685.622
0.42658	687.598
0.429042	689.58
0.431519	691.568
0.43401	693.561
0.436516	695.56
0.439036	697.565
0.44157	699.576
0.44412	701.592
0.446684	703.615
0.449262	705.643
0.451856	707.677
0.454465	709.716
0.457088	711.762
0.459727	713.814
0.462381	715.871
0.46505	717.934
0.467735	720.004
0.470435	722.079
0.473151	724.16
0.475883	726.248
0.47863	728.341
0.481393	730.44
0.484172	732.546
0.486968	734.657
0.489779	736.775
0.492606	738.899
0.49545	741.028
0.49831	743.164
0.501187	745.306
0.504081	747.455
0.506991	749.609
0.509918	751.77
0.512861	753.937
0.515822	756.11
0.5188	758.289
0.521795	760.475
0.524807	762.667
0.527837	764.865
0.530884	767.07
0.533949	769.281
0.537032	771.498
0.540132	773.722
0.54325	775.952
0.546387	778.189
0.549541	780.432
0.552713	782.681
0.555904	784.937
0.559114	787.2
0.562341	789.469
0.565588	791.744
0.568853	794.026
0.572137	796.315
0.57544	798.61
0.578762	800.912
0.582103	803.221
0.585464	805.536
0.588844	807.858
0.592243	810.186
0.595662	812.521
0.599101	814.863
0.60256	817.212
0.606038	819.568
0.609537	821.93
0.613056	824.299
0.616595	826.675
0.620155	829.058
0.623735	831.447
0.627336	833.844
0.630957	836.247
0.6346	838.658
0.638263	841.075
0.641948	843.499
0.645654	845.931
0.649382	848.369
0.653131	850.814
0.656901	853.267
0.660693	855.726
0.664508	858.193
0.668344	860.666
0.672202	863.147
0.676083	865.635
0.679986	868.13
0.683912	870.632
0.68786	873.142
0.691831	875.659
0.695825	878.183
0.699842	880.714
0.703882	883.252
0.707946	885.798
0.712033	888.351
0.716143	890.912
0.720278	893.48
0.724436	896.055
0.728618	898.638
0.732825	901.228
0.737055	903.826
0.74131	906.431
0.74559	909.044
0.749894	911.664
0.754223	914.292
0.758578	916.927
0.762957	919.57
0.767361	922.221
0.771792	924.879
0.776247	927.545
0.780728	930.218
0.785236	932.899
0.789769	935.588
0.794328	938.285
0.798914	940.99
0.803526	943.958
0.808165	947.021
0.812831	950.099
0.817523	953.193
0.822243	956.302
0.82699	959.428
0.831764	962.569
0.836566	965.727
0.841395	968.9
0.846253	972.09
0.851138	975.295
0.856052	978.516
0.860994	981.754
0.865964	985.008
0.870964	988.278
0.875992	991.564
0.881049	994.866
0.886135	998.185
0.891251	1001.52
0.896396	1004.87
0.901571	1008.24
0.906776	1011.62
0.912011	1015.02
0.917276	1018.44
0.922571	1021.88
0.927897	1025.33
0.933254	1028.79
0.938642	1032.28
0.944061	1035.78
0.949511	1039.29
0.954993	1042.83
0.960506	1046.36
0.966051	1049.74
0.971628	1053.14
0.977237	1056.56
0.982879	1059.99
0.988553	1063.44
0.99426	1066.9
1	1070.38
1.00577	1073.87
1.01158	1077.38
1.01742	1080.91
1.02329	1084.45
1.0292	1088
1.03514	1091.57
1.04112	1095.16
1.04713	1098.76
1.05317	1102.38
1.05925	1106.02
1.06537	1109.67
1.07152	1113.33
1.07771	1117.01
1.08393	1120.71
1.09018	1124.42
1.09648	1128.15
1.10281	1131.89
1.10917	1135.65
1.11558	1139.42
1.12202	1143.21
1.1285	1147.01
1.13501	1150.83
1.14156	1154.66
1.14815	1158.51
1.15478	1162.37
1.16145	1166.25
1.16815	1170.14
1.1749	1174.05
1.18168	1177.97
1.1885	1181.9
1.19536	1185.85
1.20226	1189.82
1.20921	1193.8
1.21619	1197.79
1.22321	1201.8
1.23027	1205.82
1.23737	1209.86
1.24451	1213.9
1.2517	1217.97
1.25893	1222.04
1.26619	1226.13
1.2735	1230.24
1.28086	1234.35
1.28825	1238.43
1.29569	1242.52
1.30317	1246.63
1.31069	1250.75
1.31826	1254.88
1.32587	1259.03
1.33352	1263.19
1.34122	1267.36
1.34896	1271.55
1.35675	1275.75
1.36458	1279.96
1.37246	1284.19
1.38038	1288.43
1.38835	1292.69
1.39637	1296.96
1.40443	1301.25
1.41254	1305.55
1.42069	1309.87
1.42889	1314.2
1.43714	1318.55
1.44544	1322.91
1.45378	1327.29
1.46218	1331.69
1.47062	1336.1
1.47911	1340.53
1.48765	1344.97
1.49624	1349.44
1.50487	1353.91
1.51356	1358.41
1.5223	1362.93
1.53109	1367.46
1.53993	1372.01
1.54882	1376.58
1.55776	1381.17
1.56675	1385.77
1.5758	1390.4
1.58489	1395.04
1.59404	1399.71
1.60325	1404.4
1.6125	1409.1
1.62181	1413.83
1.63117	1418.57
1.64059	1423.34
1.65006	1428.13
1.65959	1432.94
1.66917	1437.78
1.6788	1442.63
1.6885	1447.51
1.69824	1452.41
1.70805	1457.33
1.71791	1462.27
1.72783	1467.24
1.7378	1472.23
1.74783	1477.24
1.75792	1482.28
1.76807	1487.34
1.77828	1492.43
1.78855	1497.54
1.79887	1502.67
1.80926	1507.83
1.8197	1513.02
1.83021	1518.23
1.84077	1523.46
1.8514	1528.73
1.86209	1534.01
1.87284	1539.33
1.88365	1544.67
1.89452	1550.04
1.90546	1555.44
1.91646	1560.86
1.92752	1566.32
1.93865	1571.8
1.94984	1577.31
1.9611	1582.85
1.97242	1588.42
1.98381	1594.01
1.99526	1599.64
2.00678	1605.29
2.01837	1610.97
2.03002	1616.68
2.04174	1622.42
2.05353	1628.19
2.06538	1633.98
2.0773	1639.8
2.0893	1645.66
2.10136	1651.54
2.11349	1657.45
2.12569	1663.38
2.13796	1669.35
2.1503	1675.34
2.16272	1681.36
2.1752	1687.41
2.18776	1693.49
2.20039	1699.59
2.21309	1705.73
2.22587	1711.89
2.23872	1718.07
2.25165	1724.29
2.26464	1730.53
2.27772	1736.8
2.29087	1743.1
2.30409	1749.42
2.31739	1755.77
2.33077	1762.14
2.34423	1768.55
2.35776	1774.97
2.37137	1781.42
2.38506	1787.9
2.39883	1794.4
2.41268	1800.92
2.42661	1807.47
2.44062	1814.04
2.45471	1820.63
2.46888	1827.24
2.48313	1833.88
2.49747	1840.54
2.51189	1847.21
2.52639	1853.91
2.54097	1860.63
2.55564	1867.37
2.5704	1874.12
2.58523	1880.9
2.60016	1887.69
2.61517	1894.5
2.63027	1901.33
2.64545	1908.17
2.66073	1915.03
2.67609	1921.91
2.69153	1928.8
2.70707	1935.71
2.7227	1942.63
2.73842	1949.56
2.75423	1956.51
2.77013	1963.47
2.78612	1970.45
2.80221	1977.44
2.81838	1984.43
2.83465	1991.44
2.85102	1998.47
2.86748	2005.5
2.88403	2012.54
2.90068	2019.59
2.91743	2026.64
2.93427	2033.71
2.95121	2040.78
2.96825	2047.86
2.98538	2054.95
3.00262	2062.04
3.01995	2069.14
3.03739	2076.25
3.05492	2083.36
3.07256	2090.47
3.0903	2097.59
3.10814	2104.72
3.12608	2111.84
3.14413	2118.97
3.16228	2126.1
3.18053	2133.23
3.1989	2140.37
3.21736	2147.51
3.23594	2154.65
3.25462	2161.79
3.27341	2168.93
3.2923	2176.07
3.31131	2183.21
3.33043	2190.35
3.34965	2197.48
3.36899	2204.62
3.38844	2211.75
3.408	2218.89
3.42768	2226.02
3.44747	2233.15
3.46737	2240.27
3.48739	2247.4
3.50752	2254.52
3.52777	2261.63
3.54813	2268.75
3.56862	2275.86
3.58922	2282.97
3.60994	2290.07
3.63078	2297.17
3.65174	2304.26
3.67282	2311.35
3.69403	2318.44
3.71535	2325.52
3.7368	2332.59
3.75837	2339.66
3.78007	2346.72
3.80189	2353.78
3.82384	2360.84
3.84592	2367.88
3.86812	2374.92
3.89045	2381.96
3.91291	2388.98
3.9355	2396
3.95822	2403.02
3.98107	2410.03
4.00405	2417.03
4.02717	2424.02
4.05042	2431
4.0738	2437.98
4.09732	2444.95
4.12098	2451.91
4.14477	2458.87
4.16869	2465.82
4.19276	2472.76
4.21697	2479.69
4.24131	2486.61
4.2658	2493.53
4.29042	2500.43
4.31519	2507.33
4.3401	2514.22
4.36516	2521.1
4.39036	2527.98
4.4157	2534.84
4.4412	2541.7
4.46684	2548.55
4.49262	2555.39
4.51856	2562.22
4.54465	2569.05
4.57088	2575.86
4.59727	2582.67
4.62381	2589.47
4.6505	2596.27
4.67735	2603.05
4.70435	2609.83
4.73151	2616.6
4.75883	2623.37
4.7863	2630.13
4.81393	2636.83
4.84172	2643.47
4.86968	2650.11
4.89779	2656.74
4.92606	2663.36
4.9545	2669.97
4.9831	2676.57
5.01187	2683.16
5.04081	2689.75
5.06991	2696.33
5.09918	2702.89
5.12861	2709.45
5.15822	2715.99
5.188	2722.53
5.21795	2729.05
5.24807	2735.57
5.27837	2742.07
5.30884	2748.56
5.33949	2755.04
5.37032	2761.5
5.40132	2767.96
5.4325	2774.4
5.46387	2780.83
5.49541	2787.24
5.52713	2793.65
5.55904	2800.04
5.59114	2806.41
5.62341	2812.77
5.65588	2819.12
5.68853	2825.45
5.72137	2831.77
5.7544	2838.07
5.78762	2844.36
5.82103	2850.63
5.85464	2856.89
5.88844	2863.13
5.92243	2869.36
5.95662	2875.57
5.99101	2881.76
6.0256	2887.94
6.06038	2894.1
6.09537	2900.24
6.13056	2906.37
6.16595	2912.48
6.20155	2918.57
6.23735	2924.65
6.27336	2930.71
6.30957	2936.75
6.346	2942.78
6.38263	2948.79
6.41948	2954.79
6.45654	2960.79
6.49382	2966.77
6.53131	2972.74
6.56901	2978.69
6.60693	2984.62
6.64508	2990.53
6.68344	2996.42
6.72202	3002.3
6.76083	3008.15
6.79986	3013.99
6.83912	3019.81
6.8786	3025.61
6.91831	3031.39
6.95825	3037.16
6.99842	3042.9
7.03882	3048.63
7.07946	3054.33
7.12033	3060.02
7.16143	3065.69
7.20278	3071.34
7.24436	3076.97
7.28618	3082.58
7.32825	3088.18
7.37055	3093.75
7.4131	3099.31
7.4559	3104.85
7.49894	3110.37
7.54223	3115.87
7.58578	3121.36
7.62957	3126.82
7.67361	3132.27
7.71792	3137.7
7.76247	3143.12
7.80728	3148.52
7.85236	3153.9
7.89769	3159.27
7.94328	3164.62
7.98914	3169.95
8.03526	3175.27
8.08165	3180.58
8.12831	3185.87
8.17523	3191.14
8.22243	3196.41
8.2699	3201.65
8.31764	3206.88
8.36566	3212.09
8.41395	3217.29
8.46253	3222.47
8.51138	3227.64
8.56052	3232.79
8.60994	3237.92
8.65964	3243.03
8.70964	3248.13
8.75992	3253.22
8.81049	3258.28
8.86135	3263.33
8.91251	3268.37
8.96396	3273.38
9.01571	3278.38
9.06776	3283.36
9.12011	3288.33
9.17276	3293.28
9.22571	3298.21
9.27897	3303.13
9.33254	3308.03
9.38642	3312.91
9.44061	3317.78
9.49511	3322.63
9.54993	3327.46
9.60506	3332.28
9.66051	3337.09
9.71628	3341.89
9.77237	3346.67
9.82879	3351.43
9.88553	3356.18
9.9426	3360.91
10	3365.62
10.0577	3370.32
10.1158	3375
10.1742	3379.66
10.2329	3384.3
10.292	3388.93
10.3514	3393.54
10.4112	3398.13
10.4713	3402.7
10.5317	3407.25
10.5925	3411.78
10.6537	3416.3
10.7152	3420.8
10.7771	3425.27
10.8393	3429.73
10.9018	3434.17
10.9648	3438.59
11.0281	3443
11.0917	3447.38
11.1558	3451.74
11.2202	3456.08
11.285	3460.41
11.3501	3464.71
11.4156	3469
11.4815	3473.26
11.5478	3477.51
11.6145	3481.74
11.6815	3485.95
11.749	3490.13
11.8168	3494.3
11.885	3498.45
11.9536	3502.59
12.0226	3506.7
12.0921	3510.79
12.1619	3514.87
12.2321	3518.92
12.3027	3522.96
12.3737	3526.98
12.4451	3530.98
12.517	3534.97
12.5893	3538.94
12.6619	3542.89
12.735	3546.82
12.8086	3550.73
12.8825	3554.6
12.9569	3558.46
13.0317	3562.29
13.1069	3566.11
13.1826	3569.92
13.2587	3573.7
13.3352	3577.47
13.4122	3581.21
13.4896	3584.94
13.5675	3588.65
13.6458	3592.34
13.7246	3596.01
13.8038	3599.66
13.8835	3603.29
13.9637	3606.9
14.0443	3610.49
14.1254	3614.05
14.2069	3617.6
14.2889	3621.12
14.3714	3624.62
14.4544	3628.1
14.5378	3631.56
14.6218	3634.99
14.7062	3638.4
14.7911	3641.79
14.8765	3645.15
14.9624	3648.49
15.0487	3651.8
15.1356	3655.09
15.223	3658.35
15.3109	3661.59
15.3993	3664.81
15.4882	3667.99
15.5776	3671.16
15.6675	3674.29
15.758	3677.4
15.8489	3680.48
15.9404	3683.54
16.0325	3686.57
16.125	3689.58
16.2181	3692.56
16.3117	3695.51
16.4059	3698.43
16.5006	3701.33
16.5959	3704.2
16.6917	3707.03
16.788	3709.84
16.885	3712.62
16.9824	3715.37
17.0805	3718.09
17.1791	3720.78
17.2783	3723.44
17.378	3726.07
17.4783	3728.66
17.5792	3731.23
17.6807	3733.76
17.7828	3736.26
17.8855	3738.73
17.9887	3741.17
18.0926	3743.57
18.197	3745.95
18.3021	3748.29
18.4077	3750.59
18.514	3752.87
18.6209	3755.11
18.7284	3757.32
18.8365	3759.49
18.9452	3761.64
19.0546	3763.74
19.1646	3765.82
19.2752	3767.86
19.3865	3769.87
19.4984	3771.84
19.611	3773.78
19.7242	3775.68
19.8381	3777.55
19.9526	3779.39
20.0678	3781.19
20.1837	3782.95
20.3002	3784.68
20.4174	3786.37
20.5353	3788.02
20.6538	3789.64
20.773	3791.22
20.893	3792.77
21.0136	3794.28
21.1349	3795.75
21.2569	3797.18
21.3796	3798.58
21.503	3799.94
21.6272	3801.26
21.752	3802.55
21.8776	3803.79
22.0039	3805
22.1309	3806.17
22.2587	3807.3
22.3872	3808.4
22.5165	3809.45
22.6464	3810.47
22.7772	3811.45
22.9087	3812.39
23.0409	3813.29
23.1739	3814.16
23.3077	3814.98
23.4423	3815.76
23.5776	3816.51
23.7137	3817.22
23.8506	3817.88
23.9883	3818.51
24.1268	3819.1
24.2661	3819.64
24.4062	3820.15
24.5471	3820.62
24.6888	3821.05
24.8313	3821.44
24.9747	3821.79
25.1189	3822.1
25.2639	3822.37
25.4097	3822.6
25.5564	3822.79
25.704	3822.94
25.8523	3823.05
26.0016	3823.13
26.1517	3823.16
26.3027	3823.15
26.4545	3823.11
26.6073	3823.02
26.7609	3822.9
26.9153	3822.73
27.0707	3822.52
27.227	3822.28
27.3842	3821.99
27.5423	3821.66
27.7013	3821.3
27.8612	3820.89
28.0221	3820.44
28.1838	3819.95
28.3465	3819.42
28.5102	3818.86
28.6748	3818.25
28.8403	3817.6
29.0068	3816.91
29.1743	3816.18
29.3427	3815.42
29.5121	3814.61
29.6825	3813.76
29.8538	3812.88
30.0262	3811.96
30.1995	3811
30.3739	3810
30.5492	3808.96
30.7256	3807.88
30.903	3806.77
31.0814	3805.62
31.2608	3804.44
31.4413	3803.22
31.6228	3801.96
31.8053	3800.67
31.989	3799.35
32.1736	3797.99
32.3594	3796.61
32.5462	3795.19
32.7341	3793.73
32.923	3792.24
33.1131	3790.72
33.3043	3789.16
33.4965	3787.57
33.6899	3785.94
33.8844	3784.27
34.08	3782.58
34.2768	3780.84
34.4747	3779.07
34.6737	3777.26
34.8739	3775.42
35.0752	3773.54
35.2777	3771.63
35.4813	3769.68
35.6862	3767.69
35.8922	3765.67
36.0994	3763.61
36.3078	3761.52
36.5174	3759.38
36.7282	3757.21
36.9403	3755.01
37.1535	3752.77
37.368	3750.49
37.5837	3748.17
37.8007	3745.82
38.0189	3743.43
38.2384	3741.01
38.4592	3738.55
38.6812	3736.05
38.9045	3733.51
39.1291	3730.94
39.355	3728.34
39.5822	3725.69
39.8107	3723.01
40.0405	3720.3
40.2717	3717.55
40.5042	3714.76
40.738	3711.94
40.9732	3709.09
41.2098	3706.2
41.4477	3703.27
41.6869	3700.31
41.9276	3697.31
42.1697	3694.29
42.4131	3691.22
42.658	3688.13
42.9042	3685
43.1519	3681.84
43.401	3678.65
43.6516	3675.43
43.9036	3672.17
44.157	3668.88
44.412	3665.57
44.6684	3662.22
44.9262	3658.85
45.1856	3655.44
45.4465	3652.01
45.7088	3648.55
45.9727	3645.07
46.2381	3641.55
46.505	3638.01
46.7735	3634.45
47.0435	3630.87
47.3151	3627.26
47.5883	3623.62
47.863	3619.97
48.1393	3616.27
48.4172	3612.52
48.6968	3608.75
48.9779	3604.96
49.2606	3601.15
49.545	3597.32
49.831	3593.47
50.1187	3589.6
50.4081	3585.71
50.6991	3581.79
50.9918	3577.86
51.2861	3573.91
51.5822	3569.93
51.88	3565.93
52.1795	3561.91
52.4807	3557.88
52.7837	3553.82
53.0884	3549.74
53.3949	3545.63
53.7032	3541.51
54.0132	3537.37
54.325	3533.2
54.6387	3529.02
54.9541	3524.81
55.2713	3520.58
55.5904	3516.33
55.9114	3512.06
56.2341	3507.77
56.5588	3503.46
56.8853	3499.13
57.2137	3494.77
57.544	3490.4
57.8762	3486
58.2103	3481.59
58.5464	3477.15
58.8844	3472.69
59.2243	3468.21
59.5662	3463.71
59.9101	3459.19
60.256	3454.65
60.6038	3450.09
60.9537	3445.51
61.3056	3440.91
61.6595	3436.29
62.0155	3431.65
62.3735	3426.98
62.7336	3422.3
63.0957	3417.6
63.46	3412.88
63.8263	3408.14
64.1948	3403.37
64.5654	3398.59
64.9382	3393.79
65.3131	3388.97
65.6901	3384.13
66.0693	3379.27
66.4508	3374.4
66.8344	3369.5
67.2202	3364.58
67.6083	3359.65
67.9986	3354.69
68.3912	3349.72
68.786	3344.73
69.1831	3339.72
69.5825	3334.7
69.9842	3329.65
70.3882	3324.59
70.7946	3319.51
71.2033	3314.41
71.6143	3309.3
72.0278	3304.16
72.4436	3299.01
72.8618	3293.84
73.2825	3288.66
73.7055	3283.46
74.131	3278.24
74.559	3273.01
74.9894	3267.76
75.4223	3262.5
75.8578	3257.22
76.2957	3251.92
76.7361	3246.61
77.1792	3241.28
77.6247	3235.94
78.0728	3230.59
78.5236	3225.22
78.9769	3219.84
79.4328	3214.44
79.8914	3209.03
80.3526	3203.61
80.8165	3198.18
81.2831	3192.73
81.7523	3187.27
82.2243	3181.8
82.699	3176.31
83.1764	3170.81
83.6566	3165.3
84.1395	3159.78
84.6253	3154.25
85.1138	3148.7
85.6052	3143.14
86.0994	3137.57
86.5964	3131.99
87.0964	3126.4
87.5992	3120.79
88.1049	3115.17
88.6135	3109.55
89.1251	3103.91
89.6396	3098.26
90.1571	3092.6
90.6776	3086.92
91.2011	3081.24
91.7276	3075.54
92.2571	3069.84
92.7897	3064.12
93.3254	3058.4
93.8642	3052.66
94.4061	3046.91
94.9511	3041.16
95.4993	3035.39
96.0506	3029.61
96.6051	3023.82
97.1628	3018.02
97.7237	3012.21
98.2879	3006.39
98.8553	3000.56
99.426	2994.72
100	2988.87
100.577	2983.01
101.158	2977.14
101.742	2971.27
102.329	2965.38
102.92	2959.49
103.514	2953.58
104.112	2947.67
104.713	2941.75
105.317	2935.82
105.925	2929.88
106.537	2923.94
107.152	2917.98
107.771	2912.02
108.393	2906.05
109.018	2900.07
109.648	2894.09
110.281	2888.09
110.917	2882.09
111.558	2876.08
112.202	2870.06
112.85	2864.04
113.501	2858.01
114.156	2851.97
114.815	2845.92
115.478	2839.87
116.145	2833.81
116.815	2827.74
117.49	2821.67
118.168	2815.59
118.85	2809.5
119.536	2803.41
120.226	2797.31
120.921	2791.2
121.619	2785.08
122.321	2778.96
123.027	2772.84
123.737	2766.7
124.451	2760.56
125.17	2754.42
125.893	2748.27
126.619	2742.11
127.35	2735.94
128.086	2729.78
128.825	2723.62
129.569	2717.45
130.317	2711.28
131.069	2705.11
131.826	2698.93
132.587	2692.74
133.352	2686.55
134.122	2680.35
134.896	2674.15
135.675	2667.94
136.458	2661.73
137.246	2655.52
138.038	2649.3
138.835	2643.08
139.637	2636.85
140.443	2630.62
141.254	2624.39
142.069	2618.15
142.889	2611.91
143.714	2605.66
144.544	2599.41
145.378	2593.16
146.218	2586.91
147.062	2580.65
147.911	2574.39
148.765	2568.13
149.624	2561.87
150.487	2555.6
151.356	2549.33
152.23	2543.06
153.109	2536.79
153.993	2530.52
154.882	2524.24
155.776	2517.96
156.675	2511.68
157.58	2505.4
158.489	2499.12
159.404	2492.84
160.325	2486.55
161.25	2480.26
162.181	2473.96
163.117	2467.67
164.059	2461.38
165.006	2455.08
165.959	2448.78
166.917	2442.49
167.88	2436.19
168.85	2429.9
169.824	2423.6
170.805	2417.3
171.791	2411.01
172.783	2404.71
173.78	2398.42
174.783	2392.12
175.792	2385.83
176.807	2379.53
177.828	2373.24
178.855	2366.95
179.887	2360.66
180.926	2354.37
181.97	2348.08
183.021	2341.79
184.077	2335.51
185.14	2329.22
186.209	2322.94
187.284	2316.65
188.365	2310.37
189.452	2304.09
190.546	2297.81
191.646	2291.53
192.752	2285.26
193.865	2278.98
194.984	2272.71
196.11	2266.43
197.242	2260.16
198.381	2253.9
199.526	2247.63
200.678	2241.37
201.837	2235.1
203.002	2228.84
204.174	2222.59
205.353	2216.33
206.538	2210.08
207.73	2203.83
208.93	2197.59
210.136	2191.34
211.349	2185.1
212.569	2178.87
213.796	2172.64
215.03	2166.41
216.272	2160.18
217.52	2153.96
218.776	2147.74
220.039	2141.52
221.309	2135.31
222.587	2129.1
223.872	2122.9
225.165	2116.7
226.464	2110.5
227.772	2104.31
229.087	2098.12
230.409	2091.94
231.739	2085.76
233.077	2079.58
234.423	2073.41
235.776	2067.24
237.137	2061.08
238.506	2054.92
239.883	2048.77
241.268	2042.62
242.661	2036.48
244.062	2030.34
245.471	2024.21
246.888	2018.08
248.313	2011.96
249.747	2005.84
251.189	1999.73
252.639	1993.63
254.097	1987.53
255.564	1981.43
257.04	1975.34
258.523	1969.25
260.016	1963.18
261.517	1957.1
263.027	1951.03
264.545	1944.97
266.073	1938.92
267.609	1932.87
269.153	1926.82
270.707	1920.78
272.27	1914.75
273.842	1908.73
275.423	1902.71
277.013	1896.7
278.612	1890.7
280.221	1884.7
281.838	1878.71
283.465	1872.73
285.102	1866.75
286.748	1860.78
288.403	1854.82
290.068	1848.87
291.743	1842.92
293.427	1836.98
295.121	1831.05
296.825	1825.12
298.538	1819.21
300.262	1813.3
301.995	1807.39
303.739	1801.5
305.492	1795.61
307.256	1789.73
309.03	1783.86
310.814	1777.99
312.608	1772.14
314.413	1766.28
316.228	1760.44
318.053	1754.6
319.89	1748.78
321.736	1742.94
323.594	1737.12
325.462	1731.3
327.341	1725.5
329.23	1719.69
331.131	1713.9
333.043	1708.12
334.965	1702.34
336.899	1696.57
338.844	1690.81
340.8	1685.06
342.768	1679.32
344.747	1673.58
346.737	1667.86
348.739	1662.15
350.752	1656.44
352.777	1650.75
354.813	1645.07
356.862	1639.39
358.922	1633.73
360.994	1628.08
363.078	1622.44
365.174	1616.81
367.282	1611.19
369.403	1605.58
371.535	1599.99
373.68	1594.4
375.837	1588.83
378.007	1583.27
380.189	1577.72
382.384	1572.18
384.592	1566.65
386.812	1561.14
389.045	1555.64
391.291	1550.15
393.55	1544.67
395.822	1539.2
398.107	1533.75
400.405	1528.31
402.717	1522.88
405.042	1517.47
407.38	1512.07
409.732	1506.68
412.098	1501.3
414.477	1495.93
416.869	1490.58
419.276	1485.24
421.697	1479.91
424.131	1474.59
426.58	1469.28
429.042	1463.99
431.519	1458.71
434.01	1453.44
436.516	1448.18
439.036	1442.93
441.57	1437.7
444.12	1432.47
446.684	1427.26
449.262	1422.05
451.856	1416.86
454.465	1411.67
457.088	1406.5
459.727	1401.33
462.381	1396.17
465.05	1391.02
467.735	1385.88
470.435	1380.75
473.151	1375.62
475.883	1370.5
478.63	1365.39
481.393	1360.33
484.172	1355.33
486.968	1350.33
489.779	1345.34
492.606	1340.35
495.45	1335.37
498.31	1330.4
501.187	1325.44
504.081	1320.48
506.991	1315.53
509.918	1310.59
512.861	1305.66
515.822	1300.74
518.8	1295.83
521.795	1290.92
524.807	1286.03
527.837	1281.14
530.884	1276.26
533.949	1271.4
537.032	1266.54
540.132	1261.69
543.25	1256.86
546.387	1252.03
549.541	1247.22
552.713	1242.41
555.904	1237.62
559.114	1232.84
562.341	1228.07
565.588	1223.32
568.853	1218.57
572.137	1213.84
575.44	1209.12
578.762	1204.41
582.103	1199.71
585.464	1195.03
588.844	1190.36
592.243	1185.7
595.662	1181.06
599.101	1176.42
602.56	1171.81
606.038	1167.2
609.537	1162.61
613.056	1158.04
616.595	1153.48
620.155	1148.93
623.735	1144.39
627.336	1139.87
630.957	1135.37
634.6	1130.88
638.263	1126.4
641.948	1121.93
645.654	1117.46
649.382	1113
653.131	1108.56
656.901	1104.14
660.693	1099.73
664.508	1095.33
668.344	1090.95
672.202	1086.58
676.083	1082.23
679.986	1077.9
683.912	1073.58
687.86	1069.28
691.831	1064.99
695.825	1060.71
699.842	1056.45
703.882	1052.21
707.946	1047.98
712.033	1043.77
716.143	1039.57
720.278	1035.39
724.436	1031.22
728.618	1027.07
732.825	1022.93
737.055	1018.81
741.31	1014.7
745.59	1010.61
749.894	1006.53
754.223	1002.47
758.578	998.415
762.957	994.379
767.361	990.357
771.792	986.348
776.247	982.352
780.728	978.37
785.236	974.4
789.769	970.443
794.328	966.498
798.914	962.564
803.526	958.642
808.165	954.73
812.831	950.83
817.523	946.942
822.243	943.066
826.99	939.201
831.764	935.349
836.566	931.508
841.395	927.68
846.253	923.865
851.138	920.061
856.052	916.271
860.994	912.492
865.964	908.727
870.964	904.973
875.992	901.233
881.049	897.506
886.135	893.791
891.251	890.089
896.396	886.399
901.571	882.723
906.776	879.06
912.011	875.409
917.276	871.771
922.571	868.146
927.897	864.533
933.254	860.934
938.642	857.346
944.061	853.772
949.511	850.21
954.993	846.66
960.506	843.122
966.051	839.59
971.628	836.071
977.237	832.563
982.879	829.069
988.553	825.587
994.26	822.117
1000	818.661
1005.77	815.217
1011.58	811.787
1017.42	808.37
1023.29	804.965
1029.2	801.575
1035.14	798.197
1041.12	794.833
1047.13	791.483
1053.17	788.146
1059.25	784.822
1065.37	781.513
1071.52	778.216
1077.71	774.934
1083.93	771.665
1090.18	768.41
1096.48	765.169
1102.81	761.942
1109.17	758.728
1115.58	755.527
1122.02	752.341
1128.5	749.168
1135.01	746.008
1141.56	742.862
1148.15	739.729
1154.78	736.61
1161.45	733.503
1168.15	730.41
1174.9	727.33
1181.68	724.262
1188.5	721.207
1195.36	718.164
1202.26	715.134
1209.21	712.116
1216.19	709.109
1223.21	706.114
1230.27	703.131
1237.37	700.158
1244.51	697.197
1251.7	694.246
1258.93	691.305
1266.19	688.374
1273.5	685.453
1280.86	682.543
1288.25	679.662
1295.69	676.791
1303.17	673.928
1310.69	671.075
1318.26	668.232
1325.87	665.398
1333.52	662.573
1341.22	659.759
1348.96	656.954
1356.75	654.16
1364.58	651.375
1372.46	648.601
1380.38	645.837
1388.35	643.083
1396.37	640.34
1404.43	637.607
1412.54	634.885
1420.69	632.174
1428.89	629.473
1437.14	626.784
1445.44	624.105
1453.78	621.437
1462.18	618.78
1470.62	616.134
1479.11	613.499
1487.65	610.875
1496.24	608.262
1504.87	605.661
1513.56	603.07
1522.3	600.491
1531.09	597.923
1539.93	595.366
1548.82	592.819
1557.76	590.285
1566.75	587.761
1575.8	585.248
1584.89	582.746
1594.04	580.255
1603.25	577.772
1612.5	575.297
1621.81	572.833
1631.17	570.38
1640.59	567.937
1650.06	565.506
1659.59	563.085
1669.17	560.676
1678.8	558.277
1688.5	555.889
1698.24	553.513
1708.05	551.147
1717.91	548.792
1727.83	546.448
1737.8	544.116
1747.83	541.794
1757.92	539.482
1768.07	537.182
1778.28	534.892
1788.55	532.613
1798.87	530.345
1809.26	528.087
1819.7	525.84
1830.21	523.602
1840.77	521.375
1851.4	519.158
1862.09	516.951
1872.84	514.754
1883.65	512.566
1894.52	510.388
1905.46	508.219
1916.46	506.059
1927.52	503.908
1938.65	501.765
1949.84	499.632
1961.1	497.507
1972.42	495.391
1983.81	493.284
1995.26	491.187
2006.78	489.098
2018.37	487.018
2030.02	484.948
2041.74	482.887
2053.53	480.835
2065.38	478.792
2077.3	476.758
2089.3	474.733
2101.36	472.718
2113.49	470.712
2125.69	468.715
2137.96	466.727
2150.3	464.748
2162.72	462.778
2175.2	460.817
2187.76	458.865
2200.39	456.922
2213.09	454.988
2225.87	453.062
2238.72	451.145
2251.65	449.237
2264.64	447.337
2277.72	445.446
2290.87	443.563
2304.09	441.69
2317.39	439.824
2330.77	437.967
2344.23	436.119
2357.76	434.28
2371.37	432.449
2385.06	430.627
2398.83	428.813
2412.68	427.008
2426.61	425.211
2440.62	423.423
2454.71	421.643
2468.88	419.871
2483.13	418.108
2497.47	416.353
2511.89	414.606
2526.39	412.867
2540.97	411.136
2555.64	409.413
2570.4	407.697
2585.23	405.989
2600.16	404.289
2615.17	402.597
2630.27	400.912
2645.45	399.236
2660.73	397.567
2676.09	395.906
2691.53	394.252
2707.07	392.607
2722.7	390.969
2738.42	389.339
2754.23	387.717
2770.13	386.103
2786.12	384.497
2802.21	382.898
2818.38	381.307
2834.65	379.724
2851.02	378.148
2867.48	376.58
2884.03	375.02
2900.68	373.467
2917.43	371.921
2934.27	370.383
2951.21	368.852
2968.25	367.328
2985.38	365.812
3002.62	364.302
3019.95	362.8
3037.39	361.305
3054.92	359.816
3072.56	358.335
3090.3	356.86
3108.14	355.391
3126.08	353.929
3144.13	352.474
3162.28	351.024
3180.53	349.581
3198.9	348.143
3217.36	346.708
3235.94	345.279
3254.62	343.855
3273.41	342.438
3292.3	341.026
3311.31	339.621
3330.43	338.221
3349.65	336.828
3368.99	335.441
3388.44	334.06
3408	332.685
3427.68	331.317
3447.47	329.955
3467.37	328.6
3487.39	327.252
3507.52	325.91
3527.77	324.575
3548.13	323.246
3568.62	321.924
3589.22	320.61
3609.94	319.301
3630.78	318
3651.74	316.706
3672.82	315.419
3694.03	314.138
3715.35	312.865
3736.8	311.599
3758.37	310.339
3780.07	309.087
3801.89	307.842
3823.84	306.604
3845.92	305.373
3868.12	304.149
3890.45	302.932
3912.91	301.722
3935.5	300.519
3958.22	299.324
3981.07	298.135
4004.05	296.953
4027.17	295.778
4050.42	294.611
4073.8	293.45
4097.32	292.296
4120.98	291.148
4144.77	290.008
4168.69	288.874
4192.76	287.746
4216.97	286.625
4241.31	285.511
4265.8	284.403
4290.42	283.301
4315.19	282.205
4340.1	281.116
4365.16	280.032
4390.36	278.954
4415.7	277.881
4441.2	276.815
4466.84	275.753
4492.62	274.697
4518.56	273.646
4544.65	272.599
4570.88	271.558
4597.27	270.44
4623.81	269.323
4650.5	268.211
4677.35	267.104
4704.35	266.001
4731.51	264.902
4758.83	263.807
4786.3	262.716
4813.93	261.644
4841.72	260.592
4869.68	259.542
4897.79	258.497
4926.06	257.454
4954.5	256.416
4983.1	255.381
5011.87	254.35
5040.81	253.322
5069.91	252.298
5099.18	251.279
5128.61	250.263
5158.22	249.251
5188	248.242
5217.95	247.238
5248.07	246.238
5278.37	245.243
5308.84	244.251
5339.49	243.263
5370.32	242.28
5401.32	241.301
5432.5	240.327
5463.87	239.356
5495.41	238.391
5527.13	237.429
5559.04	236.472
5591.14	235.52
5623.41	234.572
5655.88	233.629
5688.53	232.691
5721.37	231.757
5754.4	230.828
5787.62	229.903
5821.03	228.984
5854.64	228.069
5888.44	227.159
5922.43	226.254
5956.62	225.354
5991.01	224.459
6025.6	223.569
6060.38	222.683
6095.37	221.803
6130.56	220.928
6165.95	220.057
6201.55	219.192
6237.35	218.332
6273.36	217.477
6309.57	216.627
6346	215.782
6382.63	214.942
6419.48	214.105
6456.54	213.27
6493.82	212.44
6531.31	211.616
6569.01	210.797
6606.93	209.982
6645.08	209.173
6683.44	208.369
6722.02	207.57
6760.83	206.776
6799.86	205.987
6839.12	205.203
6878.6	204.425
6918.31	203.651
6958.25	202.882
6998.42	202.119
7038.82	201.36
7079.46	200.606
7120.33	199.857
7161.43	199.113
7202.78	198.374
7244.36	197.639
7286.18	196.909
7328.25	196.184
7370.55	195.464
7413.1	194.748
7455.9	194.036
7498.94	193.329
7542.23	192.627
7585.78	191.928
7629.57	191.234
7673.61	190.544
7717.92	189.858
7762.47	189.176
7807.28	188.497
7852.36	187.822
7897.69	187.151
7943.28	186.484
7989.14	185.819
8035.26	185.158
8081.65	184.5
8128.31	183.845
8175.23	183.193
8222.43	182.544
8269.9	181.899
8317.64	181.257
8365.66	180.618
8413.95	179.983
8462.53	179.35
8511.38	178.721
8560.52	178.096
8609.94	177.474
8659.64	176.855
8709.64	176.239
8759.92	175.627
8810.49	175.018
8861.35	174.412
8912.51	173.81
8963.96	173.211
9015.71	172.615
9067.76	172.023
9120.11	171.434
9172.76	170.848
9225.71	170.265
9278.97	169.686
9332.54	169.11
9386.42	168.537
9440.61	167.967
9495.11	167.401
9549.93	166.837
9605.06	166.277
9660.51	165.718
9716.28	165.163
9772.37	164.611
9828.79	164.061
9885.53	163.515
9942.6	162.972
10000	162.433
10057.7	161.896
10115.8	161.363
10174.2	160.832
10232.9	160.305
10292	159.781
10351.4	159.261
10411.2	158.743
10471.3	158.229
10531.7	157.718
10592.5	157.211
10653.7	156.706
10715.2	156.205
10777.1	155.707
10839.3	155.212
10901.8	154.72
10964.8	154.232
11028.1	153.747
11091.7	153.264
11155.8	152.785
11220.2	152.31
11285	151.837
11350.1	151.367
11415.6	150.901
11481.5	150.437
11547.8	149.977
11614.5	149.519
11681.5	149.065
11749	148.613
11816.8	148.164
11885	147.718
11953.6	147.275
12022.6	146.835
12092.1	146.397
12161.9	145.962
12232.1	145.53
12302.7	145.099
12373.7	144.672
12445.1	144.247
12517	143.824
12589.3	143.403
12661.9	142.985
12735	142.568
12808.6	142.154
12882.5	141.746
12956.9	141.339
13031.7	140.935
13106.9	140.532
13182.6	140.132
13258.7	139.733
13335.2	139.336
13412.2	138.942
13489.6	138.549
13567.5	138.159
13645.8	137.771
13724.6	137.385
13803.8	137.001
13883.5	136.619
13963.7	136.239
14044.3	135.861
14125.4	135.486
14206.9	135.113
14288.9	134.741
14371.4	134.372
14454.4	134.006
14537.8	133.641
14621.8	133.279
14706.2	132.919
14791.1	132.561
14876.5	132.205
14962.4	131.851
15048.7	131.5
15135.6	131.151
15223	130.804
15310.9	130.459
15399.3	130.117
15488.2	129.777
15577.6	129.438
15667.5	129.102
15758	128.769
15848.9	128.437
15940.4	128.107
16032.5	127.78
16125	127.454
16218.1	127.129
16311.7	126.808
16405.9	126.488
16500.6	126.17
16595.9	125.854
16691.7	125.541
16788	125.23
16885	124.92
16982.4	124.613
17080.5	124.308
17179.1	124.005
17278.3	123.704
17378	123.405
17478.3	123.109
17579.2	122.814
17680.7	122.521
17782.8	122.231
17885.5	121.942
17988.7	121.655
18092.6	121.371
18197	121.088
18302.1	120.807
18407.7	120.529
18514	120.252
18620.9	119.976
18728.4	119.703
18836.5	119.432
18945.2	119.162
19054.6	118.894
19164.6	118.627
19275.2	118.362
19386.5	118.099
19498.4	117.838
19611	117.578
19724.2	117.319
19838.1	117.063
19952.6	116.808
20067.8	116.554
20183.7	116.303
20300.2	116.053
20417.4	115.804
20535.3	115.557
20653.8	115.312
20773	115.069
20893	114.827
21013.6	114.587
21134.9	114.348
21256.9	114.111
21379.6	113.876
21503	113.643
21627.2	113.41
21752	113.18
21877.6	112.951
22003.9	112.724
22130.9	112.498
22258.7	112.274
22387.2	112.051
22516.5	111.83
22646.4	111.61
22777.2	111.392
22908.7	111.176
23040.9	110.961
23173.9	110.747
23307.7	110.535
23442.3	110.324
23577.6	110.115
23713.7	109.908
23850.6	109.701
23988.3	109.497
24126.8	109.294
24266.1	109.092
24406.2	108.892
24547.1	108.693
24688.8	108.496
24831.3	108.3
24974.7	108.106
25118.9	107.913
25263.9	107.721
25409.7	107.531
25556.4	107.342
25704	107.155
25852.3	106.969
26001.6	106.784
26151.7	106.6
26302.7	106.418
26454.5	106.237
26607.3	106.058
26760.9	105.88
26915.3	105.703
27070.7	105.527
27227	105.353
27384.2	105.18
27542.3	105.009
27701.3	104.838
27861.2	104.669
28022.1	104.501
28183.8	104.335
28346.5	104.169
28510.2	104.005
28674.8	103.842
28840.3	103.68
29006.8	103.52
29174.3	103.36
29342.7	103.202
29512.1	103.044
29682.5	102.888
29853.8	102.733
30026.2	102.579
30199.5	102.426
30373.9	102.273
30549.2	102.122
30725.6	101.972
30903	101.822
31081.4	101.674
31260.8	101.526
31441.3	101.379
31622.8	101.232
31805.3	101.086
31989	100.941
32173.6	100.791
32359.4	100.642
32546.2	100.495
32734.1	100.348
32923	100.202
33113.1	100.058
33304.3	99.9146
33496.5	99.7723
33689.9	99.6312
33884.4	99.4912
34080	99.3523
34276.8	99.2144
34474.7	99.0776
34673.7	98.9419
34873.9	98.8073
35075.2	98.6737
35277.7	98.5412
35481.3	98.4097
35686.2	98.2793
35892.2	98.1499
36099.4	98.0215
36307.8	97.8942
36517.4	97.7678
36728.2	97.6425
36940.3	97.5182
37153.5	97.3949
37368	97.2726
37583.7	97.1513
37800.7	97.031
38018.9	96.9117
38238.4	96.7933
38459.2	96.6759
38681.2	96.5595
38904.5	96.444
39129.1	96.3295
39355	96.2159
39582.2	96.1032
39810.7	95.9915
40040.5	95.8808
40271.7	95.7709
40504.2	95.662
40738	95.554
40973.2	95.4469
41209.8	95.3407
41447.7	95.2354
41686.9	95.131
41927.6	95.0275
42169.7	94.9249
42413.1	94.8232
42658	94.7223
42904.2	94.6223
43151.9	94.5232
43401	94.4249
43651.6	94.3275
43903.6	94.2309
44157	94.1352
44412	94.0403
44668.4	93.9462
44926.2	93.853
45185.6	93.7606
45446.5	93.669
45708.8	93.5783
45972.7	93.4883
46238.1	93.3992
46505	93.3108
46773.5	93.2233
47043.5	93.1365
47315.1	93.0506
47588.3	92.9654
47863	92.881
48139.3	92.7973
48417.2	92.7144
48696.8	92.6323
48977.9	92.551
49260.6	92.4704
49545	92.3906
49831	92.3115
50118.7	92.2331
50408.1	92.1555
50699.1	92.0786
50991.8	92.0024
51286.1	91.927
51582.2	91.8523
51880	91.7783
52179.5	91.705
52480.7	91.6324
52783.7	91.5605
53088.4	91.4894
53394.9	91.4189
53703.2	91.3491
54013.2	91.28
54325	91.2115
54638.7	91.1438
54954.1	91.0767
55271.3	91.0102
55590.4	90.9445
55911.4	90.8794
56234.1	90.815
56558.8	90.7512
56885.3	90.688
57213.7	90.6255
57544	90.5637
57876.2	90.5025
58210.3	90.4419
58546.4	90.3819
58884.4	90.3226
59224.3	90.2638
59566.2	90.2057
59910.1	90.1482
60256	90.0914
60603.8	90.0351
60953.7	89.9794
61305.6	89.9243
61659.5	89.8698
62015.5	89.8159
62373.5	89.7626
62733.6	89.7099
63095.7	89.6577
63460	89.6061
63826.3	89.5551
64194.8	89.5047
64565.4	89.4548
64938.2	89.4054
65313.1	89.3567
65690.1	89.3084
66069.3	89.2608
66450.8	89.2136
66834.4	89.167
67220.2	89.121
67608.3	89.0755
67998.6	89.0305
68391.2	88.986
68786	88.9421
69183.1	88.8987
69582.5	88.8558
69984.2	88.8134
70388.2	88.7715
70794.6	88.7301
71203.3	88.6892
71614.3	88.6489
72027.8	88.609
72443.6	88.5696
72861.8	88.5307
73282.5	88.4923
73705.5	88.4544
74131	88.4169
74559	88.3799
74989.4	88.3434
75422.3	88.3074
75857.8	88.2718
76295.7	88.2367
76736.1	88.2021
77179.2	88.1679
77624.7	88.1341
78072.8	88.1008
78523.6	88.068
78976.9	88.0356
79432.8	88.0036
79891.4	87.9721
80352.6	87.941
80816.5	87.9103
81283.1	87.8801
81752.3	87.8503
82224.3	87.8209
82699	87.7919
83176.4	87.7634
83656.6	87.7352
84139.5	87.7075
84625.3	87.6802
85113.8	87.6533
85605.2	87.6267
86099.4	87.6006
86596.4	87.5749
87096.4	87.5496
87599.2	87.5246
88104.9	87.5
88613.5	87.4759
89125.1	87.4521
89639.6	87.4287
90157.1	87.4056
90677.6	87.3829
91201.1	87.3606
91727.6	87.3387
92257.1	87.3171
92789.7	87.2959
93325.4	87.275
93864.2	87.2545
94406.1	87.2344
94951.1	87.2146
95499.3	87.1951
96050.6	87.176
96605.1	87.1573
97162.8	87.1388
97723.7	87.1207
98287.9	87.103
98855.3	87.0855
99426	87.0684
100000	87.0517
100577	87.0352
101158	87.0191
101742	87.0033
102329	86.9878
102920	86.9726
103514	86.9577
104112	86.9432
104713	86.9289
105317	86.915
105925	86.9013
106537	86.888
107152	86.8749
107771	86.8621
108393	86.8497
109018	86.8375
109648	86.8256
110281	86.814
110917	86.8026
111558	86.7916
112202	86.7808
112850	86.7703
113501	86.7601
114156	86.7501
114815	86.7404
115478	86.731
116145	86.7218
116815	86.7129
117490	86.7043
118168	86.6959
118850	86.6878
119536	86.6799
120226	86.6723
120921	86.6649
121619	86.6577
122321	86.6508
123027	86.6442
123737	86.6378
124451	86.6316
125170	86.6257
125893	86.6199
126619	86.6145
127350	86.6092
128086	86.6042
128825	86.5994
129569	86.5948
130317	86.5905
131069	86.5863
131826	86.5824
132587	86.5787
133352	86.5752
134122	86.5719
134896	86.5688
135675	86.566
136458	86.5633
137246	86.5609
138038	86.5586
138835	86.5565
139637	86.5547
140443	86.553
141254	86.5515
142069	86.5502
142889	86.5492
143714	86.5482
144544	86.5475
145378	86.547
146218	86.5466
147062	86.5465
147911	86.5465
148765	86.5467
149624	86.547
150487	86.5475
151356	86.5483
152230	86.5491
153109	86.5502
153993	86.5514
154882	86.5528
155776	86.5543
156675	86.556
157580	86.5579
158489	86.5599
159404	86.562
160325	86.5644
161250	86.5669
162181	86.5695
163117	86.5723
164059	86.5752
165006	86.5783
165959	86.5815
166917	86.5849
167880	86.5884
168850	86.5921
169824	86.5959
170805	86.5998
171791	86.6039
172783	86.6081
173780	86.6124
174783	86.6169
175792	86.6215
176807	86.6262
177828	86.6311
178855	86.6361
179887	86.6412
180926	86.6464
181970	86.6517
183021	86.6572
184077	86.6628
185140	86.6685
186209	86.6743
187284	86.6803
188365	86.6863
189452	86.6925
190546	86.6988
191646	86.7052
192752	86.7117
193865	86.7183
194984	86.725
196110	86.7318
197242	86.7387
198381	86.7457
199526	86.7528
200678	86.7601
201837	86.7674
203002	86.7748
204174	86.7823
205353	86.7899
206538	86.7976
207730	86.8054
208930	86.8133
210136	86.8212
211349	86.8293
212569	86.8374
213796	86.8457
215030	86.854
216272	86.8624
217520	86.8709
218776	86.8794
220039	86.8881
221309	86.8968
222587	86.9056
223872	86.9145
225165	86.9234
226464	86.9325
227772	86.9416
229087	86.9507
230409	86.96
231739	86.9693
233077	86.9787
234423	86.9882
235776	86.9977
237137	87.0073
238506	87.0169
239883	87.0267
241268	87.0365
242661	87.0463
244062	87.0562
245471	87.0662
246888	87.0762
248313	87.0863
249747	87.0965
251189	87.1067
252639	87.1169
254097	87.1272
255564	87.1376
257040	87.148
258523	87.1585
260016	87.169
261517	87.1796
263027	87.1902
264545	87.2009
266073	87.2116
267609	87.2224
269153	87.2332
270707	87.2441
272270	87.255
273842	87.266
275423	87.277
277013	87.288
278612	87.2991
280221	87.3102
281838	87.3214
283465	87.3326
285102	87.3438
286748	87.3551
288403	87.3664
290068	87.3777
291743	87.3891
293427	87.4005
295121	87.412
296825	87.4235
298538	87.435
300262	87.4465
301995	87.4581
303739	87.4697
305492	87.4813
307256	87.493
309030	87.5047
310814	87.5164
312608	87.5282
314413	87.5399
316228	87.5517
318053	87.5636
319890	87.5754
321736	87.5873
323594	87.5992
325462	87.6111
327341	87.623
329230	87.635
331131	87.6469
333043	87.6589
334965	87.671
336899	87.683
338844	87.695
340800	87.7071
342768	87.7192
344747	87.7313
346737	87.7434
348739	87.7555
350752	87.7677
352777	87.7798
354813	87.792
356862	87.8042
358922	87.8164
360994	87.8286
363078	87.8408
365174	87.853
367282	87.8652
369403	87.8775
371535	87.8897
373680	87.902
375837	87.9143
378007	87.9265
380189	87.9388
382384	87.9511
384592	87.9634
386812	87.9757
389045	87.988
391291	88.0003
393550	88.0126
395822	88.0249
398107	88.0373
400405	88.0496
402717	88.0619
405042	88.0742
407380	88.0866
409732	88.0989
412098	88.1112
414477	88.1235
416869	88.1358
419276	88.1482
421697	88.1605
424131	88.1728
426580	88.1851
429042	88.1974
431519	88.2097
434010	88.2221
436516	88.2344
439036	88.2467
441570	88.2589
444120	88.2712
446684	88.2835
449262	88.2958
451856	88.3081
454465	88.3203
457088	88.3326
459727	88.3448
462381	88.3571
465050	88.3693
467735	88.3815
470435	88.3937
473151	88.406
475883	88.4182
478630	88.4303
481393	88.4425
484172	88.4547
486968	88.4668
489779	88.479
492606	88.4911
495450	88.5032
498310	88.5153
501187	88.5274
504081	88.5395
506991	88.5516
509918	88.5637
512861	88.5757
515822	88.5877
518800	88.5998
521795	88.6118
524807	88.6237
527837	88.6357
530884	88.6477
533949	88.6596
537032	88.6715
540132	88.6835
543250	88.6954
546387	88.7072
549541	88.7191
552713	88.7309
555904	88.7428
559114	88.7546
562341	88.7664
565588	88.7781
568853	88.7899
572137	88.8016
575440	88.8134
578762	88.8251
582103	88.8367
585464	88.8484
588844	88.86
592243	88.8717
595662	88.8833
599101	88.8948
602560	88.9064
606038	88.9179
609537	88.9295
613056	88.941
616595	88.9524
620155	88.9639
623735	88.9753
627336	88.9868
630957	88.9981
634600	89.0095
638263	89.0209
641948	89.0322
645654	89.0435
649382	89.0548
653131	89.066
656901	89.0773
660693	89.0885
664508	89.0997
668344	89.1108
672202	89.122
676083	89.1331
679986	89.1442
683912	89.1552
687860	89.1663
691831	89.1773
695825	89.1883
699842	89.1993
703882	89.2102
707946	89.2211
712033	89.232
716143	89.2429
720278	89.2537
724436	89.2645
728618	89.2753
732825	89.2861
737055	89.2968
741310	89.3075
745590	89.3182
749894	89.3289
754223	89.3395
758578	89.3501
762957	89.3607
767361	89.3713
771792	89.3818
776247	89.3923
780728	89.4028
785236	89.4132
789769	89.4236
794328	89.434
798914	89.4444
803526	89.4547
808165	89.465
812831	89.4753
817523	89.4855
822243	89.4958
826990	89.506
831764	89.5161
836566	89.5263
841395	89.5364
846253	89.5465
851138	89.5565
856052	89.5665
860994	89.5765
865964	89.5865
870964	89.5964
875992	89.6064
881049	89.6162
886135	89.6261
891251	89.6359
896396	89.6457
901571	89.6555
906776	89.6652
912011	89.6749
917276	89.6846
922571	89.6942
927897	89.7038
933254	89.7134
938642	89.723
944061	89.7325
949511	89.742
954993	89.7515
960506	89.7609
966051	89.7703
971628	89.7797
977237	89.7891
982879	89.7984
988553	89.8077
994260	89.8169
1e+06	89.8262
1.00577e+06	89.8354
1.01158e+06	89.8445
1.01742e+06	89.8537
1.02329e+06	89.8628
1.0292e+06	89.8718
1.03514e+06	89.8809
1.04112e+06	89.8899
1.04713e+06	89.8989
1.05317e+06	89.9079
1.05925e+06	89.9168
1.06537e+06	89.9257
1.07152e+06	89.9345
1.07771e+06	89.9434
1.08393e+06	89.9522
1.09018e+06	89.9609
1.09648e+06	89.9697
1.10281e+06	89.9784
1.10917e+06	89.9871
1.11558e+06	89.9957
1.12202e+06	90.0044
1.1285e+06	90.0129
1.13501e+06	90.0215
1.14156e+06	90.03
1.14815e+06	90.0385
1.15478e+06	90.047
1.16145e+06	90.0554
1.16815e+06	90.0638
1.1749e+06	90.0722
1.18168e+06	90.0806
1.1885e+06	90.0889
1.19536e+06	90.0972
1.20226e+06	90.1054
1.20921e+06	90.1136
1.21619e+06	90.1218
1.22321e+06	90.13
1.23027e+06	90.1381
1.23737e+06	90.1462
1.24451e+06	90.1543
1.2517e+06	90.1623
1.25893e+06	90.1703
1.26619e+06	90.1783
1.2735e+06	90.1862
1.28086e+06	90.1941
1.28825e+06	90.202
1.29569e+06	90.2099
1.30317e+06	90.2177
1.31069e+06	90.2255
1.31826e+06	90.2332
1.32587e+06	90.241
1.33352e+06	90.2487
1.34122e+06	90.2563
1.34896e+06	90.264
1.35675e+06	90.2716
1.36458e+06	90.2792
1.37246e+06	90.2867
1.38038e+06	90.2942
1.38835e+06	90.3017
1.39637e+06	90.3092
1.40443e+06	90.3166
1.41254e+06	90.324
1.42069e+06	90.3313
1.42889e+06	90.3387
1.43714e+06	90.346
1.44544e+06	90.3533
1.45378e+06	90.3605
1.46218e+06	90.3677
1.47062e+06	90.3749
1.47911e+06	90.382
1.48765e+06	90.3892
1.49624e+06	90.3962
1.50487e+06	90.4033
1.51356e+06	90.4103
1.5223e+06	90.4173
1.53109e+06	90.4243
1.53993e+06	90.4312
1.54882e+06	90.4381
1.55776e+06	90.445
1.56675e+06	90.4519
1.5758e+06	90.4587
1.58489e+06	90.4655
1.59404e+06	90.4722
1.60325e+06	90.479
1.6125e+06	90.4857
1.62181e+06	90.4923
1.63117e+06	90.499
1.64059e+06	90.5056
1.65006e+06	90.5122
1.65959e+06	90.5187
1.66917e+06	90.5252
1.6788e+06	90.5317
1.6885e+06	90.5382
1.69824e+06	90.5446
1.70805e+06	90.551
1.71791e+06	90.5574
1.72783e+06	90.5637
1.7378e+06	90.5701
1.74783e+06	90.5763
1.75792e+06	90.5826
1.76807e+06	90.5888
1.77828e+06	90.595
1.78855e+06	90.6012
1.79887e+06	90.6073
1.80926e+06	90.6134
1.8197e+06	90.6195
1.83021e+06	90.6256
1.84077e+06	90.6316
1.8514e+06	90.6376
1.86209e+06	90.6436
1.87284e+06	90.6495
1.88365e+06	90.6554
1.89452e+06	90.6613
1.90546e+06	90.6671
1.91646e+06	90.673
1.92752e+06	90.6788
1.93865e+06	90.6845
1.94984e+06	90.6903
1.9611e+06	90.696
1.97242e+06	90.7016
1.98381e+06	90.7073
1.99526e+06	90.7129
2.00678e+06	90.7185
2.01837e+06	90.7241
2.03002e+06	90.7296
2.04174e+06	90.7351
2.05353e+06	90.7406
2.06538e+06	90.7461
2.0773e+06	90.7515
2.0893e+06	90.7569
2.10136e+06	90.7623
2.11349e+06	90.7676
2.12569e+06	90.7729
2.13796e+06	90.7782
2.1503e+06	90.7835
2.16272e+06	90.7887
2.1752e+06	90.7939
2.18776e+06	90.7991
2.20039e+06	90.8043
2.21309e+06	90.8094
2.22587e+06	90.8145
2.23872e+06	90.8196
2.25165e+06	90.8246
2.26464e+06	90.8296
2.27772e+06	90.8346
2.29087e+06	90.8396
2.30409e+06	90.8445
2.31739e+06	90.8494
2.33077e+06	90.8543
2.34423e+06	90.8592
2.35776e+06	90.864
2.37137e+06	90.8688
2.38506e+06	90.8736
2.39883e+06	90.8783
2.41268e+06	90.8831
2.42661e+06	90.8878
2.44062e+06	90.8924
2.45471e+06	90.8971
2.46888e+06	90.9017
2.48313e+06	90.9063
2.49747e+06	90.9109
2.51189e+06	90.9154
2.52639e+06	90.9199
2.54097e+06	90.9244
2.55564e+06	90.9289
2.5704e+06	90.9333
2.58523e+06	90.9377
2.60016e+06	90.9421
2.61517e+06	90.9465
2.63027e+06	90.9508
2.64545e+06	90.9551
2.66073e+06	90.9594
2.67609e+06	90.9637
2.69153e+06	90.9679
2.70707e+06	90.9721
2.7227e+06	90.9763
2.73842e+06	90.9805
2.75423e+06	90.9846
2.77013e+06	90.9887
2.78612e+06	90.9928
2.80221e+06	90.9969
2.81838e+06	91.0009
2.83465e+06	91.0049
2.85102e+06	91.0089
2.86748e+06	91.0129
2.88403e+06	91.0168
2.90068e+06	91.0207
2.91743e+06	91.0246
2.93427e+06	91.0285
2.95121e+06	91.0324
2.96825e+06	91.0362
2.98538e+06	91.04
3.00262e+06	91.0438
3.01995e+06	91.0475
3.03739e+06	91.0512
3.05492e+06	91.0549
3.07256e+06	91.0586
3.0903e+06	91.0623
3.10814e+06	91.0659
3.12608e+06	91.0695
3.14413e+06	91.0731
3.16228e+06	91.0767
3.18053e+06	91.0802
3.1989e+06	91.0837
3.21736e+06	91.0872
3.23594e+06	91.0907
3.25462e+06	91.0941
3.27341e+06	91.0976
3.2923e+06	91.101
3.31131e+06	91.1044
3.33043e+06	91.1077
3.34965e+06	91.1111
3.36899e+06	91.1144
3.38844e+06	91.1177
3.408e+06	91.1209
3.42768e+06	91.1242
3.44747e+06	91.1274
3.46737e+06	91.1306
3.48739e+06	91.1338
3.50752e+06	91.1369
3.52777e+06	91.1401
3.54813e+06	91.1432
3.56862e+06	91.1463
3.58922e+06	91.1494
3.60994e+06	91.1524
3.63078e+06	91.1555
3.65174e+06	91.1585
3.67282e+06	91.1615
3.69403e+06	91.1644
3.71535e+06	91.1674
3.7368e+06	91.1703
3.75837e+06	91.1732
3.78007e+06	91.1761
3.80189e+06	91.179
3.82384e+06	91.1818
3.84592e+06	91.1846
3.86812e+06	91.1874
3.89045e+06	91.1902
3.91291e+06	91.193
3.9355e+06	91.1957
3.95822e+06	91.1984
3.98107e+06	91.2011
4.00405e+06	91.2038
4.02717e+06	91.2065
4.05042e+06	91.2091
4.0738e+06	91.2117
4.09732e+06	91.2143
4.12098e+06	91.2169
4.14477e+06	91.2195
4.16869e+06	91.222
4.19276e+06	91.2245
4.21697e+06	91.227
4.24131e+06	91.2295
4.2658e+06	91.232
4.29042e+06	91.2344
4.31519e+06	91.2369
4.3401e+06	91.2393
4.36516e+06	91.2417
4.39036e+06	91.244
4.4157e+06	91.2464
4.4412e+06	91.2487
4.46684e+06	91.251
4.49262e+06	91.2533
4.51856e+06	91.2556
4.54465e+06	91.2579
4.57088e+06	91.2601
4.59727e+06	91.2623
4.62381e+06	91.2645
4.6505e+06	91.2667
4.67735e+06	91.2689
4.70435e+06	91.271
4.73151e+06	91.2732
4.75883e+06	91.2753
4.7863e+06	91.2774
4.81393e+06	91.2794
4.84172e+06	91.2815
4.86968e+06	91.2835
4.89779e+06	91.2856
4.92606e+06	91.2876
4.9545e+06	91.2896
4.9831e+06	91.2916
5.01187e+06	91.2935
5.04081e+06	91.2955
5.06991e+06	91.2974
5.09918e+06	91.2993
5.12861e+06	91.3012
5.15822e+06	91.303
5.188e+06	91.3049
5.21795e+06	91.3067
5.24807e+06	91.3086
5.27837e+06	91.3104
5.30884e+06	91.3122
5.33949e+06	91.3139
5.37032e+06	91.3157
5.40132e+06	91.3174
5.4325e+06	91.3192
5.46387e+06	91.3209
5.49541e+06	91.3226
5.52713e+06	91.3243
5.55904e+06	91.3259
5.59114e+06	91.3276
5.62341e+06	91.3292
5.65588e+06	91.3308
5.68853e+06	91.3324
5.72137e+06	91.334
5.7544e+06	91.3356
5.78762e+06	91.3371
5.82103e+06	91.3387
5.85464e+06	91.3402
5.88844e+06	91.3417
5.92243e+06	91.3432
5.95662e+06	91.3447
5.99101e+06	91.3462
6.0256e+06	91.3476
6.06038e+06	91.3491
6.09537e+06	91.3505
6.13056e+06	91.3519
6.16595e+06	91.3533
6.20155e+06	91.3547
6.23735e+06	91.3561
6.27336e+06	91.3574
6.30957e+06	91.3587
6.346e+06	91.3601
6.38263e+06	91.3614
6.41948e+06	91.3627
6.45654e+06	91.364
6.49382e+06	91.3652
6.53131e+06	91.3665
6.56901e+06	91.3677
6.60693e+06	91.369
6.64508e+06	91.3702
6.68344e+06	91.3714
6.72202e+06	91.3726
6.76083e+06	91.3738
6.79986e+06	91.3749
6.83912e+06	91.3761
6.8786e+06	91.3772
6.91831e+06	91.3783
6.95825e+06	91.3795
6.99842e+06	91.3806
7.03882e+06	91.3817
7.07946e+06	91.3827
7.12033e+06	91.3838
7.16143e+06	91.3848
7.20278e+06	91.3859
7.24436e+06	91.3869
7.28618e+06	91.3879
7.32825e+06	91.3889
7.37055e+06	91.3899
7.4131e+06	91.3909
7.4559e+06	91.3919
7.49894e+06	91.3928
7.54223e+06	91.3938
7.58578e+06	91.3947
7.62957e+06	91.3956
7.67361e+06	91.3965
7.71792e+06	91.3974
7.76247e+06	91.3983
7.80728e+06	91.3992
7.85236e+06	91.4001
7.89769e+06	91.4009
7.94328e+06	91.4018
7.98914e+06	91.4026
8.03526e+06	91.4034
8.08165e+06	91.4042
8.12831e+06	91.405
8.17523e+06	91.4058
8.22243e+06	91.4066
8.2699e+06	91.4074
8.31764e+06	91.4081
8.36566e+06	91.4089
8.41395e+06	91.4096
8.46253e+06	91.4104
8.51138e+06	91.4111
8.56052e+06	91.4118
8.60994e+06	91.4125
8.65964e+06	91.4132
8.70964e+06	91.4139
8.75992e+06	91.4145
8.81049e+06	91.4152
8.86135e+06	91.4158
8.91251e+06	91.4165
8.96396e+06	91.4171
9.01571e+06	91.4177
9.06776e+06	91.4184
9.12011e+06	91.419
9.17276e+06	91.4196
9.22571e+06	91.4201
9.27897e+06	91.4207
9.33254e+06	91.4213
9.38642e+06	91.4219
9.44061e+06	91.4224
9.49511e+06	91.423
9.54993e+06	91.4235
9.60506e+06	91.424
9.66051e+06	91.4245
9.71628e+06	91.425
9.77237e+06	91.4255
9.82879e+06	91.426
9.88553e+06	91.4265
9.9426e+06	91.427
1e+07	91.4275
