Stopping power dEdx from Ionisation for Sc45[0.0] Z = 21 in G4_TISSUE_SOFT_ICRP, process name: ionIoni
E [MeV]	dEdx [MeV/mm]
0.001	64.6805
0.00100577	64.867
0.00101158	65.0539
0.00101742	65.2415
0.00102329	65.4295
0.0010292	65.6181
0.00103514	65.8072
0.00104112	65.9969
0.00104713	66.1871
0.00105317	66.3779
0.00105925	66.5692
0.00106537	66.7611
0.00107152	66.9536
0.00107771	67.1465
0.00108393	67.3401
0.00109018	67.5342
0.00109648	67.7288
0.00110281	67.9241
0.00110917	68.1198
0.00111558	68.3162
0.00112202	68.5131
0.0011285	68.7106
0.00113501	68.9086
0.00114156	69.1073
0.00114815	69.3064
0.00115478	69.5062
0.00116145	69.7066
0.00116815	69.9075
0.0011749	70.109
0.00118168	70.3111
0.0011885	70.5137
0.00119536	70.717
0.00120226	70.9208
0.00120921	71.1252
0.00121619	71.3302
0.00122321	71.5358
0.00123027	71.742
0.00123737	71.9488
0.00124451	72.1562
0.0012517	72.3642
0.00125893	72.5728
0.00126619	72.7819
0.0012735	72.9917
0.00128086	73.2021
0.00128825	73.4131
0.00129569	73.6247
0.00130317	73.8369
0.00131069	74.0498
0.00131826	74.2632
0.00132587	74.4773
0.00133352	74.6919
0.00134122	74.9072
0.00134896	75.1231
0.00135675	75.3397
0.00136458	75.5568
0.00137246	75.7746
0.00138038	75.993
0.00138835	76.2121
0.00139637	76.4317
0.00140443	76.652
0.00141254	76.873
0.00142069	77.0945
0.00142889	77.3168
0.00143714	77.5396
0.00144544	77.7631
0.00145378	77.9873
0.00146218	78.212
0.00147062	78.4375
0.00147911	78.6636
0.00148765	78.8903
0.00149624	79.1177
0.00150487	79.3457
0.00151356	79.5744
0.0015223	79.8038
0.00153109	80.0338
0.00153993	80.2645
0.00154882	80.4959
0.00155776	80.7279
0.00156675	80.9606
0.0015758	81.1939
0.00158489	81.428
0.00159404	81.6627
0.00160325	81.8981
0.0016125	82.1341
0.00162181	82.3709
0.00163117	82.6083
0.00164059	82.8464
0.00165006	83.0852
0.00165959	83.3247
0.00166917	83.5649
0.0016788	83.8057
0.0016885	84.0473
0.00169824	84.2895
0.00170805	84.5325
0.00171791	84.7761
0.00172783	85.0205
0.0017378	85.2656
0.00174783	85.5113
0.00175792	85.7578
0.00176807	86.005
0.00177828	86.2529
0.00178855	86.5015
0.00179887	86.7508
0.00180926	87.0009
0.0018197	87.2516
0.00183021	87.5031
0.00184077	87.7554
0.0018514	88.0083
0.00186209	88.262
0.00187284	88.5164
0.00188365	88.7715
0.00189452	89.0274
0.00190546	89.284
0.00191646	89.5414
0.00192752	89.7994
0.00193865	90.0583
0.00194984	90.3179
0.0019611	90.5782
0.00197242	90.8393
0.00198381	91.1011
0.00199526	91.3637
0.00200678	91.627
0.00201837	91.8911
0.00203002	92.156
0.00204174	92.4216
0.00205353	92.688
0.00206538	92.9552
0.0020773	93.2231
0.0020893	93.4918
0.00210136	93.7613
0.00211349	94.0316
0.00212569	94.3026
0.00213796	94.5744
0.0021503	94.847
0.00216272	95.1204
0.0021752	95.3946
0.00218776	95.6695
0.00220039	95.9453
0.00221309	96.2218
0.00222587	96.4992
0.00223872	96.7773
0.00225165	97.0563
0.00226464	97.336
0.00227772	97.6166
0.00229087	97.898
0.00230409	98.1801
0.00231739	98.4631
0.00233077	98.7469
0.00234423	99.0316
0.00235776	99.317
0.00237137	99.6033
0.00238506	99.8904
0.00239883	100.178
0.00241268	100.467
0.00242661	100.757
0.00244062	101.047
0.00245471	101.338
0.00246888	101.63
0.00248313	101.923
0.00249747	102.217
0.00251189	102.512
0.00252639	102.807
0.00254097	103.104
0.00255564	103.401
0.0025704	103.699
0.00258523	103.998
0.00260016	104.297
0.00261517	104.598
0.00263027	104.9
0.00264545	105.202
0.00266073	105.505
0.00267609	105.809
0.00269153	106.114
0.00270707	106.42
0.0027227	106.727
0.00273842	107.034
0.00275423	107.343
0.00277013	107.652
0.00278612	107.963
0.00280221	108.274
0.00281838	108.586
0.00283465	108.899
0.00285102	109.213
0.00286748	109.528
0.00288403	109.843
0.00290068	110.16
0.00291743	110.477
0.00293427	110.796
0.00295121	111.115
0.00296825	111.436
0.00298538	111.757
0.00300262	112.079
0.00301995	112.402
0.00303739	112.726
0.00305492	113.051
0.00307256	113.377
0.0030903	113.703
0.00310814	114.031
0.00312608	114.36
0.00314413	114.689
0.00316228	115.02
0.00318053	115.352
0.0031989	115.684
0.00321736	116.018
0.00323594	116.352
0.00325462	116.687
0.00327341	117.024
0.0032923	117.361
0.00331131	117.699
0.00333043	118.038
0.00334965	118.379
0.00336899	118.72
0.00338844	119.062
0.003408	119.405
0.00342768	119.749
0.00344747	120.095
0.00346737	120.441
0.00348739	120.788
0.00350752	121.136
0.00352777	121.485
0.00354813	121.835
0.00356862	122.187
0.00358922	122.539
0.00360994	122.892
0.00363078	123.246
0.00365174	123.601
0.00367282	123.958
0.00369403	124.315
0.00371535	124.673
0.0037368	125.033
0.00375837	125.393
0.00378007	125.755
0.00380189	126.117
0.00382384	126.481
0.00384592	126.845
0.00386812	127.211
0.00389045	127.577
0.00391291	127.945
0.0039355	128.314
0.00395822	128.684
0.00398107	129.055
0.00400405	129.427
0.00402717	129.8
0.00405042	130.174
0.0040738	130.549
0.00409732	130.925
0.00412098	131.303
0.00414477	131.681
0.00416869	132.061
0.00419276	132.441
0.00421697	132.823
0.00424131	133.206
0.0042658	133.59
0.00429042	133.975
0.00431519	134.361
0.0043401	134.748
0.00436516	135.137
0.00439036	135.526
0.0044157	135.917
0.0044412	136.309
0.00446684	136.702
0.00449262	137.096
0.00451856	137.491
0.00454465	137.887
0.00457088	138.285
0.00459727	138.683
0.00462381	139.083
0.0046505	139.484
0.00467735	139.886
0.00470435	140.289
0.00473151	140.693
0.00475883	141.099
0.0047863	141.506
0.00481393	141.913
0.00484172	142.323
0.00486968	142.733
0.00489779	143.144
0.00492606	143.557
0.0049545	143.971
0.0049831	144.386
0.00501187	144.802
0.00504081	145.219
0.00506991	145.638
0.00509918	146.057
0.00512861	146.478
0.00515822	146.901
0.005188	147.324
0.00521795	147.749
0.00524807	148.175
0.00527837	148.602
0.00530884	149.03
0.00533949	149.46
0.00537032	149.89
0.00540132	150.322
0.0054325	150.756
0.00546387	151.19
0.00549541	151.626
0.00552713	152.063
0.00555904	152.501
0.00559114	152.941
0.00562341	153.382
0.00565588	153.824
0.00568853	154.267
0.00572137	154.712
0.0057544	155.158
0.00578762	155.605
0.00582103	156.054
0.00585464	156.503
0.00588844	156.954
0.00592243	157.407
0.00595662	157.861
0.00599101	158.316
0.0060256	158.772
0.00606038	159.23
0.00609537	159.689
0.00613056	160.149
0.00616595	160.61
0.00620155	161.073
0.00623735	161.538
0.00627336	162.003
0.00630957	162.47
0.006346	162.938
0.00638263	163.408
0.00641948	163.879
0.00645654	164.351
0.00649382	164.825
0.00653131	165.3
0.00656901	165.777
0.00660693	166.255
0.00664508	166.734
0.00668344	167.214
0.00672202	167.696
0.00676083	168.18
0.00679986	168.664
0.00683912	169.151
0.0068786	169.638
0.00691831	170.127
0.00695825	170.618
0.00699842	171.109
0.00703882	171.603
0.00707946	172.097
0.00712033	172.593
0.00716143	173.091
0.00720278	173.59
0.00724436	174.09
0.00728618	174.592
0.00732825	175.095
0.00737055	175.6
0.0074131	176.106
0.0074559	176.613
0.00749894	177.122
0.00754223	177.633
0.00758578	178.145
0.00762957	178.658
0.00767361	179.173
0.00771792	179.69
0.00776247	180.208
0.00780728	180.727
0.00785236	181.248
0.00789769	181.771
0.00794328	182.295
0.00798914	182.82
0.00803526	183.347
0.00808165	183.875
0.00812831	184.405
0.00817523	184.937
0.00822243	185.47
0.0082699	186.005
0.00831764	186.541
0.00836566	187.078
0.00841395	187.618
0.00846253	188.158
0.00851138	188.701
0.00856052	189.245
0.00860994	189.79
0.00865964	190.337
0.00870964	190.886
0.00875992	191.436
0.00881049	191.988
0.00886135	192.541
0.00891251	193.096
0.00896396	193.653
0.00901571	194.211
0.00906776	194.771
0.00912011	195.332
0.00917276	195.895
0.00922571	196.46
0.00927897	197.026
0.00933254	197.594
0.00938642	198.163
0.00944061	198.735
0.00949511	199.308
0.00954993	199.882
0.00960506	200.458
0.00966051	201.036
0.00971628	201.615
0.00977237	202.197
0.00982879	202.779
0.00988553	203.364
0.0099426	203.95
0.01	204.538
0.0100577	205.127
0.0101158	205.719
0.0101742	206.312
0.0102329	206.906
0.010292	207.503
0.0103514	208.101
0.0104112	208.701
0.0104713	209.302
0.0105317	209.905
0.0105925	210.51
0.0106537	211.117
0.0107152	211.726
0.0107771	212.336
0.0108393	212.948
0.0109018	213.562
0.0109648	214.177
0.0110281	214.795
0.0110917	215.414
0.0111558	216.035
0.0112202	216.657
0.011285	217.27
0.0113501	217.881
0.0114156	218.494
0.0114815	219.108
0.0115478	219.725
0.0116145	220.343
0.0116815	220.963
0.011749	221.585
0.0118168	222.208
0.011885	222.833
0.0119536	223.461
0.0120226	224.09
0.0120921	224.72
0.0121619	225.353
0.0122321	225.987
0.0123027	226.623
0.0123737	227.262
0.0124451	227.901
0.012517	228.543
0.0125893	229.187
0.0126619	229.832
0.012735	230.48
0.0128086	231.129
0.0128825	231.78
0.0129569	232.433
0.0130317	233.087
0.0131069	233.744
0.0131826	234.403
0.0132587	235.063
0.0133352	235.726
0.0134122	236.39
0.0134896	237.056
0.0135675	237.724
0.0136458	238.394
0.0137246	239.066
0.0138038	239.74
0.0138835	240.416
0.0139637	241.094
0.0140443	241.774
0.0141254	242.455
0.0142069	243.139
0.0142889	243.825
0.0143714	244.512
0.0144544	245.202
0.0145378	245.894
0.0146218	246.587
0.0147062	247.283
0.0147911	247.981
0.0148765	248.68
0.0149624	249.382
0.0150487	250.086
0.0151356	250.791
0.015223	251.499
0.0153109	252.209
0.0153993	252.921
0.0154882	253.635
0.0155776	254.351
0.0156675	255.069
0.015758	255.789
0.0158489	256.511
0.0159404	257.235
0.0160325	257.962
0.016125	258.69
0.0162181	259.421
0.0163117	260.153
0.0164059	260.888
0.0165006	261.625
0.0165959	262.364
0.0166917	263.105
0.016788	263.849
0.016885	264.594
0.0169824	265.342
0.0170805	266.092
0.0171791	266.844
0.0172783	267.598
0.017378	268.354
0.0174783	269.113
0.0175792	269.874
0.0176807	270.637
0.0177828	271.402
0.0178855	272.169
0.0179887	272.939
0.0180926	273.71
0.018197	274.484
0.0183021	275.261
0.0184077	276.039
0.018514	276.82
0.0186209	277.603
0.0187284	278.388
0.0188365	279.176
0.0189452	279.966
0.0190546	280.758
0.0191646	281.552
0.0192752	282.349
0.0193865	283.148
0.0194984	283.95
0.019611	284.753
0.0197242	285.559
0.0198381	286.368
0.0199526	287.178
0.0200678	287.991
0.0201837	288.807
0.0203002	289.625
0.0204174	290.445
0.0205353	291.267
0.0206538	292.092
0.020773	292.919
0.020893	293.749
0.0210136	294.581
0.0211349	295.416
0.0212569	296.253
0.0213796	297.092
0.021503	297.934
0.0216272	298.778
0.021752	299.625
0.0218776	300.474
0.0220039	301.326
0.0221309	302.18
0.0222587	303.036
0.0223872	303.895
0.0225165	304.757
0.0226464	305.621
0.0227772	306.487
0.0229087	307.356
0.0230409	308.228
0.0231739	309.102
0.0233077	309.979
0.0234423	310.858
0.0235776	311.74
0.0237137	312.624
0.0238506	313.511
0.0239883	314.4
0.0241268	315.293
0.0242661	316.187
0.0244062	317.084
0.0245471	317.984
0.0246888	318.887
0.0248313	319.792
0.0249747	320.7
0.0251189	321.61
0.0252639	322.523
0.0254097	323.439
0.0255564	324.357
0.025704	325.278
0.0258523	326.202
0.0260016	327.128
0.0261517	328.057
0.0263027	328.989
0.0264545	329.923
0.0266073	330.86
0.0267609	331.8
0.0269153	332.743
0.0270707	333.688
0.027227	334.636
0.0273842	335.587
0.0275423	336.541
0.0277013	337.497
0.0278612	338.457
0.0280221	339.419
0.0281838	340.383
0.0283465	341.351
0.0285102	342.322
0.0286748	343.295
0.0288403	344.271
0.0290068	345.25
0.0291743	346.232
0.0293427	347.216
0.0295121	348.204
0.0296825	349.194
0.0298538	350.187
0.0300262	351.184
0.0301995	352.183
0.0303739	353.185
0.0305492	354.19
0.0307256	355.197
0.030903	356.208
0.0310814	357.222
0.0312608	358.239
0.0314413	359.258
0.0316228	360.281
0.0318053	361.307
0.031989	362.335
0.0321736	363.367
0.0323594	364.401
0.0325462	365.439
0.0327341	366.48
0.032923	367.523
0.0331131	368.57
0.0333043	369.62
0.0334965	370.673
0.0336899	371.729
0.0338844	372.787
0.03408	373.85
0.0342768	374.915
0.0344747	375.983
0.0346737	377.054
0.0348739	378.129
0.0350752	379.207
0.0352777	380.287
0.0354813	381.371
0.0356862	382.459
0.0358922	383.549
0.0360994	384.642
0.0363078	385.739
0.0365174	386.839
0.0367282	387.942
0.0369403	389.048
0.0371535	390.158
0.037368	391.271
0.0375837	392.387
0.0378007	393.506
0.0380189	394.629
0.0382384	395.755
0.0384592	396.884
0.0386812	398.016
0.0389045	399.152
0.0391291	400.291
0.039355	401.434
0.0395822	402.579
0.0398107	403.728
0.0400405	404.881
0.0402717	406.037
0.0405042	407.196
0.040738	408.359
0.0409732	409.525
0.0412098	410.694
0.0414477	411.867
0.0416869	413.043
0.0419276	414.223
0.0421697	415.406
0.0424131	416.593
0.042658	417.783
0.0429042	418.976
0.0431519	420.174
0.043401	421.374
0.0436516	422.578
0.0439036	423.786
0.044157	424.997
0.044412	426.212
0.0446684	427.43
0.0449262	428.652
0.0451856	429.001
0.0454465	429.288
0.0457088	429.578
0.0459727	429.87
0.0462381	430.166
0.046505	430.464
0.0467735	430.766
0.0470435	431.07
0.0473151	431.377
0.0475883	431.687
0.047863	432
0.0481393	432.315
0.0484172	432.633
0.0486968	432.954
0.0489779	433.277
0.0492606	433.603
0.049545	433.931
0.049831	434.262
0.0501187	434.595
0.0504081	434.931
0.0506991	435.269
0.0509918	435.61
0.0512861	435.953
0.0515822	436.298
0.05188	436.645
0.0521795	436.995
0.0524807	437.347
0.0527837	437.702
0.0530884	438.058
0.0533949	438.417
0.0537032	438.777
0.0540132	439.14
0.054325	439.505
0.0546387	439.872
0.0549541	440.241
0.0552713	440.612
0.0555904	440.985
0.0559114	441.361
0.0562341	441.738
0.0565588	442.117
0.0568853	442.498
0.0572137	442.88
0.057544	443.265
0.0578762	443.652
0.0582103	444.04
0.0585464	444.43
0.0588844	444.822
0.0592243	445.216
0.0595662	445.612
0.0599101	446.009
0.060256	446.408
0.0606038	446.809
0.0609537	447.212
0.0613056	447.616
0.0616595	448.022
0.0620155	448.43
0.0623735	448.84
0.0627336	449.251
0.0630957	449.663
0.06346	450.078
0.0638263	450.494
0.0641948	450.911
0.0645654	451.331
0.0649382	451.752
0.0653131	452.174
0.0656901	452.598
0.0660693	453.024
0.0664508	453.451
0.0668344	453.879
0.0672202	454.31
0.0676083	454.741
0.0679986	455.175
0.0683912	455.61
0.068786	456.046
0.0691831	456.484
0.0695825	456.923
0.0699842	457.364
0.0703882	457.806
0.0707946	458.25
0.0712033	458.696
0.0716143	459.142
0.0720278	459.591
0.0724436	460.041
0.0728618	460.492
0.0732825	460.945
0.0737055	461.399
0.074131	461.855
0.074559	462.312
0.0749894	462.77
0.0754223	463.23
0.0758578	463.692
0.0762957	464.155
0.0767361	464.619
0.0771792	465.085
0.0776247	465.552
0.0780728	466.021
0.0785236	466.491
0.0789769	466.963
0.0794328	467.436
0.0798914	467.911
0.0803526	468.387
0.0808165	468.865
0.0812831	469.343
0.0817523	469.824
0.0822243	470.306
0.082699	470.789
0.0831764	471.274
0.0836566	471.76
0.0841395	472.248
0.0846253	472.737
0.0851138	473.228
0.0856052	473.72
0.0860994	474.214
0.0865964	474.709
0.0870964	475.206
0.0875992	475.704
0.0881049	476.203
0.0886135	476.705
0.0891251	477.207
0.0896396	477.711
0.0901571	478.217
0.0906776	478.724
0.0912011	479.233
0.0917276	479.743
0.0922571	480.255
0.0927897	480.769
0.0933254	481.283
0.0938642	481.8
0.0944061	482.318
0.0949511	482.838
0.0954993	483.359
0.0960506	483.881
0.0966051	484.406
0.0971628	484.932
0.0977237	485.459
0.0982879	485.988
0.0988553	486.519
0.099426	487.052
0.1	487.586
0.100577	488.121
0.101158	488.659
0.101742	489.197
0.102329	489.738
0.10292	490.28
0.103514	490.824
0.104112	491.37
0.104713	491.917
0.105317	492.466
0.105925	493.017
0.106537	493.57
0.107152	494.124
0.107771	494.68
0.108393	495.238
0.109018	495.797
0.109648	496.358
0.110281	496.921
0.110917	497.486
0.111558	498.053
0.112202	498.621
0.11285	499.192
0.113501	499.764
0.114156	500.338
0.114815	500.913
0.115478	501.491
0.116145	502.071
0.116815	502.652
0.11749	503.235
0.118168	503.82
0.11885	504.407
0.119536	504.996
0.120226	505.587
0.120921	506.18
0.121619	506.775
0.122321	507.372
0.123027	507.971
0.123737	508.572
0.124451	509.174
0.12517	509.779
0.125893	510.386
0.126619	510.995
0.12735	511.606
0.128086	512.219
0.128825	512.834
0.129569	513.451
0.130317	514.07
0.131069	514.691
0.131826	515.315
0.132587	515.94
0.133352	516.568
0.134122	517.198
0.134896	517.83
0.135675	518.464
0.136458	519.1
0.137246	519.739
0.138038	520.38
0.138835	521.023
0.139637	521.668
0.140443	522.315
0.141254	522.965
0.142069	523.617
0.142889	524.272
0.143714	524.928
0.144544	525.587
0.145378	526.248
0.146218	526.912
0.147062	527.578
0.147911	528.246
0.148765	528.917
0.149624	529.59
0.150487	530.266
0.151356	530.944
0.15223	531.624
0.153109	532.307
0.153993	532.992
0.154882	533.68
0.155776	534.37
0.156675	535.063
0.15758	535.758
0.158489	536.455
0.159404	537.156
0.160325	537.859
0.16125	538.564
0.162181	539.272
0.163117	539.982
0.164059	540.696
0.165006	541.411
0.165959	542.13
0.166917	542.851
0.16788	543.574
0.16885	544.301
0.169824	545.03
0.170805	545.761
0.171791	546.496
0.172783	547.233
0.17378	547.973
0.174783	548.715
0.175792	549.461
0.176807	550.209
0.177828	550.96
0.178855	551.714
0.179887	552.47
0.180926	553.23
0.18197	553.992
0.183021	554.757
0.184077	555.525
0.18514	556.296
0.186209	557.07
0.187284	557.846
0.188365	558.626
0.189452	559.408
0.190546	560.194
0.191646	560.982
0.192752	561.774
0.193865	562.568
0.194984	563.366
0.19611	564.166
0.197242	564.97
0.198381	565.776
0.199526	566.586
0.200678	567.398
0.201837	568.214
0.203002	569.033
0.204174	569.855
0.205353	570.68
0.206538	571.508
0.20773	572.34
0.20893	573.174
0.210136	574.012
0.211349	574.853
0.212569	575.697
0.213796	576.544
0.21503	577.395
0.216272	578.249
0.21752	579.106
0.218776	579.966
0.220039	580.83
0.221309	581.697
0.222587	582.567
0.223872	583.441
0.225165	584.318
0.226464	585.199
0.227772	586.082
0.229087	586.969
0.230409	587.86
0.231739	588.754
0.233077	589.651
0.234423	590.552
0.235776	591.456
0.237137	592.364
0.238506	593.275
0.239883	594.19
0.241268	595.108
0.242661	596.03
0.244062	596.955
0.245471	597.884
0.246888	598.816
0.248313	599.752
0.249747	600.692
0.251189	601.635
0.252639	602.582
0.254097	603.532
0.255564	604.486
0.25704	605.444
0.258523	606.405
0.260016	607.371
0.261517	608.339
0.263027	609.312
0.264545	610.288
0.266073	611.268
0.267609	612.251
0.269153	613.239
0.270707	614.23
0.27227	615.225
0.273842	616.224
0.275423	617.226
0.277013	618.233
0.278612	619.243
0.280221	620.257
0.281838	621.275
0.283465	622.297
0.285102	623.323
0.286748	624.352
0.288403	625.386
0.290068	626.423
0.291743	627.465
0.293427	628.51
0.295121	629.56
0.296825	630.613
0.298538	631.67
0.300262	632.732
0.301995	633.797
0.303739	634.866
0.305492	635.94
0.307256	637.017
0.30903	638.099
0.310814	639.184
0.312608	640.274
0.314413	641.368
0.316228	642.466
0.318053	643.568
0.31989	644.674
0.321736	645.784
0.323594	646.899
0.325462	648.017
0.327341	649.14
0.32923	650.267
0.331131	651.399
0.333043	652.534
0.334965	653.674
0.336899	654.818
0.338844	655.966
0.3408	657.119
0.342768	658.275
0.344747	659.436
0.346737	660.602
0.348739	661.772
0.350752	662.946
0.352777	664.124
0.354813	665.307
0.356862	666.494
0.358922	667.685
0.360994	668.881
0.363078	670.081
0.365174	671.286
0.367282	672.495
0.369403	673.709
0.371535	674.927
0.37368	676.149
0.375837	677.376
0.378007	678.607
0.380189	679.843
0.382384	681.083
0.384592	682.328
0.386812	683.577
0.389045	684.831
0.391291	686.09
0.39355	687.353
0.395822	688.62
0.398107	689.892
0.400405	691.169
0.402717	692.45
0.405042	693.736
0.40738	695.026
0.409732	696.321
0.412098	697.621
0.414477	698.925
0.416869	700.234
0.419276	701.548
0.421697	702.866
0.424131	704.189
0.42658	705.516
0.429042	706.849
0.431519	708.185
0.43401	709.527
0.436516	710.874
0.439036	712.225
0.44157	713.581
0.44412	714.941
0.446684	716.306
0.449262	717.677
0.451856	719.051
0.454465	720.431
0.457088	721.815
0.459727	723.205
0.462381	724.599
0.46505	725.997
0.467735	727.401
0.470435	728.81
0.473151	730.223
0.475883	731.641
0.47863	733.064
0.481393	734.492
0.484172	735.924
0.486968	737.362
0.489779	738.804
0.492606	740.251
0.49545	741.704
0.49831	743.161
0.501187	744.622
0.504081	746.089
0.506991	747.561
0.509918	749.038
0.512861	750.519
0.515822	752.006
0.5188	753.497
0.521795	754.993
0.524807	756.495
0.527837	758.001
0.530884	759.512
0.533949	761.028
0.537032	762.549
0.540132	764.075
0.54325	765.606
0.546387	767.142
0.549541	768.683
0.552713	770.229
0.555904	771.779
0.559114	773.335
0.562341	774.896
0.565588	776.462
0.568853	778.033
0.572137	779.608
0.57544	781.189
0.578762	782.775
0.582103	784.366
0.585464	785.961
0.588844	787.562
0.592243	789.168
0.595662	790.779
0.599101	792.394
0.60256	794.015
0.606038	795.641
0.609537	797.272
0.613056	798.907
0.616595	800.548
0.620155	802.194
0.623735	803.845
0.627336	805.5
0.630957	807.161
0.6346	808.827
0.638263	810.498
0.641948	812.173
0.645654	813.854
0.649382	815.54
0.653131	817.231
0.656901	818.926
0.660693	820.627
0.664508	822.333
0.668344	824.043
0.672202	825.759
0.676083	827.48
0.679986	829.205
0.683912	830.936
0.68786	832.671
0.691831	834.411
0.695825	836.157
0.699842	837.907
0.703882	839.662
0.707946	841.422
0.712033	843.187
0.716143	844.957
0.720278	846.732
0.724436	848.512
0.728618	850.297
0.732825	852.086
0.737055	853.881
0.74131	855.68
0.74559	857.484
0.749894	859.293
0.754223	861.107
0.758578	862.925
0.762957	864.749
0.767361	866.577
0.771792	868.41
0.776247	870.248
0.780728	872.091
0.785236	873.938
0.789769	875.79
0.794328	877.647
0.798914	879.508
0.803526	881.375
0.808165	883.246
0.812831	885.121
0.817523	887.001
0.822243	888.886
0.82699	890.776
0.831764	892.67
0.836566	894.569
0.841395	896.472
0.846253	898.38
0.851138	900.292
0.856052	902.209
0.860994	904.131
0.865964	906.057
0.870964	907.987
0.875992	909.922
0.881049	911.861
0.886135	913.805
0.891251	915.753
0.896396	917.706
0.901571	919.662
0.906776	921.624
0.912011	923.589
0.917276	925.559
0.922571	927.533
0.927897	929.511
0.933254	931.493
0.938642	933.48
0.944061	935.471
0.949511	937.465
0.954993	939.464
0.960506	941.467
0.966051	943.474
0.971628	945.485
0.977237	947.5
0.982879	949.519
0.988553	951.542
0.99426	953.569
1	955.6
1.00577	957.634
1.01158	959.673
1.01742	961.715
1.02329	963.761
1.0292	965.81
1.03514	967.863
1.04112	969.92
1.04713	971.98
1.05317	974.044
1.05925	976.112
1.06537	978.183
1.07152	980.257
1.07771	982.335
1.08393	984.416
1.09018	986.501
1.09648	988.588
1.10281	990.679
1.10917	992.774
1.11558	994.871
1.12202	996.971
1.1285	999.075
1.13501	1001.18
1.14156	1003.29
1.14815	1005.4
1.15478	1007.52
1.16145	1009.64
1.16815	1011.76
1.1749	1013.88
1.18168	1016.01
1.1885	1018.14
1.19536	1020.27
1.20226	1022.4
1.20921	1024.54
1.21619	1026.68
1.22321	1028.82
1.23027	1030.97
1.23737	1033.11
1.24451	1035.26
1.2517	1037.41
1.25893	1039.56
1.26619	1041.72
1.2735	1043.87
1.28086	1046.03
1.28825	1048.19
1.29569	1050.36
1.30317	1052.52
1.31069	1054.69
1.31826	1056.85
1.32587	1059.02
1.33352	1061.19
1.34122	1063.36
1.34896	1065.54
1.35675	1067.71
1.36458	1069.89
1.37246	1072.07
1.38038	1074.24
1.38835	1076.42
1.39637	1078.66
1.40443	1083.8
1.41254	1088.97
1.42069	1094.17
1.42889	1099.39
1.43714	1104.64
1.44544	1109.92
1.45378	1115.23
1.46218	1120.56
1.47062	1125.93
1.47911	1131.32
1.48765	1136.75
1.49624	1142.2
1.50487	1147.68
1.51356	1153.19
1.5223	1158.73
1.53109	1164.3
1.53993	1169.9
1.54882	1175.52
1.55776	1181.18
1.56675	1186.87
1.5758	1192.58
1.58489	1198.33
1.59404	1204.1
1.60325	1209.91
1.6125	1215.74
1.62181	1221.61
1.63117	1227.5
1.64059	1233.43
1.65006	1239.38
1.65959	1245.37
1.66917	1251.38
1.6788	1257.43
1.6885	1263.5
1.69824	1269.61
1.70805	1275.75
1.71791	1281.91
1.72783	1288.11
1.7378	1294.34
1.74783	1300.6
1.75792	1306.89
1.76807	1313.21
1.77828	1319.56
1.78855	1325.94
1.79887	1332.35
1.80926	1338.8
1.8197	1345.27
1.83021	1351.77
1.84077	1358.31
1.8514	1364.88
1.86209	1371.48
1.87284	1378.1
1.88365	1384.76
1.89452	1391.46
1.90546	1398.18
1.91646	1404.93
1.92752	1411.71
1.93865	1418.53
1.94984	1425.38
1.9611	1432.25
1.97242	1439.16
1.98381	1446.1
1.99526	1453.07
2.00678	1460.08
2.01837	1467.11
2.03002	1474.17
2.04174	1481.27
2.05353	1488.39
2.06538	1495.55
2.0773	1502.74
2.0893	1509.96
2.10136	1517.21
2.11349	1524.49
2.12569	1531.8
2.13796	1539.14
2.1503	1546.52
2.16272	1553.92
2.1752	1561.36
2.18776	1568.82
2.20039	1576.32
2.21309	1583.85
2.22587	1591.41
2.23872	1599
2.25165	1606.61
2.26464	1614.26
2.27772	1621.94
2.29087	1629.65
2.30409	1637.39
2.31739	1645.16
2.33077	1652.96
2.34423	1660.79
2.35776	1668.65
2.37137	1676.54
2.38506	1684.46
2.39883	1692.41
2.41268	1700.39
2.42661	1708.4
2.44062	1716.44
2.45471	1724.5
2.46888	1732.6
2.48313	1740.72
2.49747	1748.88
2.51189	1757.06
2.52639	1765.27
2.54097	1773.51
2.55564	1781.78
2.5704	1790.07
2.58523	1798.4
2.60016	1806.75
2.61517	1815.13
2.63027	1823.53
2.64545	1831.97
2.66073	1840.43
2.67609	1848.92
2.69153	1857.43
2.70707	1865.98
2.7227	1874.55
2.73842	1883.14
2.75423	1891.76
2.77013	1900.41
2.78612	1909.09
2.80221	1917.78
2.81838	1926.51
2.83465	1935.26
2.85102	1944.03
2.86748	1952.83
2.88403	1961.66
2.90068	1970.51
2.91743	1979.38
2.93427	1988.28
2.95121	1997.2
2.96825	2006.14
2.98538	2015.11
3.00262	2024.1
3.01995	2033.12
3.03739	2042.15
3.05492	2051.21
3.07256	2060.29
3.0903	2069.39
3.10814	2078.52
3.12608	2087.66
3.14413	2096.83
3.16228	2106.01
3.18053	2115.22
3.1989	2124.44
3.21736	2133.69
3.23594	2142.96
3.25462	2152.24
3.27341	2161.54
3.2923	2170.87
3.31131	2180.21
3.33043	2189.56
3.34965	2198.94
3.36899	2208.33
3.38844	2217.74
3.408	2227.17
3.42768	2236.61
3.44747	2246.07
3.46737	2255.54
3.48739	2265.03
3.50752	2274.53
3.52777	2284.05
3.54813	2293.58
3.56862	2303.13
3.58922	2312.69
3.60994	2322.26
3.63078	2331.84
3.65174	2341.44
3.67282	2351.05
3.69403	2360.67
3.71535	2370.3
3.7368	2379.94
3.75837	2389.59
3.78007	2399.25
3.80189	2408.92
3.82384	2418.6
3.84592	2428.28
3.86812	2437.98
3.89045	2447.68
3.91291	2457.39
3.9355	2467.11
3.95822	2476.83
3.98107	2486.56
4.00405	2496.29
4.02717	2506.03
4.05042	2515.78
4.0738	2525.52
4.09732	2535.27
4.12098	2545.03
4.14477	2554.78
4.16869	2564.54
4.19276	2574.3
4.21697	2584.06
4.24131	2593.82
4.2658	2603.58
4.29042	2613.35
4.31519	2623.11
4.3401	2632.86
4.36516	2642.62
4.39036	2652.38
4.4157	2662.13
4.4412	2671.88
4.46684	2681.62
4.49262	2691.36
4.51856	2701.1
4.54465	2710.83
4.57088	2720.55
4.59727	2730.27
4.62381	2739.98
4.6505	2749.68
4.67735	2759.38
4.70435	2769.06
4.73151	2778.74
4.75883	2788.41
4.7863	2798.07
4.81393	2807.71
4.84172	2817.35
4.86968	2826.97
4.89779	2836.58
4.92606	2846.18
4.9545	2855.77
4.9831	2865.34
5.01187	2874.9
5.04081	2884.44
5.06991	2893.96
5.09918	2903.47
5.12861	2912.97
5.15822	2922.44
5.188	2931.9
5.21795	2941.34
5.24807	2950.76
5.27837	2960.16
5.30884	2969.54
5.33949	2978.9
5.37032	2988.24
5.40132	2997.56
5.4325	3006.85
5.46387	3016.13
5.49541	3025.37
5.52713	3034.6
5.55904	3043.8
5.59114	3052.98
5.62341	3062.13
5.65588	3071.25
5.68853	3080.35
5.72137	3089.42
5.7544	3098.46
5.78762	3107.48
5.82103	3116.46
5.85464	3125.42
5.88844	3134.34
5.92243	3143.24
5.95662	3152.1
5.99101	3160.94
6.0256	3169.74
6.06038	3178.51
6.09537	3187.24
6.13056	3195.95
6.16595	3204.61
6.20155	3213.25
6.23735	3221.84
6.27336	3230.41
6.30957	3238.93
6.346	3247.42
6.38263	3255.88
6.41948	3262.39
6.45654	3270.74
6.49382	3279.06
6.53131	3287.34
6.56901	3295.58
6.60693	3303.77
6.64508	3311.93
6.68344	3320.05
6.72202	3328.12
6.76083	3336.15
6.79986	3344.14
6.83912	3352.09
6.8786	3359.99
6.91831	3367.85
6.95825	3375.66
6.99842	3383.43
7.03882	3391.16
7.07946	3398.83
7.12033	3406.47
7.16143	3414.05
7.20278	3421.59
7.24436	3429.08
7.28618	3436.53
7.32825	3443.92
7.37055	3451.27
7.4131	3458.57
7.4559	3465.82
7.49894	3473.02
7.54223	3480.16
7.58578	3487.26
7.62957	3494.31
7.67361	3501.31
7.71792	3508.25
7.76247	3515.15
7.80728	3521.99
7.85236	3528.78
7.89769	3535.52
7.94328	3542.2
7.98914	3548.83
8.03526	3555.41
8.08165	3561.93
8.12831	3568.4
8.17523	3574.81
8.22243	3581.17
8.2699	3587.47
8.31764	3593.72
8.36566	3599.91
8.41395	3606.05
8.46253	3612.13
8.51138	3618.16
8.56052	3624.13
8.60994	3630.04
8.65964	3635.89
8.70964	3641.69
8.75992	3647.43
8.81049	3653.11
8.86135	3658.74
8.91251	3664.3
8.96396	3669.81
9.01571	3675.26
9.06776	3680.66
9.12011	3685.99
9.17276	3691.27
9.22571	3696.48
9.27897	3701.64
9.33254	3706.74
9.38642	3711.78
9.44061	3716.76
9.49511	3721.68
9.54993	3726.54
9.60506	3731.34
9.66051	3736.09
9.71628	3740.77
9.77237	3745.39
9.82879	3749.96
9.88553	3754.46
9.9426	3758.91
10	3763.29
10.0577	3767.62
10.1158	3771.88
10.1742	3776.09
10.2329	3780.23
10.292	3784.32
10.3514	3788.34
10.4112	3792.31
10.4713	3796.21
10.5317	3800.06
10.5925	3803.85
10.6537	3807.57
10.7152	3811.24
10.7771	3814.85
10.8393	3818.4
10.9018	3821.89
10.9648	3825.32
11.0281	3828.69
11.0917	3832
11.1558	3835.25
11.2202	3838.45
11.285	3841.58
11.3501	3844.66
11.4156	3847.68
11.4815	3850.64
11.5478	3853.54
11.6145	3856.38
11.6815	3859.17
11.749	3861.89
11.8168	3864.56
11.885	3867.18
11.9536	3869.73
12.0226	3872.23
12.0921	3874.67
12.1619	3877.06
12.2321	3879.39
12.3027	3881.66
12.3737	3883.87
12.4451	3886.04
12.517	3888.14
12.5893	3890.19
12.6619	3892.18
12.735	3894.12
12.8086	3896.01
12.8825	3897.84
12.9569	3899.62
13.0317	3901.34
13.1069	3903.01
13.1826	3904.63
13.2587	3906.19
13.3352	3907.7
13.4122	3909.16
13.4896	3910.56
13.5675	3911.92
13.6458	3913.22
13.7246	3914.47
13.8038	3915.67
13.8835	3916.82
13.9637	3917.92
14.0443	3918.97
14.1254	3903.9
14.2069	3905
14.2889	3906.05
14.3714	3907.05
14.4544	3908
14.5378	3908.9
14.6218	3909.75
14.7062	3910.55
14.7911	3911.31
14.8765	3912.02
14.9624	3912.68
15.0487	3913.29
15.1356	3913.86
15.223	3914.38
15.3109	3914.86
15.3993	3915.29
15.4882	3915.67
15.5776	3916.01
15.6675	3916.31
15.758	3916.56
15.8489	3916.77
15.9404	3916.94
16.0325	3917.06
16.125	3917.14
16.2181	3917.18
16.3117	3917.18
16.4059	3917.14
16.5006	3917.05
16.5959	3916.93
16.6917	3916.76
16.788	3916.56
16.885	3916.31
16.9824	3916.03
17.0805	3915.71
17.1791	3915.35
17.2783	3914.95
17.378	3914.52
17.4783	3914.05
17.5792	3913.54
17.6807	3913
17.7828	3912.42
17.8855	3911.8
17.9887	3911.15
18.0926	3910.47
18.197	3909.75
18.3021	3909
18.4077	3908.22
18.514	3907.4
18.6209	3906.55
18.7284	3905.67
18.8365	3904.75
18.9452	3903.81
19.0546	3902.83
19.1646	3901.83
19.2752	3900.79
19.3865	3899.73
19.4984	3898.63
19.611	3897.51
19.7242	3896.35
19.8381	3895.17
19.9526	3893.96
20.0678	3892.73
20.1837	3891.47
20.3002	3890.18
20.4174	3888.86
20.5353	3887.52
20.6538	3886.15
20.773	3884.76
20.893	3883.34
21.0136	3881.9
21.1349	3880.44
21.2569	3878.95
21.3796	3877.44
21.503	3875.9
21.6272	3874.35
21.752	3872.77
21.8776	3871.17
22.0039	3869.54
22.1309	3867.9
22.2587	3866.23
22.3872	3864.55
22.5165	3862.84
22.6464	3861.12
22.7772	3859.38
22.9087	3857.61
23.0409	3855.83
23.1739	3854.03
23.3077	3852.21
23.4423	3850.38
23.5776	3848.52
23.7137	3846.65
23.8506	3844.76
23.9883	3842.86
24.1268	3840.94
24.2661	3839
24.4062	3837.05
24.5471	3835.08
24.6888	3833.1
24.8313	3831.1
24.9747	3829.09
25.1189	3827.07
25.2639	3825.03
25.4097	3822.97
25.5564	3820.91
25.704	3818.83
25.8523	3816.73
26.0016	3814.63
26.1517	3812.51
26.3027	3810.38
26.4545	3808.24
26.6073	3806.09
26.7609	3803.92
26.9153	3801.75
27.0707	3799.56
27.227	3797.36
27.3842	3795.15
27.5423	3792.94
27.7013	3790.71
27.8612	3788.47
28.0221	3786.22
28.1838	3783.97
28.3465	3781.7
28.5102	3779.42
28.6748	3777.14
28.8403	3774.85
29.0068	3772.55
29.1743	3770.24
29.3427	3767.92
29.5121	3765.6
29.6825	3763.26
29.8538	3760.92
30.0262	3758.57
30.1995	3756.22
30.3739	3753.86
30.5492	3751.49
30.7256	3749.11
30.903	3746.73
31.0814	3744.34
31.2608	3741.95
31.4413	3739.54
31.6228	3737.14
31.8053	3734.72
31.989	3732.3
32.1736	3729.88
32.3594	3727.45
32.5462	3725.01
32.7341	3722.57
32.923	3720.12
33.1131	3717.67
33.3043	3715.21
33.4965	3712.75
33.6899	3710.28
33.8844	3707.81
34.08	3705.33
34.2768	3702.85
34.4747	3700.36
34.6737	3697.87
34.8739	3695.38
35.0752	3692.88
35.2777	3690.37
35.4813	3687.87
35.6862	3685.35
35.8922	3682.84
36.0994	3680.32
36.3078	3677.79
36.5174	3675.26
36.7282	3672.73
36.9403	3670.19
37.1535	3667.65
37.368	3665.11
37.5837	3662.56
37.8007	3660.01
38.0189	3657.46
38.2384	3654.9
38.4592	3652.33
38.6812	3649.77
38.9045	3647.2
39.1291	3644.62
39.355	3642.05
39.5822	3639.47
39.8107	3636.88
40.0405	3634.29
40.2717	3631.7
40.5042	3629.11
40.738	3626.51
40.9732	3623.91
41.2098	3621.3
41.4477	3618.69
41.6869	3616.08
41.9276	3613.46
42.1697	3610.84
42.4131	3608.22
42.658	3605.59
42.9042	3602.96
43.1519	3600.33
43.401	3597.69
43.6516	3595.05
43.9036	3592.4
44.157	3589.75
44.412	3587.1
44.6684	3584.44
44.9262	3581.78
45.1856	3579.12
45.4465	3576.45
45.7088	3573.78
45.9727	3571.1
46.2381	3568.42
46.505	3565.74
46.7735	3563.05
47.0435	3560.36
47.3151	3557.66
47.5883	3554.96
47.863	3552.26
48.1393	3549.55
48.4172	3546.83
48.6968	3544.12
48.9779	3541.39
49.2606	3538.67
49.545	3535.94
49.831	3533.2
50.1187	3530.46
50.4081	3527.72
50.6991	3524.97
50.9918	3522.21
51.2861	3519.45
51.5822	3516.69
51.88	3513.92
52.1795	3511.15
52.4807	3508.37
52.7837	3505.58
53.0884	3502.79
53.3949	3500
53.7032	3497.2
54.0132	3494.39
54.325	3491.58
54.6387	3488.77
54.9541	3485.94
55.2713	3483.12
55.5904	3480.28
55.9114	3477.45
56.2341	3474.6
56.5588	3471.75
56.8853	3468.9
57.2137	3466.04
57.544	3463.17
57.8762	3460.29
58.2103	3457.41
58.5464	3454.53
58.8844	3451.63
59.2243	3448.74
59.5662	3445.83
59.9101	3442.92
60.256	3440
60.6038	3437.07
60.9537	3434.14
61.3056	3431.2
61.6595	3428.26
62.0155	3425.31
62.3735	3422.35
62.7336	3419.38
63.0957	3416.41
63.46	3413.43
63.8263	3410.44
64.1948	3407.44
64.5654	3404.44
64.9382	3401.43
65.3131	3398.41
65.6901	3395.39
66.0693	3392.36
66.4508	3389.32
66.8344	3386.27
67.2202	3383.21
67.6083	3380.15
67.9986	3377.08
68.3912	3374
68.786	3370.91
69.1831	3367.82
69.5825	3364.71
69.9842	3361.6
70.3882	3358.48
70.7946	3355.35
71.2033	3352.21
71.6143	3349.07
72.0278	3345.91
72.4436	3342.75
72.8618	3339.58
73.2825	3336.4
73.7055	3333.21
74.131	3330.01
74.559	3326.8
74.9894	3323.59
75.4223	3320.36
75.8578	3317.13
76.2957	3313.88
76.7361	3310.63
77.1792	3307.37
77.6247	3304.1
78.0728	3300.81
78.5236	3297.52
78.9769	3294.22
79.4328	3290.91
79.8914	3287.59
80.3526	3284.26
80.8165	3280.92
81.2831	3277.57
81.7523	3274.21
82.2243	3270.84
82.699	3267.46
83.1764	3264.08
83.6566	3260.68
84.1395	3257.27
84.6253	3253.84
85.1138	3250.41
85.6052	3246.97
86.0994	3243.52
86.5964	3240.06
87.0964	3236.59
87.5992	3233.1
88.1049	3229.61
88.6135	3226.1
89.1251	3222.59
89.6396	3217.27
90.1571	3211.3
90.6776	3205.34
91.2011	3199.41
91.7276	3193.49
92.2571	3187.57
92.7897	3181.66
93.3254	3175.94
93.8642	3170.03
94.4061	3164.14
94.9511	3158.25
95.4993	3157.26
96.0506	3151.36
96.6051	3145.46
97.1628	3139.56
97.7237	3133.66
98.2879	3127.78
98.8553	3121.9
99.426	3116.02
100	3110.56
100.577	3104.81
101.158	3098.94
101.742	3093.08
102.329	3087.22
102.92	3081.36
103.514	3075.51
104.112	3069.66
104.713	3063.81
105.317	3057.97
105.925	3052.13
106.537	3046.29
107.152	3040.46
107.771	3034.62
108.393	3028.79
109.018	3022.96
109.648	3018.93
110.281	3013.09
110.917	3007.26
111.558	3001.42
112.202	2989.49
112.85	2984.1
113.501	2978.17
114.156	2972.24
114.815	2966.31
115.478	2960.39
116.145	2954.48
116.815	2948.57
117.49	2942.66
118.168	2936.76
118.85	2930.86
119.536	2924.95
120.226	2919.05
120.921	2913.15
121.619	2907.24
122.321	2901.34
123.027	2895.44
123.737	2889.53
124.451	2883.63
125.17	2877.72
125.893	2871.81
126.619	2865.91
127.35	2860
128.086	2854.08
128.825	2848.17
129.569	2842.26
130.317	2836.34
131.069	2830.42
131.826	2824.5
132.587	2818.58
133.352	2814.48
134.122	2808.54
134.896	2802.61
135.675	2796.68
136.458	2790.74
137.246	2784.8
138.038	2778.86
138.835	2772.91
139.637	2766.97
140.443	2761.02
141.254	2755.07
142.069	2749.12
142.889	2743.17
143.714	2737.22
144.544	2731.26
145.378	2725.31
146.218	2719.35
147.062	2713.39
147.911	2707.43
148.765	2701.48
149.624	2695.52
150.487	2689.55
151.356	2683.71
152.23	2677.75
153.109	2671.78
153.993	2665.82
154.882	2659.85
155.776	2653.89
156.675	2647.92
157.58	2642.21
158.489	2636.53
159.404	2630.84
160.325	2625.15
161.25	2619.45
162.181	2613.76
163.117	2608.06
164.059	2602.36
165.006	2596.65
165.959	2590.95
166.917	2585.24
167.88	2579.53
168.85	2573.81
169.824	2568.1
170.805	2562.38
171.791	2556.66
172.783	2550.94
173.78	2545.22
174.783	2539.5
175.792	2533.78
176.807	2528.05
177.828	2522.33
178.855	2516.6
179.887	2510.87
180.926	2505.14
181.97	2499.41
183.021	2494.4
184.077	2488.65
185.14	2482.91
186.209	2477.17
187.284	2471.43
188.365	2465.69
189.452	2459.95
190.546	2454.21
191.646	2448.47
192.752	2442.73
193.865	2436.99
194.984	2431.26
196.11	2425.52
197.242	2419.79
198.381	2414.06
199.526	2408.33
200.678	2404.3
201.837	2398.56
203.002	2392.82
204.174	2387.08
205.353	2381.35
206.538	2375.62
207.73	2369.89
208.93	2364.16
210.136	2358.44
211.349	2352.72
212.569	2347
213.796	2341.29
215.03	2335.58
216.272	2329.87
217.52	2324.16
218.776	2318.46
220.039	2312.77
221.309	2307.07
222.587	2301.38
223.872	2295.69
225.165	2290.01
226.464	2284.33
227.772	2278.65
229.087	2272.98
230.409	2267.31
231.739	2261.64
233.077	2255.98
234.423	2250.32
235.776	2244.67
237.137	2239.02
238.506	2233.37
239.883	2227.72
241.268	2222.08
242.661	2216.45
244.062	2210.82
245.471	2205.19
246.888	2199.57
248.313	2193.95
249.747	2188.33
251.189	2182.72
252.639	2177.16
254.097	2171.56
255.564	2165.96
257.04	2160.84
258.523	2155.24
260.016	2149.65
261.517	2144.06
263.027	2138.47
264.545	2132.88
266.073	2127.3
267.609	2121.73
269.153	2116.16
270.707	2110.59
272.27	2105.03
273.842	2099.47
275.423	2093.91
277.013	2088.36
278.612	2082.81
280.221	2077.27
281.838	2071.73
283.465	2066.2
285.102	2060.67
286.748	2055.14
288.403	2049.62
290.068	2044.1
291.743	2038.59
293.427	2033.08
295.121	2027.57
296.825	2022.07
298.538	2016.57
300.262	2011.08
301.995	2005.59
303.739	2000.11
305.492	1994.63
307.256	1989.15
309.03	1983.68
310.814	1978.21
312.608	1972.75
314.413	1967.29
316.228	1961.84
318.053	1956.39
319.89	1950.95
321.736	1945.51
323.594	1940.07
325.462	1934.64
327.341	1929.22
329.23	1923.79
331.131	1918.38
333.043	1912.97
334.965	1908.2
336.899	1902.79
338.844	1897.38
340.8	1891.97
342.768	1886.57
344.747	1881.18
346.737	1875.79
348.739	1870.4
350.752	1865.02
352.777	1859.65
354.813	1854.3
356.862	1848.94
358.922	1843.57
360.994	1838.22
363.078	1832.86
365.174	1827.52
367.282	1822.17
369.403	1816.84
371.535	1811.51
373.68	1806.18
375.837	1800.86
378.007	1795.54
380.189	1790.23
382.384	1784.93
384.592	1779.62
386.812	1774.33
389.045	1769.04
391.291	1763.75
393.55	1758.47
395.822	1753.2
398.107	1747.92
400.405	1742.66
402.717	1737.4
405.042	1732.15
407.38	1726.9
409.732	1721.65
412.098	1716.41
414.477	1711.18
416.869	1705.95
419.276	1700.73
421.697	1695.51
424.131	1690.3
426.58	1685.1
429.042	1679.9
431.519	1674.71
434.01	1669.52
436.516	1664.34
439.036	1659.16
441.57	1653.99
444.12	1648.83
446.684	1643.67
449.262	1638.52
451.856	1633.37
454.465	1628.23
457.088	1623.1
459.727	1617.98
462.381	1612.86
465.05	1607.74
467.735	1602.64
470.435	1597.54
473.151	1592.85
475.883	1587.76
478.63	1582.68
481.393	1577.6
484.172	1572.52
486.968	1567.46
489.779	1562.4
492.606	1557.35
495.45	1552.3
498.31	1547.26
501.187	1542.23
504.081	1537.21
506.991	1532.2
509.918	1527.19
512.861	1522.19
515.822	1517.19
518.8	1512.21
521.795	1507.23
524.807	1502.26
527.837	1497.29
530.884	1492.34
533.949	1487.39
537.032	1482.45
540.132	1477.52
543.25	1472.59
546.387	1467.68
549.541	1462.77
552.713	1457.87
555.904	1452.98
559.114	1448.09
562.341	1443.22
565.588	1438.35
568.853	1433.49
572.137	1428.64
575.44	1423.8
578.762	1418.97
582.103	1414.14
585.464	1409.33
588.844	1404.52
592.243	1399.72
595.662	1394.93
599.101	1390.14
602.56	1385.37
606.038	1380.6
609.537	1375.85
613.056	1371.1
616.595	1366.36
620.155	1361.63
623.735	1356.91
627.336	1352.2
630.957	1347.5
634.6	1342.8
638.263	1338.12
641.948	1333.44
645.654	1328.78
649.382	1324.12
653.131	1319.47
656.901	1314.83
660.693	1310.2
664.508	1305.58
668.344	1300.97
672.202	1296.37
676.083	1291.78
679.986	1287.2
683.912	1282.63
687.86	1278.07
691.831	1273.51
695.825	1268.97
699.842	1264.44
703.882	1259.92
707.946	1255.4
712.033	1250.9
716.143	1246.4
720.278	1241.92
724.436	1238.03
728.618	1233.56
732.825	1229.1
737.055	1224.65
741.31	1220.2
745.59	1215.77
749.894	1211.35
754.223	1206.94
758.578	1202.55
762.957	1198.16
767.361	1193.77
771.792	1189.4
776.247	1185.04
780.728	1180.69
785.236	1176.36
789.769	1172.03
794.328	1167.71
798.914	1163.4
803.526	1159.1
808.165	1154.81
812.831	1150.53
817.523	1146.26
822.243	1142
826.99	1137.75
831.764	1133.52
836.566	1129.29
841.395	1125.07
846.253	1120.86
851.138	1116.67
856.052	1112.48
860.994	1108.31
865.964	1104.14
870.964	1099.99
875.992	1095.84
881.049	1091.71
886.135	1087.58
891.251	1083.47
896.396	1079.37
901.571	1075.28
906.776	1071.2
912.011	1067.12
917.276	1063.06
922.571	1059.01
927.897	1054.98
933.254	1050.95
938.642	1046.93
944.061	1042.92
949.511	1038.93
954.993	1034.94
960.506	1030.96
966.051	1027
971.628	1023.05
977.237	1019.1
982.879	1015.17
988.553	1011.25
994.26	1007.34
1000	1003.44
1005.77	999.547
1011.58	995.669
1017.42	991.801
1023.29	987.943
1029.2	984.097
1035.14	980.261
1041.12	976.437
1047.13	972.623
1053.17	968.819
1059.25	965.027
1065.37	961.246
1071.52	957.475
1077.71	953.715
1083.93	949.967
1090.18	946.229
1096.48	942.502
1102.81	938.786
1109.17	935.08
1115.58	931.386
1122.02	927.703
1128.5	924.03
1135.01	920.369
1141.56	916.717
1148.15	913.077
1154.78	909.449
1161.45	905.831
1168.15	902.225
1174.9	898.629
1181.68	895.045
1188.5	891.471
1195.36	887.908
1202.26	884.356
1209.21	880.816
1216.19	877.286
1223.21	873.767
1230.27	870.26
1237.37	866.763
1244.51	863.277
1251.7	859.802
1258.93	856.338
1266.19	852.885
1273.5	849.443
1280.86	846.012
1288.25	842.592
1295.69	839.183
1303.17	835.785
1310.69	832.397
1318.26	829.021
1325.87	825.656
1333.52	822.302
1341.22	818.958
1348.96	815.626
1356.75	812.304
1364.58	808.993
1372.46	805.694
1380.38	802.405
1388.35	799.127
1396.37	795.861
1404.43	792.605
1412.54	789.36
1420.69	786.126
1428.89	782.902
1437.14	779.69
1445.44	776.489
1453.78	773.298
1462.18	770.118
1470.62	766.95
1479.11	763.791
1487.65	760.644
1496.24	757.508
1504.87	754.382
1513.56	751.267
1522.3	748.163
1531.09	745.07
1539.93	741.988
1548.82	738.916
1557.76	735.855
1566.75	732.805
1575.8	729.765
1584.89	726.736
1594.04	723.718
1603.25	720.711
1612.5	717.714
1621.81	714.728
1631.17	711.753
1640.59	708.788
1650.06	705.834
1659.59	702.891
1669.17	699.958
1678.8	697.035
1688.5	694.124
1698.24	691.222
1708.05	688.332
1717.91	685.452
1727.83	682.582
1737.8	679.723
1747.83	676.874
1757.92	674.036
1768.07	671.209
1778.28	668.391
1788.55	665.585
1798.87	662.788
1809.26	660.002
1819.7	657.227
1830.21	654.462
1840.77	651.707
1851.4	648.962
1862.09	646.228
1872.84	643.504
1883.65	640.79
1894.52	638.087
1905.46	635.394
1916.46	632.711
1927.52	630.039
1938.65	627.376
1949.84	624.724
1961.1	622.082
1972.42	619.45
1983.81	616.828
1995.26	614.217
2006.78	611.615
2018.37	609.024
2030.02	606.442
2041.74	603.871
2053.53	601.31
2065.38	598.758
2077.3	596.217
2089.3	593.686
2101.36	591.165
2113.49	588.653
2125.69	586.152
2137.96	583.66
2150.3	581.178
2162.72	578.706
2175.2	576.244
2187.76	573.791
2200.39	571.349
2213.09	568.916
2225.87	566.493
2238.72	564.08
2251.65	561.676
2264.64	559.282
2277.72	556.898
2290.87	554.523
2304.09	552.158
2317.39	549.803
2330.77	547.457
2344.23	545.121
2357.76	542.794
2371.37	540.477
2385.06	538.169
2398.83	535.871
2412.68	533.582
2426.61	531.303
2440.62	529.033
2454.71	526.772
2468.88	524.521
2483.13	522.279
2497.47	520.047
2511.89	517.823
2526.39	515.609
2540.97	513.405
2555.64	511.209
2570.4	509.023
2585.23	506.845
2600.16	504.677
2615.17	502.518
2630.27	500.369
2645.45	498.228
2660.73	496.096
2676.09	493.974
2691.53	491.86
2707.07	489.755
2722.7	487.66
2738.42	485.573
2754.23	483.495
2770.13	481.426
2786.12	479.366
2802.21	477.315
2818.38	475.272
2834.65	473.239
2851.02	471.214
2867.48	469.198
2884.03	467.19
2900.68	465.191
2917.43	463.201
2934.27	461.22
2951.21	459.247
2968.25	457.283
2985.38	455.327
3002.62	453.38
3019.95	451.442
3037.39	449.512
3054.92	447.59
3072.56	445.677
3090.3	443.772
3108.14	441.876
3126.08	439.988
3144.13	438.108
3162.28	436.237
3180.53	434.374
3198.9	432.519
3217.36	430.673
3235.94	428.835
3254.62	427.004
3273.41	425.182
3292.3	423.369
3311.31	421.563
3330.43	419.765
3349.65	417.976
3368.99	416.194
3388.44	414.421
3408	412.656
3427.68	410.898
3447.47	409.148
3467.37	407.407
3487.39	405.673
3507.52	403.947
3527.77	402.229
3548.13	400.519
3568.62	398.816
3589.22	397.121
3609.94	395.434
3630.78	393.755
3651.74	392.083
3672.82	390.419
3694.03	388.763
3715.35	387.114
3736.8	385.473
3758.37	383.839
3780.07	382.213
3801.89	380.594
3823.84	378.983
3845.92	377.379
3868.12	375.783
3890.45	374.194
3912.91	372.612
3935.5	371.038
3958.22	369.471
3981.07	367.911
4004.05	366.359
4027.17	364.814
4050.42	363.276
4073.8	361.745
4097.32	360.222
4120.98	358.705
4144.77	357.196
4168.69	355.693
4192.76	354.198
4216.97	352.71
4241.31	351.229
4265.8	349.755
4290.42	348.287
4315.19	346.827
4340.1	345.374
4365.16	343.927
4390.36	342.487
4415.7	341.055
4441.2	339.629
4466.84	338.209
4492.62	336.797
4518.56	335.391
4544.65	333.992
4570.88	332.599
4597.27	331.214
4623.81	329.835
4650.5	328.462
4677.35	327.096
4704.35	325.737
4731.51	324.384
4758.83	323.037
4786.3	321.697
4813.93	320.364
4841.72	319.037
4869.68	317.716
4897.79	316.402
4926.06	315.094
4954.5	313.792
4983.1	312.497
5011.87	311.208
5040.81	309.925
5069.91	308.649
5099.18	307.378
5128.61	306.114
5158.22	304.856
5188	303.604
5217.95	302.359
5248.07	301.119
5278.37	299.885
5308.84	298.658
5339.49	297.436
5370.32	296.221
5401.32	295.011
5432.5	293.807
5463.87	292.609
5495.41	291.418
5527.13	290.232
5559.04	289.051
5591.14	287.877
5623.41	286.708
5655.88	285.546
5688.53	284.388
5721.37	283.237
5754.4	282.092
5787.62	280.952
5821.03	279.817
5854.64	278.689
5888.44	277.566
5922.43	276.448
5956.62	275.336
5991.01	274.23
6025.6	273.129
6060.38	272.033
6095.37	270.944
6130.56	269.859
6165.95	268.78
6201.55	267.706
6237.35	266.638
6273.36	265.575
6309.57	264.518
6346	263.465
6382.63	262.418
6419.48	261.377
6456.54	260.34
6493.82	259.309
6531.31	258.283
6569.01	257.262
6606.93	256.246
6645.08	255.236
6683.44	254.23
6722.02	253.23
6760.83	252.235
6799.86	251.244
6839.12	250.259
6878.6	249.279
6918.31	248.304
6958.25	247.333
6998.42	246.368
7038.82	245.408
7079.46	244.452
7120.33	243.502
7161.43	242.556
7202.78	241.615
7244.36	240.679
7286.18	239.747
7328.25	238.821
7370.55	237.899
7413.1	236.982
7455.9	236.069
7498.94	235.162
7542.23	234.259
7585.78	233.36
7629.57	232.466
7673.61	231.577
7717.92	230.693
7762.47	229.813
7807.28	228.937
7852.36	228.066
7897.69	227.2
7943.28	226.338
7989.14	225.481
8035.26	224.628
8081.65	223.779
8128.31	222.935
8175.23	222.095
8222.43	221.26
8269.9	220.429
8317.64	219.602
8365.66	218.78
8413.95	217.962
8462.53	217.148
8511.38	216.338
8560.52	215.533
8609.94	214.732
8659.64	213.935
8709.64	213.142
8759.92	212.354
8810.49	211.569
8861.35	210.789
8912.51	210.013
8963.96	209.241
9015.71	208.473
9067.76	207.709
9120.11	206.949
9172.76	206.193
9225.71	205.441
9278.97	204.693
9332.54	203.949
9386.42	203.209
9440.61	202.473
9495.11	201.741
9549.93	201.012
9605.06	200.288
9660.51	199.568
9716.28	198.851
9772.37	198.138
9828.79	197.429
9885.53	196.724
9942.6	196.022
10000	195.324
10057.7	194.63
10115.8	193.94
10174.2	193.253
10232.9	192.571
10292	191.891
10351.4	191.216
10411.2	190.544
10471.3	189.876
10531.7	189.211
10592.5	188.55
10653.7	187.892
10715.2	187.238
10777.1	186.588
10839.3	185.941
10901.8	185.298
10964.8	184.658
11028.1	184.021
11091.7	183.388
11155.8	182.759
11220.2	182.133
11285	181.51
11350.1	180.891
11415.6	180.275
11481.5	179.663
11547.8	179.053
11614.5	178.448
11681.5	177.845
11749	177.246
11816.8	176.65
11885	176.058
11953.6	175.468
12022.6	174.882
12092.1	174.299
12161.9	173.72
12232.1	173.143
12302.7	172.57
12373.7	172
12445.1	171.433
12517	170.869
12589.3	170.309
12661.9	169.751
12735	169.197
12808.6	168.646
12882.5	168.098
12956.9	167.552
13031.7	167.01
13106.9	166.471
13182.6	165.935
13258.7	165.402
13335.2	164.872
13412.2	164.345
13489.6	163.821
13567.5	163.3
13645.8	162.782
13724.6	162.267
13803.8	161.754
13883.5	161.245
13963.7	160.738
14044.3	160.235
14125.4	159.734
14206.9	159.236
14288.9	158.741
14371.4	158.249
14454.4	157.759
14537.8	157.273
14621.8	156.789
14706.2	156.308
14791.1	155.829
14876.5	155.354
14962.4	154.881
15048.7	154.411
15135.6	153.943
15223	153.478
15310.9	153.016
15399.3	152.557
15488.2	152.1
15577.6	151.646
15667.5	151.195
15758	150.746
15848.9	150.3
15940.4	149.856
16032.5	149.415
16125	148.977
16218.1	148.541
16311.7	148.108
16405.9	147.677
16500.6	147.249
16595.9	146.823
16691.7	146.4
16788	145.979
16885	145.561
16982.4	145.145
17080.5	144.732
17179.1	144.321
17278.3	143.913
17378	143.507
17478.3	143.103
17579.2	142.702
17680.7	142.303
17782.8	141.907
17885.5	141.513
17988.7	141.121
18092.6	140.732
18197	140.345
18302.1	139.961
18407.7	139.578
18514	139.198
18620.9	138.821
18728.4	138.445
18836.5	138.072
18945.2	137.702
19054.6	137.333
19164.6	136.967
19275.2	136.603
19386.5	136.241
19498.4	135.881
19611	135.524
19724.2	135.169
19838.1	134.816
19952.6	134.465
20067.8	134.116
20183.7	133.77
20300.2	133.425
20417.4	133.083
20535.3	132.743
20653.8	132.405
20773	132.069
20893	131.736
21013.6	131.404
21134.9	131.074
21256.9	130.747
21379.6	130.422
21503	130.098
21627.2	129.777
21752	129.458
21877.6	129.14
22003.9	128.825
22130.9	128.512
22258.7	128.201
22387.2	127.891
22516.5	127.584
22646.4	127.279
22777.2	126.976
22908.7	126.674
23040.9	126.375
23173.9	126.077
23307.7	125.782
23442.3	125.488
23577.6	125.197
23713.7	124.907
23850.6	124.619
23988.3	124.333
24126.8	124.049
24266.1	123.766
24406.2	123.486
24547.1	123.207
24688.8	122.931
24831.3	122.656
24974.7	122.383
25118.9	122.112
25263.9	121.842
25409.7	121.574
25556.4	121.309
25704	121.045
25852.3	120.782
26001.6	120.522
26151.7	120.263
26302.7	120.006
26454.5	119.751
26607.3	119.498
26760.9	119.246
26915.3	118.996
27070.7	118.747
27227	118.501
27384.2	118.256
27542.3	118.013
27701.3	117.771
27861.2	117.531
28022.1	117.293
28183.8	117.057
28346.5	116.822
28510.2	116.589
28674.8	116.357
28840.3	116.127
29006.8	115.899
29174.3	115.672
29342.7	115.447
29512.1	115.224
29682.5	115.002
29853.8	114.782
30026.2	114.563
30199.5	114.346
30373.9	114.13
30549.2	113.916
30725.6	113.704
30903	113.493
31081.4	113.284
31260.8	113.076
31441.3	112.87
31622.8	112.665
31805.3	112.462
31989	112.26
32173.6	112.06
32359.4	111.861
32546.2	111.664
32734.1	111.468
32923	111.274
33113.1	111.081
33304.3	110.889
33496.5	110.7
33689.9	110.511
33884.4	110.324
34080	110.138
34276.8	109.954
34474.7	109.772
34673.7	109.59
34873.9	109.41
35075.2	109.232
35277.7	109.055
35481.3	108.879
35686.2	108.705
35892.2	108.532
36099.4	108.36
36307.8	108.19
36517.4	108.021
36728.2	107.854
36940.3	107.687
37153.5	107.523
37368	107.359
37583.7	107.197
37800.7	107.036
38018.9	106.877
38238.4	106.718
38459.2	106.561
38681.2	106.406
38904.5	106.252
39129.1	106.099
39355	105.947
39582.2	105.796
39810.7	105.647
40040.5	105.499
40271.7	105.353
40504.2	105.207
40738	105.063
40973.2	104.92
41209.8	104.778
41447.7	104.638
41686.9	104.499
41927.6	104.361
42169.7	104.224
42413.1	104.088
42658	103.954
42904.2	103.821
43151.9	103.689
43401	103.558
43651.6	103.417
43903.6	103.278
44157	103.139
44412	103.002
44668.4	102.866
44926.2	102.732
45185.6	102.598
45446.5	102.465
45708.8	102.334
45972.7	102.204
46238.1	102.074
46505	101.946
46773.5	101.819
47043.5	101.693
47315.1	101.568
47588.3	101.445
47863	101.322
48139.3	101.201
48417.2	101.08
48696.8	100.961
48977.9	100.842
49260.6	100.725
49545	100.609
49831	100.493
50118.7	100.379
50408.1	100.266
50699.1	100.154
50991.8	100.043
51286.1	99.9327
51582.2	99.8236
51880	99.7155
52179.5	99.6084
52480.7	99.5024
52783.7	99.3973
53088.4	99.2932
53394.9	99.1901
53703.2	99.088
54013.2	98.9868
54325	98.8867
54638.7	98.7875
54954.1	98.6892
55271.3	98.5919
55590.4	98.4956
55911.4	98.4002
56234.1	98.3057
56558.8	98.2122
56885.3	98.1196
57213.7	98.0279
57544	97.9372
57876.2	97.8474
58210.3	97.7585
58546.4	97.6705
58884.4	97.5834
59224.3	97.4972
59566.2	97.4119
59910.1	97.3275
60256	97.2439
60603.8	97.1613
60953.7	97.0795
61305.6	96.9986
61659.5	96.9186
62015.5	96.8394
62373.5	96.7611
62733.6	96.6837
63095.7	96.6071
63460	96.5313
63826.3	96.4564
64194.8	96.3824
64565.4	96.3091
64938.2	96.2367
65313.1	96.1651
65690.1	96.0943
66069.3	96.0244
66450.8	95.9553
66834.4	95.8869
67220.2	95.8194
67608.3	95.7527
67998.6	95.6867
68391.2	95.6216
68786	95.5573
69183.1	95.4937
69582.5	95.4309
69984.2	95.3689
70388.2	95.3076
70794.6	95.2471
71203.3	95.1874
71614.3	95.1285
72027.8	95.0702
72443.6	95.0128
72861.8	94.9561
73282.5	94.9001
73705.5	94.8449
74131	94.7904
74559	94.7366
74989.4	94.6836
75422.3	94.6313
75857.8	94.5797
76295.7	94.5288
76736.1	94.4786
77179.2	94.4291
77624.7	94.3804
78072.8	94.3323
78523.6	94.2849
78976.9	94.2382
79432.8	94.1923
79891.4	94.147
80352.6	94.1023
80816.5	94.0584
81283.1	94.0151
81752.3	93.9725
82224.3	93.9306
82699	93.8893
83176.4	93.8487
83656.6	93.8087
84139.5	93.7694
84625.3	93.7307
85113.8	93.6927
85605.2	93.6553
86099.4	93.6185
86596.4	93.5824
87096.4	93.5469
87599.2	93.5121
88104.9	93.4778
88613.5	93.4442
89125.1	93.4112
89639.6	93.3788
90157.1	93.347
90677.6	93.3158
91201.1	93.2853
91727.6	93.2553
92257.1	93.2259
92789.7	93.1971
93325.4	93.1689
93864.2	93.1412
94406.1	93.1142
94951.1	93.0877
95499.3	93.0618
96050.6	93.0365
96605.1	93.0117
97162.8	92.9875
97723.7	92.9639
98287.9	92.9408
98855.3	92.9183
99426	92.8963
100000	92.8749
100577	92.854
101158	92.8337
101742	92.8139
102329	92.7946
102920	92.7759
103514	92.7577
104112	92.74
104713	92.7228
105317	92.7062
105925	92.6901
106537	92.6744
107152	92.6593
107771	92.6447
108393	92.6306
109018	92.617
109648	92.6039
110281	92.5913
110917	92.5792
111558	92.5676
112202	92.5564
112850	92.5458
113501	92.5356
114156	92.5259
114815	92.5167
115478	92.5079
116145	92.4996
116815	92.4918
117490	92.4844
118168	92.4775
118850	92.471
119536	92.465
120226	92.4594
120921	92.4543
121619	92.4497
122321	92.4454
123027	92.4416
123737	92.4383
124451	92.4354
125170	92.4329
125893	92.4308
126619	92.4292
127350	92.4279
128086	92.4271
128825	92.4268
129569	92.4268
130317	92.4272
131069	92.4281
131826	92.4293
132587	92.431
133352	92.433
134122	92.4355
134896	92.4383
135675	92.4416
136458	92.4452
137246	92.4492
138038	92.4536
138835	92.4584
139637	92.4635
140443	92.4691
141254	92.475
142069	92.4813
142889	92.4879
143714	92.4949
144544	92.5023
145378	92.51
146218	92.5181
147062	92.5266
147911	92.5354
148765	92.5445
149624	92.554
150487	92.5639
151356	92.5741
152230	92.5846
153109	92.5955
153993	92.6067
154882	92.6183
155776	92.6302
156675	92.6424
157580	92.6549
158489	92.6678
159404	92.6809
160325	92.6945
161250	92.7083
162181	92.7224
163117	92.7369
164059	92.7516
165006	92.7667
165959	92.7821
166917	92.7978
167880	92.8138
168850	92.8301
169824	92.8466
170805	92.8635
171791	92.8807
172783	92.8982
173780	92.9159
174783	92.934
175792	92.9523
176807	92.9709
177828	92.9898
178855	93.009
179887	93.0284
180926	93.0482
181970	93.0681
183021	93.0884
184077	93.1089
185140	93.1297
186209	93.1508
187284	93.1721
188365	93.1937
189452	93.2156
190546	93.2377
191646	93.26
192752	93.2826
193865	93.3055
194984	93.3286
196110	93.352
197242	93.3756
198381	93.3994
199526	93.4235
200678	93.4478
201837	93.4724
203002	93.4972
204174	93.5222
205353	93.5475
206538	93.5729
207730	93.5987
208930	93.6246
210136	93.6508
211349	93.6772
212569	93.7038
213796	93.7306
215030	93.7576
216272	93.7849
217520	93.8124
218776	93.8401
220039	93.868
221309	93.8961
222587	93.9244
223872	93.9529
225165	93.9816
226464	94.0105
227772	94.0397
229087	94.069
230409	94.0985
231739	94.1282
233077	94.1581
234423	94.1882
235776	94.2185
237137	94.249
238506	94.2796
239883	94.3105
241268	94.3415
242661	94.3727
244062	94.4041
245471	94.4357
246888	94.4674
248313	94.4993
249747	94.5314
251189	94.5637
252639	94.5962
254097	94.6288
255564	94.6615
257040	94.6945
258523	94.7276
260016	94.7609
261517	94.7943
263027	94.8279
264545	94.8617
266073	94.8956
267609	94.9297
269153	94.9639
270707	94.9983
272270	95.0328
273842	95.0675
275423	95.1024
277013	95.1373
278612	95.1725
280221	95.2078
281838	95.2432
283465	95.2787
285102	95.3145
286748	95.3503
288403	95.3863
290068	95.4224
291743	95.4587
293427	95.4951
295121	95.5316
296825	95.5683
298538	95.6051
300262	95.642
301995	95.679
303739	95.7162
305492	95.7535
307256	95.791
309030	95.8285
310814	95.8662
312608	95.904
314413	95.9419
316228	95.98
318053	96.0181
319890	96.0564
321736	96.0948
323594	96.1333
325462	96.1719
327341	96.2107
329230	96.2495
331131	96.2885
333043	96.3276
334965	96.3667
336899	96.406
338844	96.4454
340800	96.4849
342768	96.5245
344747	96.5642
346737	96.604
348739	96.6439
350752	96.6839
352777	96.724
354813	96.7642
356862	96.8045
358922	96.8448
360994	96.8853
363078	96.9259
365174	96.9666
367282	97.0073
369403	97.0482
371535	97.0891
373680	97.1301
375837	97.1713
378007	97.2125
380189	97.2537
382384	97.2951
384592	97.3366
386812	97.3781
389045	97.4197
391291	97.4614
393550	97.5032
395822	97.5451
398107	97.587
400405	97.629
402717	97.6711
405042	97.7133
407380	97.7556
409732	97.7979
412098	97.8403
414477	97.8827
416869	97.9253
419276	97.9679
421697	98.0106
424131	98.0533
426580	98.0961
429042	98.139
431519	98.1819
434010	98.225
436516	98.268
439036	98.3112
441570	98.3544
444120	98.3977
446684	98.441
449262	98.4844
451856	98.5278
454465	98.5714
457088	98.6149
459727	98.6586
462381	98.7023
465050	98.746
467735	98.7898
470435	98.8337
473151	98.8776
475883	98.9215
478630	98.9656
481393	99.0096
484172	99.0538
486968	99.0979
489779	99.1422
492606	99.1864
495450	99.2308
498310	99.2751
501187	99.3196
504081	99.364
506991	99.4085
509918	99.4531
512861	99.4977
515822	99.5424
518800	99.5871
521795	99.6318
524807	99.6766
527837	99.7214
530884	99.7663
533949	99.8112
537032	99.8561
540132	99.9011
543250	99.9462
546387	99.9912
549541	100.036
552713	100.081
555904	100.127
559114	100.172
562341	100.217
565588	100.262
568853	100.308
572137	100.353
575440	100.398
578762	100.444
582103	100.489
585464	100.535
588844	100.58
592243	100.626
595662	100.672
599101	100.717
602560	100.763
606038	100.808
609537	100.854
613056	100.9
616595	100.946
620155	100.991
623735	101.037
627336	101.083
630957	101.129
634600	101.175
638263	101.221
641948	101.267
645654	101.313
649382	101.359
653131	101.405
656901	101.451
660693	101.497
664508	101.543
668344	101.589
672202	101.635
676083	101.681
679986	101.727
683912	101.774
687860	101.82
691831	101.866
695825	101.912
699842	101.958
703882	102.005
707946	102.051
712033	102.097
716143	102.144
720278	102.19
724436	102.236
728618	102.283
732825	102.329
737055	102.375
741310	102.422
745590	102.468
749894	102.515
754223	102.561
758578	102.608
762957	102.654
767361	102.701
771792	102.747
776247	102.794
780728	102.84
785236	102.887
789769	102.933
794328	102.98
798914	103.026
803526	103.073
808165	103.12
812831	103.166
817523	103.213
822243	103.259
826990	103.306
831764	103.353
836566	103.399
841395	103.446
846253	103.493
851138	103.539
856052	103.586
860994	103.633
865964	103.679
870964	103.726
875992	103.773
881049	103.819
886135	103.866
891251	103.913
896396	103.96
901571	104.006
906776	104.053
912011	104.1
917276	104.146
922571	104.193
927897	104.24
933254	104.287
938642	104.333
944061	104.38
949511	104.427
954993	104.473
960506	104.52
966051	104.567
971628	104.614
977237	104.66
982879	104.707
988553	104.754
994260	104.801
1e+06	104.847
1.00577e+06	104.894
1.01158e+06	104.941
1.01742e+06	104.988
1.02329e+06	105.034
1.0292e+06	105.081
1.03514e+06	105.128
1.04112e+06	105.175
1.04713e+06	105.221
1.05317e+06	105.268
1.05925e+06	105.315
1.06537e+06	105.361
1.07152e+06	105.408
1.07771e+06	105.455
1.08393e+06	105.502
1.09018e+06	105.548
1.09648e+06	105.595
1.10281e+06	105.642
1.10917e+06	105.688
1.11558e+06	105.735
1.12202e+06	105.782
1.1285e+06	105.828
1.13501e+06	105.875
1.14156e+06	105.922
1.14815e+06	105.968
1.15478e+06	106.015
1.16145e+06	106.062
1.16815e+06	106.108
1.1749e+06	106.155
1.18168e+06	106.202
1.1885e+06	106.248
1.19536e+06	106.295
1.20226e+06	106.342
1.20921e+06	106.388
1.21619e+06	106.435
1.22321e+06	106.481
1.23027e+06	106.528
1.23737e+06	106.575
1.24451e+06	106.621
1.2517e+06	106.668
1.25893e+06	106.714
1.26619e+06	106.761
1.2735e+06	106.807
1.28086e+06	106.854
1.28825e+06	106.9
1.29569e+06	106.947
1.30317e+06	106.993
1.31069e+06	107.04
1.31826e+06	107.086
1.32587e+06	107.133
1.33352e+06	107.179
1.34122e+06	107.226
1.34896e+06	107.272
1.35675e+06	107.319
1.36458e+06	107.365
1.37246e+06	107.412
1.38038e+06	107.458
1.38835e+06	107.505
1.39637e+06	107.551
1.40443e+06	107.597
1.41254e+06	107.644
1.42069e+06	107.69
1.42889e+06	107.736
1.43714e+06	107.783
1.44544e+06	107.829
1.45378e+06	107.875
1.46218e+06	107.922
1.47062e+06	107.968
1.47911e+06	108.014
1.48765e+06	108.061
1.49624e+06	108.107
1.50487e+06	108.153
1.51356e+06	108.199
1.5223e+06	108.246
1.53109e+06	108.292
1.53993e+06	108.338
1.54882e+06	108.384
1.55776e+06	108.431
1.56675e+06	108.477
1.5758e+06	108.523
1.58489e+06	108.569
1.59404e+06	108.615
1.60325e+06	108.661
1.6125e+06	108.707
1.62181e+06	108.753
1.63117e+06	108.8
1.64059e+06	108.846
1.65006e+06	108.892
1.65959e+06	108.938
1.66917e+06	108.984
1.6788e+06	109.03
1.6885e+06	109.076
1.69824e+06	109.122
1.70805e+06	109.168
1.71791e+06	109.214
1.72783e+06	109.26
1.7378e+06	109.306
1.74783e+06	109.352
1.75792e+06	109.398
1.76807e+06	109.443
1.77828e+06	109.489
1.78855e+06	109.535
1.79887e+06	109.581
1.80926e+06	109.627
1.8197e+06	109.673
1.83021e+06	109.719
1.84077e+06	109.764
1.8514e+06	109.81
1.86209e+06	109.856
1.87284e+06	109.902
1.88365e+06	109.947
1.89452e+06	109.993
1.90546e+06	110.039
1.91646e+06	110.085
1.92752e+06	110.13
1.93865e+06	110.176
1.94984e+06	110.222
1.9611e+06	110.267
1.97242e+06	110.313
1.98381e+06	110.358
1.99526e+06	110.404
2.00678e+06	110.45
2.01837e+06	110.495
2.03002e+06	110.541
2.04174e+06	110.586
2.05353e+06	110.632
2.06538e+06	110.677
2.0773e+06	110.723
2.0893e+06	110.768
2.10136e+06	110.814
2.11349e+06	110.859
2.12569e+06	110.905
2.13796e+06	110.95
2.1503e+06	110.995
2.16272e+06	111.041
2.1752e+06	111.086
2.18776e+06	111.131
2.20039e+06	111.177
2.21309e+06	111.222
2.22587e+06	111.267
2.23872e+06	111.313
2.25165e+06	111.358
2.26464e+06	111.403
2.27772e+06	111.448
2.29087e+06	111.494
2.30409e+06	111.539
2.31739e+06	111.584
2.33077e+06	111.629
2.34423e+06	111.674
2.35776e+06	111.719
2.37137e+06	111.764
2.38506e+06	111.81
2.39883e+06	111.855
2.41268e+06	111.9
2.42661e+06	111.945
2.44062e+06	111.99
2.45471e+06	112.035
2.46888e+06	112.08
2.48313e+06	112.125
2.49747e+06	112.17
2.51189e+06	112.215
2.52639e+06	112.26
2.54097e+06	112.304
2.55564e+06	112.349
2.5704e+06	112.394
2.58523e+06	112.439
2.60016e+06	112.484
2.61517e+06	112.529
2.63027e+06	112.573
2.64545e+06	112.618
2.66073e+06	112.663
2.67609e+06	112.708
2.69153e+06	112.752
2.70707e+06	112.797
2.7227e+06	112.842
2.73842e+06	112.887
2.75423e+06	112.931
2.77013e+06	112.976
2.78612e+06	113.02
2.80221e+06	113.065
2.81838e+06	113.11
2.83465e+06	113.154
2.85102e+06	113.199
2.86748e+06	113.243
2.88403e+06	113.288
2.90068e+06	113.332
2.91743e+06	113.377
2.93427e+06	113.421
2.95121e+06	113.466
2.96825e+06	113.51
2.98538e+06	113.555
3.00262e+06	113.599
3.01995e+06	113.643
3.03739e+06	113.688
3.05492e+06	113.732
3.07256e+06	113.776
3.0903e+06	113.821
3.10814e+06	113.865
3.12608e+06	113.909
3.14413e+06	113.953
3.16228e+06	113.998
3.18053e+06	114.042
3.1989e+06	114.086
3.21736e+06	114.13
3.23594e+06	114.174
3.25462e+06	114.218
3.27341e+06	114.263
3.2923e+06	114.307
3.31131e+06	114.351
3.33043e+06	114.395
3.34965e+06	114.439
3.36899e+06	114.483
3.38844e+06	114.527
3.408e+06	114.571
3.42768e+06	114.615
3.44747e+06	114.659
3.46737e+06	114.703
3.48739e+06	114.747
3.50752e+06	114.791
3.52777e+06	114.834
3.54813e+06	114.878
3.56862e+06	114.922
3.58922e+06	114.966
3.60994e+06	115.01
3.63078e+06	115.053
3.65174e+06	115.097
3.67282e+06	115.141
3.69403e+06	115.185
3.71535e+06	115.228
3.7368e+06	115.272
3.75837e+06	115.316
3.78007e+06	115.359
3.80189e+06	115.403
3.82384e+06	115.447
3.84592e+06	115.49
3.86812e+06	115.534
3.89045e+06	115.577
3.91291e+06	115.621
3.9355e+06	115.664
3.95822e+06	115.708
3.98107e+06	115.751
4.00405e+06	115.795
4.02717e+06	115.838
4.05042e+06	115.882
4.0738e+06	115.925
4.09732e+06	115.968
4.12098e+06	116.012
4.14477e+06	116.055
4.16869e+06	116.098
4.19276e+06	116.142
4.21697e+06	116.185
4.24131e+06	116.228
4.2658e+06	116.272
4.29042e+06	116.315
4.31519e+06	116.358
4.3401e+06	116.401
4.36516e+06	116.444
4.39036e+06	116.487
4.4157e+06	116.531
4.4412e+06	116.574
4.46684e+06	116.617
4.49262e+06	116.66
4.51856e+06	116.703
4.54465e+06	116.746
4.57088e+06	116.789
4.59727e+06	116.832
4.62381e+06	116.875
4.6505e+06	116.918
4.67735e+06	116.961
4.70435e+06	117.004
4.73151e+06	117.047
4.75883e+06	117.089
4.7863e+06	117.132
4.81393e+06	117.175
4.84172e+06	117.218
4.86968e+06	117.261
4.89779e+06	117.304
4.92606e+06	117.346
4.9545e+06	117.389
4.9831e+06	117.432
5.01187e+06	117.474
5.04081e+06	117.517
5.06991e+06	117.56
5.09918e+06	117.602
5.12861e+06	117.645
5.15822e+06	117.688
5.188e+06	117.73
5.21795e+06	117.773
5.24807e+06	117.815
5.27837e+06	117.858
5.30884e+06	117.9
5.33949e+06	117.943
5.37032e+06	117.985
5.40132e+06	118.028
5.4325e+06	118.07
5.46387e+06	118.112
5.49541e+06	118.155
5.52713e+06	118.197
5.55904e+06	118.24
5.59114e+06	118.282
5.62341e+06	118.324
5.65588e+06	118.366
5.68853e+06	118.409
5.72137e+06	118.451
5.7544e+06	118.493
5.78762e+06	118.535
5.82103e+06	118.577
5.85464e+06	118.62
5.88844e+06	118.662
5.92243e+06	118.704
5.95662e+06	118.746
5.99101e+06	118.788
6.0256e+06	118.83
6.06038e+06	118.872
6.09537e+06	118.914
6.13056e+06	118.956
6.16595e+06	118.998
6.20155e+06	119.04
6.23735e+06	119.082
6.27336e+06	119.124
6.30957e+06	119.166
6.346e+06	119.208
6.38263e+06	119.25
6.41948e+06	119.291
6.45654e+06	119.333
6.49382e+06	119.375
6.53131e+06	119.417
6.56901e+06	119.459
6.60693e+06	119.5
6.64508e+06	119.542
6.68344e+06	119.584
6.72202e+06	119.625
6.76083e+06	119.667
6.79986e+06	119.709
6.83912e+06	119.75
6.8786e+06	119.792
6.91831e+06	119.833
6.95825e+06	119.875
6.99842e+06	119.916
7.03882e+06	119.958
7.07946e+06	119.999
7.12033e+06	120.041
7.16143e+06	120.082
7.20278e+06	120.124
7.24436e+06	120.165
7.28618e+06	120.207
7.32825e+06	120.248
7.37055e+06	120.289
7.4131e+06	120.331
7.4559e+06	120.372
7.49894e+06	120.413
7.54223e+06	120.454
7.58578e+06	120.496
7.62957e+06	120.537
7.67361e+06	120.578
7.71792e+06	120.619
7.76247e+06	120.66
7.80728e+06	120.701
7.85236e+06	120.743
7.89769e+06	120.784
7.94328e+06	120.825
7.98914e+06	120.866
8.03526e+06	120.907
8.08165e+06	120.948
8.12831e+06	120.989
8.17523e+06	121.03
8.22243e+06	121.071
8.2699e+06	121.112
8.31764e+06	121.153
8.36566e+06	121.193
8.41395e+06	121.234
8.46253e+06	121.275
8.51138e+06	121.316
8.56052e+06	121.357
8.60994e+06	121.397
8.65964e+06	121.438
8.70964e+06	121.479
8.75992e+06	121.52
8.81049e+06	121.56
8.86135e+06	121.601
8.91251e+06	121.642
8.96396e+06	121.682
9.01571e+06	121.723
9.06776e+06	121.763
9.12011e+06	121.804
9.17276e+06	121.845
9.22571e+06	121.885
9.27897e+06	121.926
9.33254e+06	121.966
9.38642e+06	122.007
9.44061e+06	122.047
9.49511e+06	122.087
9.54993e+06	122.128
9.60506e+06	122.168
9.66051e+06	122.208
9.71628e+06	122.249
9.77237e+06	122.289
9.82879e+06	122.329
9.88553e+06	122.37
9.9426e+06	122.41
1e+07	122.45
