Stopping power dEdx from Ionisation for Si28[0.0] Z = 14 in Water, process name: ionIoni
E [MeV]	dEdx [MeV/mm]
0.001	22.7564
0.00100577	22.8224
0.00101158	22.8885
0.00101742	22.9549
0.00102329	23.0214
0.0010292	23.0882
0.00103514	23.1551
0.00104112	23.2222
0.00104713	23.2895
0.00105317	23.357
0.00105925	23.4247
0.00106537	23.4926
0.00107152	23.5607
0.00107771	23.629
0.00108393	23.6975
0.00109018	23.7662
0.00109648	23.8351
0.00110281	23.9041
0.00110917	23.9734
0.00111558	24.0429
0.00112202	24.1126
0.0011285	24.1825
0.00113501	24.2525
0.00114156	24.3228
0.00114815	24.3933
0.00115478	24.464
0.00116145	24.5349
0.00116815	24.606
0.0011749	24.6773
0.00118168	24.7488
0.0011885	24.8205
0.00119536	24.8924
0.00120226	24.9645
0.00120921	25.0369
0.00121619	25.1094
0.00122321	25.1822
0.00123027	25.2551
0.00123737	25.3283
0.00124451	25.4017
0.0012517	25.4753
0.00125893	25.5491
0.00126619	25.6231
0.0012735	25.6973
0.00128086	25.7718
0.00128825	25.8465
0.00129569	25.9213
0.00130317	25.9964
0.00131069	26.0717
0.00131826	26.1473
0.00132587	26.223
0.00133352	26.299
0.00134122	26.3751
0.00134896	26.4515
0.00135675	26.5282
0.00136458	26.605
0.00137246	26.6821
0.00138038	26.7594
0.00138835	26.8369
0.00139637	26.9146
0.00140443	26.9925
0.00141254	27.0707
0.00142069	27.1491
0.00142889	27.2278
0.00143714	27.3066
0.00144544	27.3857
0.00145378	27.465
0.00146218	27.5446
0.00147062	27.6243
0.00147911	27.7043
0.00148765	27.7846
0.00149624	27.865
0.00150487	27.9457
0.00151356	28.0267
0.0015223	28.1078
0.00153109	28.1892
0.00153993	28.2708
0.00154882	28.3527
0.00155776	28.4348
0.00156675	28.5171
0.0015758	28.5997
0.00158489	28.6825
0.00159404	28.7656
0.00160325	28.8489
0.0016125	28.9324
0.00162181	29.0162
0.00163117	29.1002
0.00164059	29.1844
0.00165006	29.2689
0.00165959	29.3537
0.00166917	29.4387
0.0016788	29.5239
0.0016885	29.6094
0.00169824	29.6951
0.00170805	29.7811
0.00171791	29.8673
0.00172783	29.9538
0.0017378	30.0405
0.00174783	30.1274
0.00175792	30.2147
0.00176807	30.3021
0.00177828	30.3898
0.00178855	30.4778
0.00179887	30.566
0.00180926	30.6545
0.0018197	30.7433
0.00183021	30.8322
0.00184077	30.9215
0.0018514	31.011
0.00186209	31.1008
0.00187284	31.1908
0.00188365	31.2811
0.00189452	31.3716
0.00190546	31.4624
0.00191646	31.5535
0.00192752	31.6448
0.00193865	31.7364
0.00194984	31.8282
0.0019611	31.9204
0.00197242	32.0127
0.00198381	32.1054
0.00199526	32.1983
0.00200678	32.2915
0.00201837	32.3849
0.00203002	32.4787
0.00204174	32.5727
0.00205353	32.6669
0.00206538	32.7615
0.0020773	32.8563
0.0020893	32.9514
0.00210136	33.0467
0.00211349	33.1423
0.00212569	33.2382
0.00213796	33.3344
0.0021503	33.4309
0.00216272	33.5276
0.0021752	33.6246
0.00218776	33.7219
0.00220039	33.8195
0.00221309	33.9174
0.00222587	34.0155
0.00223872	34.1139
0.00225165	34.2126
0.00226464	34.3116
0.00227772	34.4109
0.00229087	34.5105
0.00230409	34.6103
0.00231739	34.7105
0.00233077	34.8109
0.00234423	34.9116
0.00235776	35.0126
0.00237137	35.1139
0.00238506	35.2155
0.00239883	35.3174
0.00241268	35.4196
0.00242661	35.522
0.00244062	35.6248
0.00245471	35.7279
0.00246888	35.8312
0.00248313	35.9349
0.00249747	36.0388
0.00251189	36.1431
0.00252639	36.2476
0.00254097	36.3525
0.00255564	36.4576
0.0025704	36.5631
0.00258523	36.6689
0.00260016	36.7749
0.00261517	36.8813
0.00263027	36.988
0.00264545	37.095
0.00266073	37.2023
0.00267609	37.3099
0.00269153	37.4178
0.00270707	37.5261
0.0027227	37.6346
0.00273842	37.7435
0.00275423	37.8526
0.00277013	37.9621
0.00278612	38.0719
0.00280221	38.182
0.00281838	38.2924
0.00283465	38.4032
0.00285102	38.5143
0.00286748	38.6257
0.00288403	38.7374
0.00290068	38.8494
0.00291743	38.9618
0.00293427	39.0744
0.00295121	39.1874
0.00296825	39.3008
0.00298538	39.4144
0.00300262	39.5284
0.00301995	39.6427
0.00303739	39.7574
0.00305492	39.8723
0.00307256	39.9877
0.0030903	40.1033
0.00310814	40.2193
0.00312608	40.3356
0.00314413	40.4522
0.00316228	40.5692
0.00318053	40.6865
0.0031989	40.8041
0.00321736	40.9221
0.00323594	41.0405
0.00325462	41.1591
0.00327341	41.2781
0.0032923	41.3975
0.00331131	41.5172
0.00333043	41.6373
0.00334965	41.7576
0.00336899	41.8784
0.00338844	41.9995
0.003408	42.1209
0.00342768	42.2427
0.00344747	42.3648
0.00346737	42.4873
0.00348739	42.6102
0.00350752	42.7334
0.00352777	42.8569
0.00354813	42.9808
0.00356862	43.1051
0.00358922	43.2297
0.00360994	43.3547
0.00363078	43.48
0.00365174	43.6057
0.00367282	43.7318
0.00369403	43.8582
0.00371535	43.985
0.0037368	44.1122
0.00375837	44.2397
0.00378007	44.3676
0.00380189	44.4959
0.00382384	44.6245
0.00384592	44.7535
0.00386812	44.8829
0.00389045	45.0126
0.00391291	45.1427
0.0039355	45.2732
0.00395822	45.4041
0.00398107	45.5353
0.00400405	45.667
0.00402717	45.799
0.00405042	45.9314
0.0040738	46.0641
0.00409732	46.1973
0.00412098	46.3308
0.00414477	46.4647
0.00416869	46.5991
0.00419276	46.7337
0.00421697	46.8688
0.00424131	47.0043
0.0042658	47.1402
0.00429042	47.2764
0.00431519	47.4131
0.0043401	47.5501
0.00436516	47.6875
0.00439036	47.8254
0.0044157	47.9636
0.0044412	48.1022
0.00446684	48.2412
0.00449262	48.3807
0.00451856	48.5205
0.00454465	48.6607
0.00457088	48.8014
0.00459727	48.9424
0.00462381	49.0839
0.0046505	49.2257
0.00467735	49.368
0.00470435	49.5107
0.00473151	49.6537
0.00475883	49.7972
0.0047863	49.9411
0.00481393	50.0855
0.00484172	50.2302
0.00486968	50.3754
0.00489779	50.521
0.00492606	50.667
0.0049545	50.8134
0.0049831	50.9602
0.00501187	51.1075
0.00504081	51.2552
0.00506991	51.4033
0.00509918	51.5518
0.00512861	51.7008
0.00515822	51.8502
0.005188	52
0.00521795	52.1503
0.00524807	52.4319
0.00527837	52.5831
0.00530884	52.7346
0.00533949	52.8866
0.00537032	53.0391
0.00540132	53.1919
0.0054325	53.3453
0.00546387	53.499
0.00549541	53.6532
0.00552713	53.8079
0.00555904	53.963
0.00559114	54.1185
0.00562341	54.2745
0.00565588	54.4309
0.00568853	54.5878
0.00572137	54.7452
0.0057544	54.903
0.00578762	55.0612
0.00582103	55.2199
0.00585464	55.3791
0.00588844	55.5387
0.00592243	55.6988
0.00595662	55.8593
0.00599101	56.0204
0.0060256	56.1818
0.00606038	56.3438
0.00609537	56.5062
0.00613056	56.669
0.00616595	56.8324
0.00620155	56.9962
0.00623735	57.1605
0.00627336	57.3252
0.00630957	57.4905
0.006346	57.6562
0.00638263	57.8224
0.00641948	57.989
0.00645654	58.1562
0.00649382	58.3238
0.00653131	58.4919
0.00656901	58.6605
0.00660693	58.8296
0.00664508	58.9992
0.00668344	59.1692
0.00672202	59.3398
0.00676083	59.5108
0.00679986	59.6823
0.00683912	59.8544
0.0068786	60.0269
0.00691831	60.1999
0.00695825	60.3734
0.00699842	60.5474
0.00703882	60.722
0.00707946	60.897
0.00712033	61.0725
0.00716143	61.2486
0.00720278	61.4251
0.00724436	61.6021
0.00728618	61.7797
0.00732825	61.9578
0.00737055	62.1364
0.0074131	62.3155
0.0074559	62.4951
0.00749894	62.6752
0.00754223	62.8559
0.00758578	63.037
0.00762957	63.2187
0.00767361	63.401
0.00771792	63.5837
0.00776247	63.767
0.00780728	63.9508
0.00785236	64.1351
0.00789769	64.32
0.00794328	64.5054
0.00798914	64.6913
0.00803526	64.8778
0.00808165	65.0648
0.00812831	65.2523
0.00817523	65.4404
0.00822243	65.629
0.0082699	65.8182
0.00831764	66.0079
0.00836566	66.1982
0.00841395	66.389
0.00846253	66.5803
0.00851138	66.7722
0.00856052	66.9647
0.00860994	67.1577
0.00865964	67.3513
0.00870964	67.5454
0.00875992	67.7401
0.00881049	67.9354
0.00886135	68.1312
0.00891251	68.3276
0.00896396	68.5245
0.00901571	68.722
0.00906776	68.9201
0.00912011	69.1187
0.00917276	69.318
0.00922571	69.5178
0.00927897	69.7182
0.00933254	69.9191
0.00938642	70.1206
0.00944061	70.3228
0.00949511	70.5254
0.00954993	70.7287
0.00960506	70.9326
0.00966051	71.1371
0.00971628	71.3421
0.00977237	71.5477
0.00982879	71.754
0.00988553	71.9608
0.0099426	72.1682
0.01	72.3762
0.0100577	72.5848
0.0101158	72.794
0.0101742	73.0039
0.0102329	73.2143
0.010292	73.4253
0.0103514	73.637
0.0104112	73.8492
0.0104713	74.0621
0.0105317	74.2755
0.0105925	74.4896
0.0106537	74.7043
0.0107152	74.9197
0.0107771	75.1356
0.0108393	75.3522
0.0109018	75.5694
0.0109648	75.7872
0.0110281	76.0056
0.0110917	76.2247
0.0111558	76.4444
0.0112202	76.6648
0.011285	76.8858
0.0113501	77.1074
0.0114156	77.3296
0.0114815	77.5525
0.0115478	77.776
0.0116145	78.0002
0.0116815	78.2251
0.011749	78.4505
0.0118168	78.6766
0.011885	78.9034
0.0119536	79.1309
0.0120226	79.3589
0.0120921	79.5877
0.0121619	79.8171
0.0122321	80.0471
0.0123027	80.2779
0.0123737	80.5093
0.0124451	80.7413
0.012517	80.974
0.0125893	81.2074
0.0126619	81.4415
0.012735	81.6763
0.0128086	81.9117
0.0128825	82.1478
0.0129569	82.3846
0.0130317	82.622
0.0131069	82.8602
0.0131826	83.099
0.0132587	83.3385
0.0133352	83.5787
0.0134122	83.8197
0.0134896	84.0613
0.0135675	84.3035
0.0136458	84.5465
0.0137246	84.7902
0.0138038	85.0346
0.0138835	85.2797
0.0139637	85.5255
0.0140443	85.7721
0.0141254	86.0193
0.0142069	86.2672
0.0142889	86.5159
0.0143714	86.7653
0.0144544	87.0153
0.0145378	87.2662
0.0146218	87.5177
0.0147062	87.77
0.0147911	88.0229
0.0148765	88.2767
0.0149624	88.5311
0.0150487	88.7863
0.0151356	89.0422
0.015223	89.2988
0.0153109	89.5562
0.0153993	89.8144
0.0154882	90.0733
0.0155776	90.3329
0.0156675	90.5933
0.015758	90.8544
0.0158489	91.1163
0.0159404	91.3789
0.0160325	91.6423
0.016125	91.9064
0.0162181	92.1713
0.0163117	92.437
0.0164059	92.7034
0.0165006	92.9706
0.0165959	93.2386
0.0166917	93.5074
0.016788	93.7769
0.016885	94.0472
0.0169824	94.3183
0.0170805	94.5901
0.0171791	94.8628
0.0172783	95.1362
0.017378	95.4104
0.0174783	95.6854
0.0175792	95.9612
0.0176807	96.2378
0.0177828	96.5152
0.0178855	96.7934
0.0179887	97.0724
0.0180926	97.3522
0.018197	97.6328
0.0183021	97.9142
0.0184077	98.1965
0.018514	98.4795
0.0186209	98.7634
0.0187284	99.048
0.0188365	99.3335
0.0189452	99.6198
0.0190546	99.907
0.0191646	100.195
0.0192752	100.484
0.0193865	100.773
0.0194984	101.064
0.019611	101.355
0.0197242	101.647
0.0198381	101.94
0.0199526	102.234
0.0200678	102.529
0.0201837	102.824
0.0203002	103.121
0.0204174	103.418
0.0205353	103.716
0.0206538	104.015
0.020773	104.315
0.020893	104.615
0.0210136	104.917
0.0211349	105.219
0.0212569	105.523
0.0213796	105.827
0.021503	106.132
0.0216272	106.438
0.021752	106.745
0.0218776	107.052
0.0220039	107.361
0.0221309	107.67
0.0222587	107.981
0.0223872	108.292
0.0225165	108.604
0.0226464	108.917
0.0227772	109.231
0.0229087	109.546
0.0230409	109.862
0.0231739	110.178
0.0233077	110.496
0.0234423	110.814
0.0235776	111.134
0.0237137	111.454
0.0238506	111.775
0.0239883	112.097
0.0241268	112.421
0.0242661	112.745
0.0244062	113.07
0.0245471	113.396
0.0246888	113.722
0.0248313	114.05
0.0249747	114.379
0.0251189	114.709
0.0252639	115.039
0.0254097	115.371
0.0255564	115.703
0.025704	116.037
0.0258523	116.371
0.0260016	116.707
0.0261517	117.043
0.0263027	117.38
0.0264545	117.719
0.0266073	118.058
0.0267609	118.398
0.0269153	118.74
0.0270707	119.082
0.027227	119.425
0.0273842	119.769
0.0275423	120.115
0.0277013	120.461
0.0278612	120.808
0.0280221	121.156
0.0281838	121.505
0.0283465	121.856
0.0285102	122.207
0.0286748	122.559
0.0288403	122.912
0.0290068	123.267
0.0291743	123.622
0.0293427	123.978
0.0295121	124.336
0.0296825	124.694
0.0298538	125.054
0.0300262	125.414
0.0301995	125.775
0.0303739	126.138
0.0305492	126.502
0.0307256	126.866
0.030903	127.232
0.0310814	127.599
0.0312608	127.966
0.0314413	128.335
0.0316228	128.705
0.0318053	129.076
0.031989	129.448
0.0321736	129.821
0.0323594	130.195
0.0325462	130.571
0.0327341	130.947
0.032923	131.325
0.0331131	131.703
0.0333043	132.083
0.0334965	132.463
0.0336899	132.845
0.0338844	133.228
0.03408	133.612
0.0342768	133.997
0.0344747	134.383
0.0346737	134.771
0.0348739	135.159
0.0350752	135.549
0.0352777	135.94
0.0354813	136.331
0.0356862	136.724
0.0358922	137.118
0.0360994	137.514
0.0363078	137.91
0.0365174	138.308
0.0367282	138.706
0.0369403	139.106
0.0371535	139.507
0.037368	139.909
0.0375837	140.312
0.0378007	140.717
0.0380189	141.122
0.0382384	141.529
0.0384592	141.937
0.0386812	142.346
0.0389045	142.756
0.0391291	143.168
0.039355	143.581
0.0395822	143.994
0.0398107	144.41
0.0400405	144.826
0.0402717	145.243
0.0405042	145.662
0.040738	146.082
0.0409732	146.503
0.0412098	146.925
0.0414477	147.349
0.0416869	147.773
0.0419276	148.199
0.0421697	148.626
0.0424131	149.055
0.042658	149.484
0.0429042	149.915
0.0431519	150.347
0.043401	150.781
0.0436516	151.215
0.0439036	151.651
0.044157	152.088
0.044412	152.527
0.0446684	152.966
0.0449262	153.407
0.0451856	153.849
0.0454465	154.293
0.0457088	154.738
0.0459727	155.184
0.0462381	155.631
0.046505	156.079
0.0467735	156.529
0.0470435	156.981
0.0473151	157.433
0.0475883	157.887
0.047863	158.342
0.0481393	158.798
0.0484172	159.256
0.0486968	159.715
0.0489779	160.175
0.0492606	160.637
0.049545	161.1
0.049831	161.564
0.0501187	162.03
0.0504081	162.497
0.0506991	162.966
0.0509918	163.435
0.0512861	163.906
0.0515822	164.379
0.05188	164.853
0.0521795	165.328
0.0524807	165.804
0.0527837	166.282
0.0530884	166.762
0.0533949	167.242
0.0537032	167.724
0.0540132	168.208
0.054325	168.693
0.0546387	169.179
0.0549541	169.666
0.0552713	170.155
0.0555904	170.646
0.0559114	171.138
0.0562341	171.631
0.0565588	172.126
0.0568853	172.622
0.0572137	173.119
0.057544	173.618
0.0578762	174.119
0.0582103	174.621
0.0585464	175.124
0.0588844	175.629
0.0592243	176.135
0.0595662	176.643
0.0599101	177.152
0.060256	177.663
0.0606038	178.175
0.0609537	178.688
0.0613056	179.203
0.0616595	179.72
0.0620155	180.238
0.0623735	180.757
0.0627336	181.278
0.0630957	181.801
0.06346	182.325
0.0638263	182.85
0.0641948	183.377
0.0645654	183.906
0.0649382	184.436
0.0653131	184.968
0.0656901	185.501
0.0660693	186.036
0.0664508	186.572
0.0668344	187.11
0.0672202	187.649
0.0676083	188.19
0.0679986	188.732
0.0683912	189.276
0.068786	189.822
0.0691831	190.369
0.0695825	190.918
0.0699842	191.468
0.0703882	192.02
0.0707946	192.573
0.0712033	193.128
0.0716143	193.685
0.0720278	194.243
0.0724436	194.803
0.0728618	195.365
0.0732825	195.928
0.0737055	196.492
0.074131	197.059
0.074559	197.627
0.0749894	198.196
0.0754223	198.768
0.0758578	199.341
0.0762957	199.915
0.0767361	200.491
0.0771792	201.069
0.0776247	201.649
0.0780728	202.23
0.0785236	202.813
0.0789769	203.398
0.0794328	203.984
0.0798914	204.572
0.0803526	205.161
0.0808165	205.753
0.0812831	206.346
0.0817523	206.941
0.0822243	207.537
0.082699	208.135
0.0831764	208.735
0.0836566	209.337
0.0841395	209.94
0.0846253	210.545
0.0851138	211.152
0.0856052	211.761
0.0860994	212.371
0.0865964	212.983
0.0870964	213.597
0.0875992	214.213
0.0881049	214.83
0.0886135	215.45
0.0891251	216.071
0.0896396	216.693
0.0901571	217.318
0.0906776	217.944
0.0912011	218.573
0.0917276	219.203
0.0922571	219.835
0.0927897	220.468
0.0933254	221.104
0.0938642	221.741
0.0944061	222.38
0.0949511	223.021
0.0954993	223.664
0.0960506	224.309
0.0966051	224.955
0.0971628	225.604
0.0977237	226.254
0.0982879	226.906
0.0988553	227.56
0.099426	228.216
0.1	228.874
0.100577	229.533
0.101158	230.195
0.101742	230.858
0.102329	231.524
0.10292	232.191
0.103514	232.861
0.104112	233.532
0.104713	234.205
0.105317	234.88
0.105925	235.557
0.106537	236.236
0.107152	236.917
0.107771	237.6
0.108393	238.285
0.109018	238.971
0.109648	239.66
0.110281	240.351
0.110917	241.044
0.111558	241.739
0.112202	242.435
0.11285	243.134
0.113501	243.835
0.114156	244.538
0.114815	245.243
0.115478	245.949
0.116145	246.658
0.116815	247.369
0.11749	248.082
0.118168	248.797
0.11885	249.515
0.119536	250.234
0.120226	250.955
0.120921	251.678
0.121619	252.404
0.122321	253.131
0.123027	253.861
0.123737	254.593
0.124451	255.326
0.12517	256.062
0.125893	256.8
0.126619	257.541
0.12735	258.283
0.128086	259.027
0.128825	259.774
0.129569	260.523
0.130317	261.274
0.131069	262.027
0.131826	262.782
0.132587	263.54
0.133352	264.299
0.134122	265.061
0.134896	265.825
0.135675	266.591
0.136458	267.36
0.137246	268.13
0.138038	268.903
0.138835	269.678
0.139637	270.456
0.140443	271.235
0.141254	272.017
0.142069	272.801
0.142889	273.587
0.143714	274.376
0.144544	275.167
0.145378	275.96
0.146218	276.755
0.147062	277.553
0.147911	278.353
0.148765	279.155
0.149624	279.96
0.150487	280.767
0.151356	281.576
0.15223	282.388
0.153109	283.202
0.153993	284.018
0.154882	284.837
0.155776	285.658
0.156675	286.481
0.15758	287.307
0.158489	288.135
0.159404	288.965
0.160325	289.798
0.16125	290.634
0.162181	291.471
0.163117	292.311
0.164059	293.154
0.165006	293.999
0.165959	294.846
0.166917	295.696
0.16788	296.549
0.16885	297.403
0.169824	298.261
0.170805	299.12
0.171791	299.982
0.172783	300.847
0.17378	301.714
0.174783	302.584
0.175792	303.456
0.176807	304.331
0.177828	305.208
0.178855	306.088
0.179887	306.97
0.180926	307.855
0.18197	308.742
0.183021	309.632
0.184077	310.524
0.18514	311.42
0.186209	312.317
0.187284	313.217
0.188365	314.12
0.189452	315.026
0.190546	315.934
0.191646	316.844
0.192752	317.758
0.193865	318.673
0.194984	319.592
0.19611	320.513
0.197242	321.437
0.198381	322.363
0.199526	323.293
0.200678	324.225
0.201837	325.159
0.203002	326.096
0.204174	327.036
0.205353	327.979
0.206538	328.924
0.20773	329.872
0.20893	330.823
0.210136	331.777
0.211349	332.733
0.212569	333.692
0.213796	334.654
0.21503	335.618
0.216272	336.586
0.21752	337.556
0.218776	338.529
0.220039	339.505
0.221309	340.483
0.222587	341.465
0.223872	342.449
0.225165	343.436
0.226464	344.426
0.227772	345.419
0.229087	346.414
0.230409	347.413
0.231739	348.414
0.233077	349.418
0.234423	350.426
0.235776	351.436
0.237137	352.449
0.238506	353.465
0.239883	354.483
0.241268	355.505
0.242661	356.53
0.244062	357.557
0.245471	358.588
0.246888	359.622
0.248313	360.658
0.249747	361.698
0.251189	362.74
0.252639	363.786
0.254097	364.834
0.255564	365.886
0.25704	366.941
0.258523	367.998
0.260016	369.059
0.261517	370.123
0.263027	371.19
0.264545	372.26
0.266073	373.333
0.267609	374.409
0.269153	375.488
0.270707	376.57
0.27227	377.656
0.273842	378.744
0.275423	379.836
0.277013	380.931
0.278612	382.029
0.280221	383.13
0.281838	384.234
0.283465	385.342
0.285102	386.452
0.286748	387.566
0.288403	388.683
0.290068	389.804
0.291743	390.927
0.293427	392.054
0.295121	393.184
0.296825	394.317
0.298538	395.454
0.300262	396.594
0.301995	397.737
0.303739	398.883
0.305492	400.033
0.307256	401.186
0.30903	402.342
0.310814	403.502
0.312608	404.665
0.314413	405.832
0.316228	407.001
0.318053	408.174
0.31989	409.351
0.321736	410.531
0.323594	411.714
0.325462	412.901
0.327341	414.091
0.32923	415.285
0.331131	416.482
0.333043	417.682
0.334965	418.886
0.336899	420.093
0.338844	421.304
0.3408	422.519
0.342768	423.736
0.344747	424.958
0.346737	426.183
0.348739	427.411
0.350752	428.643
0.352777	429.879
0.354813	431.118
0.356862	432.36
0.358922	433.607
0.360994	434.856
0.363078	436.11
0.365174	437.367
0.367282	438.627
0.369403	439.892
0.371535	441.16
0.37368	442.431
0.375837	443.707
0.378007	444.985
0.380189	446.268
0.382384	447.554
0.384592	448.844
0.386812	450.138
0.389045	451.436
0.391291	452.737
0.39355	454.042
0.395822	455.351
0.398107	456.663
0.400405	457.979
0.402717	459.299
0.405042	460.623
0.40738	461.951
0.409732	463.282
0.412098	464.618
0.414477	465.957
0.416869	467.3
0.419276	468.647
0.421697	469.998
0.424131	471.353
0.42658	472.711
0.429042	474.074
0.431519	475.44
0.43401	476.811
0.436516	478.185
0.439036	479.563
0.44157	480.945
0.44412	482.332
0.446684	483.722
0.449262	485.116
0.451856	486.515
0.454465	487.917
0.457088	489.323
0.459727	490.734
0.462381	492.148
0.46505	493.567
0.467735	494.989
0.470435	496.416
0.473151	497.847
0.475883	499.282
0.47863	500.721
0.481393	502.164
0.484172	503.612
0.486968	505.063
0.489779	506.519
0.492606	507.979
0.49545	509.443
0.49831	510.912
0.501187	512.384
0.504081	513.861
0.506991	515.342
0.509918	516.828
0.512861	518.317
0.515822	519.811
0.5188	521.31
0.521795	522.812
0.524807	524.319
0.527837	525.831
0.530884	527.346
0.533949	528.866
0.537032	530.391
0.540132	531.919
0.54325	533.453
0.546387	534.99
0.549541	536.532
0.552713	538.079
0.555904	539.63
0.559114	541.185
0.562341	542.745
0.565588	544.309
0.568853	545.878
0.572137	547.452
0.57544	549.03
0.578762	550.612
0.582103	552.199
0.585464	553.791
0.588844	555.387
0.592243	556.988
0.595662	558.593
0.599101	560.204
0.60256	561.818
0.606038	563.438
0.609537	565.062
0.613056	566.69
0.616595	568.324
0.620155	569.962
0.623735	571.605
0.627336	573.252
0.630957	574.905
0.6346	576.562
0.638263	578.224
0.641948	579.89
0.645654	581.562
0.649382	583.238
0.653131	584.919
0.656901	586.605
0.660693	588.296
0.664508	589.992
0.668344	591.692
0.672202	593.398
0.676083	595.108
0.679986	596.823
0.683912	598.544
0.68786	600.269
0.691831	601.999
0.695825	603.734
0.699842	605.474
0.703882	607.391
0.707946	609.325
0.712033	611.27
0.716143	613.225
0.720278	615.191
0.724436	617.167
0.728618	619.154
0.732825	621.152
0.737055	623.161
0.74131	625.181
0.74559	627.211
0.749894	629.253
0.754223	631.305
0.758578	633.368
0.762957	635.443
0.767361	637.528
0.771792	639.625
0.776247	641.733
0.780728	643.852
0.785236	645.982
0.789769	648.124
0.794328	650.277
0.798914	652.441
0.803526	654.617
0.808165	656.804
0.812831	659.003
0.817523	661.213
0.822243	663.435
0.82699	665.668
0.831764	667.913
0.836566	670.169
0.841395	672.418
0.846253	674.631
0.851138	676.856
0.856052	679.092
0.860994	681.339
0.865964	683.597
0.870964	685.868
0.875992	688.149
0.881049	690.442
0.886135	692.747
0.891251	695.063
0.896396	697.391
0.901571	699.731
0.906776	702.082
0.912011	704.445
0.917276	706.82
0.922571	709.206
0.927897	711.605
0.933254	714.014
0.938642	716.436
0.944061	718.87
0.949511	721.315
0.954993	723.772
0.960506	726.241
0.966051	728.722
0.971628	731.215
0.977237	733.72
0.982879	736.237
0.988553	738.765
0.99426	741.306
1	743.858
1.00577	746.423
1.01158	748.999
1.01742	751.587
1.02329	754.188
1.0292	756.8
1.03514	759.424
1.04112	762.06
1.04713	764.708
1.05317	767.368
1.05925	770.04
1.06537	772.724
1.07152	775.42
1.07771	778.128
1.08393	780.848
1.09018	783.579
1.09648	786.323
1.10281	789.078
1.10917	791.845
1.11558	794.624
1.12202	797.409
1.1285	800.194
1.13501	802.99
1.14156	805.798
1.14815	808.618
1.15478	811.45
1.16145	814.293
1.16815	817.148
1.1749	820.016
1.18168	822.895
1.1885	825.786
1.19536	828.689
1.20226	831.604
1.20921	834.531
1.21619	837.471
1.22321	840.422
1.23027	843.386
1.23737	846.361
1.24451	849.349
1.2517	852.349
1.25893	855.362
1.26619	858.387
1.2735	861.424
1.28086	864.473
1.28825	867.535
1.29569	870.609
1.30317	873.695
1.31069	876.794
1.31826	879.906
1.32587	883.03
1.33352	886.167
1.34122	889.316
1.34896	892.478
1.35675	895.652
1.36458	898.839
1.37246	902.039
1.38038	905.252
1.38835	908.477
1.39637	911.716
1.40443	914.966
1.41254	918.229
1.42069	921.505
1.42889	924.794
1.43714	928.096
1.44544	931.41
1.45378	934.738
1.46218	938.078
1.47062	941.431
1.47911	944.797
1.48765	948.176
1.49624	951.568
1.50487	954.972
1.51356	958.39
1.5223	961.82
1.53109	965.263
1.53993	968.719
1.54882	972.188
1.55776	975.669
1.56675	979.163
1.5758	982.67
1.58489	986.19
1.59404	989.723
1.60325	993.268
1.6125	996.826
1.62181	1000.4
1.63117	1003.98
1.64059	1007.58
1.65006	1011.19
1.65959	1014.81
1.66917	1018.44
1.6788	1022.09
1.6885	1025.75
1.69824	1029.42
1.70805	1033.1
1.71791	1036.8
1.72783	1040.51
1.7378	1044.23
1.74783	1047.96
1.75792	1051.71
1.76807	1055.47
1.77828	1059.24
1.78855	1063.02
1.79887	1066.81
1.80926	1070.62
1.8197	1074.44
1.83021	1078.27
1.84077	1082.12
1.8514	1085.97
1.86209	1089.84
1.87284	1093.72
1.88365	1097.61
1.89452	1101.52
1.90546	1105.43
1.91646	1109.36
1.92752	1113.3
1.93865	1117.25
1.94984	1121.22
1.9611	1125.19
1.97242	1129.18
1.98381	1133.18
1.99526	1137.19
2.00678	1141.21
2.01837	1145.24
2.03002	1149.28
2.04174	1153.34
2.05353	1157.4
2.06538	1161.48
2.0773	1165.57
2.0893	1169.67
2.10136	1173.78
2.11349	1177.9
2.12569	1182.04
2.13796	1186.18
2.1503	1190.33
2.16272	1194.5
2.1752	1198.68
2.18776	1202.86
2.20039	1207.06
2.21309	1211.27
2.22587	1215.49
2.23872	1219.71
2.25165	1223.95
2.26464	1228.2
2.27772	1232.46
2.29087	1236.73
2.30409	1241.01
2.31739	1245.3
2.33077	1249.6
2.34423	1253.9
2.35776	1258.22
2.37137	1262.55
2.38506	1266.89
2.39883	1271.23
2.41268	1275.59
2.42661	1279.95
2.44062	1284.32
2.45471	1288.71
2.46888	1293.1
2.48313	1297.5
2.49747	1301.9
2.51189	1306.32
2.52639	1310.74
2.54097	1315.18
2.55564	1319.62
2.5704	1324.07
2.58523	1328.52
2.60016	1332.99
2.61517	1337.46
2.63027	1341.94
2.64545	1346.42
2.66073	1350.92
2.67609	1355.42
2.69153	1359.93
2.70707	1364.45
2.7227	1368.97
2.73842	1373.5
2.75423	1378.03
2.77013	1382.58
2.78612	1387.13
2.80221	1391.68
2.81838	1396.25
2.83465	1400.82
2.85102	1405.4
2.86748	1409.98
2.88403	1414.57
2.90068	1419.17
2.91743	1423.77
2.93427	1428.37
2.95121	1432.99
2.96825	1437.6
2.98538	1442.22
3.00262	1446.85
3.01995	1451.48
3.03739	1456.12
3.05492	1460.76
3.07256	1465.4
3.0903	1470.05
3.10814	1474.7
3.12608	1479.36
3.14413	1484.02
3.16228	1488.68
3.18053	1493.35
3.1989	1498.01
3.21736	1502.69
3.23594	1507.36
3.25462	1512.04
3.27341	1516.72
3.2923	1521.4
3.31131	1526.09
3.33043	1530.78
3.34965	1535.46
3.36899	1540.16
3.38844	1544.85
3.408	1549.54
3.42768	1554.24
3.44747	1558.93
3.46737	1563.63
3.48739	1568.33
3.50752	1573.02
3.52777	1577.72
3.54813	1582.42
3.56862	1587.12
3.58922	1591.82
3.60994	1596.51
3.63078	1601.21
3.65174	1605.91
3.67282	1610.6
3.69403	1615.3
3.71535	1619.99
3.7368	1624.68
3.75837	1629.37
3.78007	1634.06
3.80189	1638.74
3.82384	1643.43
3.84592	1648.11
3.86812	1652.79
3.89045	1657.46
3.91291	1662.14
3.9355	1666.81
3.95822	1671.47
3.98107	1676.14
4.00405	1680.8
4.02717	1685.45
4.05042	1690.11
4.0738	1694.75
4.09732	1699.4
4.12098	1704.03
4.14477	1708.67
4.16869	1713.3
4.19276	1717.92
4.21697	1722.5
4.24131	1727.06
4.2658	1731.62
4.29042	1736.16
4.31519	1740.7
4.3401	1745.24
4.36516	1749.76
4.39036	1754.28
4.4157	1758.79
4.4412	1763.3
4.46684	1767.79
4.49262	1772.28
4.51856	1776.75
4.54465	1781.22
4.57088	1785.68
4.59727	1790.13
4.62381	1794.56
4.6505	1798.99
4.67735	1803.4
4.70435	1807.81
4.73151	1812.2
4.75883	1816.58
4.7863	1820.95
4.81393	1825.31
4.84172	1829.65
4.86968	1833.98
4.89779	1838.3
4.92606	1842.6
4.9545	1846.89
4.9831	1851.16
5.01187	1855.42
5.04081	1859.66
5.06991	1863.89
5.09918	1868.1
5.12861	1872.3
5.15822	1876.48
5.188	1880.64
5.21795	1884.79
5.24807	1888.91
5.27837	1893.02
5.30884	1897.11
5.33949	1901.19
5.37032	1905.24
5.40132	1909.27
5.4325	1913.29
5.46387	1917.28
5.49541	1921.25
5.52713	1925.2
5.55904	1929.14
5.59114	1933.05
5.62341	1936.95
5.65588	1940.83
5.68853	1944.69
5.72137	1948.54
5.7544	1952.35
5.78762	1956.15
5.82103	1959.92
5.85464	1963.67
5.88844	1967.39
5.92243	1971.09
5.95662	1974.77
5.99101	1978.42
6.0256	1982.05
6.06038	1985.65
6.09537	1989.23
6.13056	1992.78
6.16595	1996.31
6.20155	1999.82
6.23735	2003.29
6.27336	2006.75
6.30957	2010.17
6.346	2013.58
6.38263	2016.95
6.41948	2020.3
6.45654	2023.63
6.49382	2026.93
6.53131	2030.2
6.56901	2033.45
6.60693	2036.67
6.64508	2039.86
6.68344	2043.03
6.72202	2046.17
6.76083	2049.29
6.79986	2052.38
6.83912	2055.44
6.8786	2058.48
6.91831	2061.49
6.95825	2064.48
6.99842	2067.44
7.03882	2070.38
7.07946	2073.29
7.12033	2076.18
7.16143	2079.04
7.20278	2081.87
7.24436	2084.68
7.28618	2087.46
7.32825	2090.22
7.37055	2092.95
7.4131	2095.65
7.4559	2098.33
7.49894	2100.97
7.54223	2103.6
7.58578	2106.19
7.62957	2108.76
7.67361	2111.3
7.71792	2113.81
7.76247	2116.29
7.80728	2118.75
7.85236	2121.18
7.89769	2123.59
7.94328	2125.96
7.98914	2128.31
8.03526	2130.63
8.08165	2132.93
8.12831	2135.2
8.17523	2137.44
8.22243	2139.65
8.2699	2141.84
8.31764	2144
8.36566	2146.13
8.41395	2148.24
8.46253	2150.33
8.51138	2152.39
8.56052	2154.43
8.60994	2156.44
8.65964	2158.42
8.70964	2160.38
8.75992	2162.31
8.81049	2164.21
8.86135	2166.08
8.91251	2167.93
8.96396	2169.75
9.01571	2171.54
9.06776	2173.31
9.12011	2175.04
9.17276	2176.75
9.22571	2178.43
9.27897	2180.09
9.33254	2181.71
9.38642	2183.31
9.44061	2184.88
9.49511	2186.42
9.54993	2187.93
9.60506	2189.42
9.66051	2190.87
9.71628	2192.3
9.77237	2193.7
9.82879	2195.08
9.88553	2196.43
9.9426	2197.74
10	2199.04
10.0577	2200.3
10.1158	2201.54
10.1742	2202.75
10.2329	2203.93
10.292	2205.09
10.3514	2206.22
10.4112	2207.33
10.4713	2208.41
10.5317	2209.46
10.5925	2210.49
10.6537	2211.49
10.7152	2212.47
10.7771	2213.43
10.8393	2214.36
10.9018	2215.27
10.9648	2216.16
11.0281	2217.02
11.0917	2217.87
11.1558	2218.69
11.2202	2219.48
11.285	2220.24
11.3501	2220.97
11.4156	2221.68
11.4815	2222.38
11.5478	2223.05
11.6145	2223.7
11.6815	2224.33
11.749	2224.94
11.8168	2225.52
11.885	2226.09
11.9536	2226.63
12.0226	2227.16
12.0921	2227.66
12.1619	2228.14
12.2321	2228.59
12.3027	2229.03
12.3737	2229.44
12.4451	2229.84
12.517	2230.21
12.5893	2230.56
12.6619	2230.88
12.735	2231.19
12.8086	2231.47
12.8825	2231.73
12.9569	2231.97
13.0317	2232.19
13.1069	2232.38
13.1826	2232.56
13.2587	2232.71
13.3352	2232.84
13.4122	2232.95
13.4896	2233.03
13.5675	2233.1
13.6458	2233.14
13.7246	2233.17
13.8038	2233.17
13.8835	2233.15
13.9637	2233.11
14.0443	2233.06
14.1254	2232.98
14.2069	2232.88
14.2889	2232.77
14.3714	2232.63
14.4544	2232.48
14.5378	2232.3
14.6218	2232.1
14.7062	2231.88
14.7911	2231.64
14.8765	2231.38
14.9624	2231.1
15.0487	2230.8
15.1356	2230.48
15.223	2230.13
15.3109	2229.77
15.3993	2229.39
15.4882	2228.99
15.5776	2228.56
15.6675	2228.12
15.758	2227.65
15.8489	2227.17
15.9404	2226.67
16.0325	2226.14
16.125	2225.6
16.2181	2225.04
16.3117	2224.46
16.4059	2223.86
16.5006	2223.24
16.5959	2222.6
16.6917	2221.94
16.788	2221.26
16.885	2220.57
16.9824	2219.86
17.0805	2219.13
17.1791	2218.38
17.2783	2217.62
17.378	2216.84
17.4783	2216.03
17.5792	2215.22
17.6807	2214.38
17.7828	2213.52
17.8855	2212.65
17.9887	2211.76
18.0926	2210.85
18.197	2209.92
18.3021	2208.98
18.4077	2208.01
18.514	2207.03
18.6209	2206.03
18.7284	2205.02
18.8365	2203.99
18.9452	2202.94
19.0546	2201.87
19.1646	2200.78
19.2752	2199.68
19.3865	2198.56
19.4984	2197.43
19.611	2196.28
19.7242	2195.11
19.8381	2193.92
19.9526	2192.72
20.0678	2191.51
20.1837	2190.27
20.3002	2189.02
20.4174	2187.76
20.5353	2186.47
20.6538	2185.17
20.773	2183.86
20.893	2182.53
21.0136	2181.18
21.1349	2179.82
21.2569	2178.44
21.3796	2177.04
21.503	2175.63
21.6272	2174.2
21.752	2172.76
21.8776	2171.3
22.0039	2169.82
22.1309	2168.33
22.2587	2166.83
22.3872	2165.31
22.5165	2163.77
22.6464	2162.22
22.7772	2160.66
22.9087	2159.08
23.0409	2157.48
23.1739	2155.87
23.3077	2154.24
23.4423	2152.6
23.5776	2150.95
23.7137	2149.28
23.8506	2147.59
23.9883	2145.89
24.1268	2144.17
24.2661	2142.44
24.4062	2140.7
24.5471	2138.94
24.6888	2137.16
24.8313	2135.37
24.9747	2133.57
25.1189	2131.75
25.2639	2129.91
25.4097	2128.07
25.5564	2126.2
25.704	2124.33
25.8523	2122.44
26.0016	2120.53
26.1517	2118.62
26.3027	2116.68
26.4545	2114.74
26.6073	2112.78
26.7609	2110.81
26.9153	2108.82
27.0707	2106.82
27.227	2104.81
27.3842	2102.78
27.5423	2100.75
27.7013	2098.7
27.8612	2096.63
28.0221	2094.56
28.1838	2092.47
28.3465	2090.38
28.5102	2088.27
28.6748	2086.14
28.8403	2084.01
29.0068	2081.86
29.1743	2079.7
29.3427	2077.53
29.5121	2075.35
29.6825	2073.16
29.8538	2070.95
30.0262	2068.73
30.1995	2066.5
30.3739	2064.25
30.5492	2062
30.7256	2059.73
30.903	2057.45
31.0814	2055.16
31.2608	2052.85
31.4413	2050.53
31.6228	2048.2
31.8053	2045.86
31.989	2043.51
32.1736	2041.14
32.3594	2038.76
32.5462	2036.37
32.7341	2033.97
32.923	2031.55
33.1131	2029.12
33.3043	2026.69
33.4965	2024.23
33.6899	2021.77
33.8844	2019.29
34.08	2016.8
34.2768	2014.3
34.4747	2011.79
34.6737	2009.27
34.8739	2006.73
35.0752	2004.18
35.2777	2001.62
35.4813	1999.05
35.6862	1996.47
35.8922	1993.87
36.0994	1991.27
36.3078	1988.65
36.5174	1986.02
36.7282	1983.38
36.9403	1980.72
37.1535	1978.06
37.368	1975.38
37.5837	1972.7
37.8007	1970
38.0189	1967.29
38.2384	1964.57
38.4592	1961.84
38.6812	1959.1
38.9045	1956.35
39.1291	1953.59
39.355	1950.81
39.5822	1948.03
39.8107	1945.24
40.0405	1942.44
40.2717	1939.62
40.5042	1936.8
40.738	1933.97
40.9732	1931.13
41.2098	1928.28
41.4477	1925.42
41.6869	1922.55
41.9276	1919.67
42.1697	1916.79
42.4131	1913.9
42.658	1911
42.9042	1908.09
43.1519	1905.18
43.401	1902.25
43.6516	1899.32
43.9036	1896.38
44.157	1893.43
44.412	1890.47
44.6684	1887.51
44.9262	1884.53
45.1856	1881.55
45.4465	1878.56
45.7088	1875.56
45.9727	1872.56
46.2381	1869.54
46.505	1866.52
46.7735	1863.49
47.0435	1860.45
47.3151	1857.41
47.5883	1854.35
47.863	1851.29
48.1393	1848.22
48.4172	1845.15
48.6968	1842.06
48.9779	1838.97
49.2606	1835.87
49.545	1832.76
49.831	1829.65
50.1187	1826.53
50.4081	1823.4
50.6991	1820.26
50.9918	1817.12
51.2861	1813.97
51.5822	1810.81
51.88	1807.64
52.1795	1804.47
52.4807	1801.29
52.7837	1798.11
53.0884	1794.91
53.3949	1791.71
53.7032	1788.51
54.0132	1785.29
54.325	1782.07
54.6387	1778.84
54.9541	1775.61
55.2713	1772.37
55.5904	1769.12
55.9114	1765.87
56.2341	1762.61
56.5588	1759.34
56.8853	1756.06
57.2137	1752.78
57.544	1749.49
57.8762	1746.19
58.2103	1742.89
58.5464	1739.58
58.8844	1736.27
59.2243	1732.95
59.5662	1729.62
59.9101	1726.29
60.256	1722.96
60.6038	1719.61
60.9537	1716.26
61.3056	1712.91
61.6595	1709.55
62.0155	1706.19
62.3735	1702.82
62.7336	1699.44
63.0957	1696.06
63.46	1692.67
63.8263	1689.28
64.1948	1685.88
64.5654	1682.48
64.9382	1679.08
65.3131	1675.66
65.6901	1672.25
66.0693	1668.82
66.4508	1665.4
66.8344	1661.97
67.2202	1658.53
67.6083	1655.09
67.9986	1651.64
68.3912	1648.19
68.786	1644.74
69.1831	1641.28
69.5825	1637.82
69.9842	1634.35
70.3882	1630.87
70.7946	1627.4
71.2033	1623.92
71.6143	1620.43
72.0278	1616.94
72.4436	1613.45
72.8618	1609.95
73.2825	1606.45
73.7055	1602.94
74.131	1599.43
74.559	1595.92
74.9894	1592.4
75.4223	1588.88
75.8578	1585.36
76.2957	1581.83
76.7361	1578.3
77.1792	1574.76
77.6247	1571.22
78.0728	1567.68
78.5236	1564.14
78.9769	1560.59
79.4328	1557.04
79.8914	1553.49
80.3526	1549.93
80.8165	1546.37
81.2831	1542.81
81.7523	1539.24
82.2243	1535.67
82.699	1532.1
83.1764	1528.53
83.6566	1524.95
84.1395	1521.37
84.6253	1517.79
85.1138	1514.2
85.6052	1510.61
86.0994	1507.02
86.5964	1503.43
87.0964	1499.83
87.5992	1496.23
88.1049	1492.63
88.6135	1489.03
89.1251	1485.42
89.6396	1481.82
90.1571	1478.21
90.6776	1474.6
91.2011	1470.99
91.7276	1467.38
92.2571	1463.76
92.7897	1460.15
93.3254	1456.53
93.8642	1452.91
94.4061	1449.29
94.9511	1445.67
95.4993	1442.05
96.0506	1438.42
96.6051	1434.8
97.1628	1431.17
97.7237	1427.55
98.2879	1423.92
98.8553	1420.29
99.426	1416.66
100	1413.03
100.577	1409.4
101.158	1405.77
101.742	1402.14
102.329	1398.51
102.92	1394.88
103.514	1391.24
104.112	1387.61
104.713	1383.97
105.317	1380.34
105.925	1376.7
106.537	1373.07
107.152	1369.43
107.771	1365.79
108.393	1362.15
109.018	1358.52
109.648	1354.88
110.281	1351.24
110.917	1347.6
111.558	1343.96
112.202	1340.32
112.85	1336.69
113.501	1333.06
114.156	1329.43
114.815	1325.8
115.478	1322.17
116.145	1318.54
116.815	1314.91
117.49	1311.28
118.168	1307.65
118.85	1304.02
119.536	1300.39
120.226	1296.76
120.921	1293.13
121.619	1289.51
122.321	1285.88
123.027	1282.25
123.737	1278.63
124.451	1275.01
125.17	1271.38
125.893	1267.76
126.619	1264.14
127.35	1260.52
128.086	1256.91
128.825	1253.29
129.569	1249.68
130.317	1246.07
131.069	1242.46
131.826	1238.85
132.587	1235.25
133.352	1231.64
134.122	1228.04
134.896	1224.44
135.675	1220.85
136.458	1217.25
137.246	1213.66
138.038	1210.07
138.835	1206.49
139.637	1202.9
140.443	1199.32
141.254	1195.74
142.069	1192.16
142.889	1188.58
143.714	1185
144.544	1181.43
145.378	1177.86
146.218	1174.3
147.062	1170.74
147.911	1167.18
148.765	1163.62
149.624	1160.07
150.487	1156.52
151.356	1152.97
152.23	1149.43
153.109	1145.89
153.993	1142.35
154.882	1138.82
155.776	1135.29
156.675	1131.77
157.58	1128.24
158.489	1124.72
159.404	1121.21
160.325	1117.7
161.25	1114.19
162.181	1110.68
163.117	1107.18
164.059	1103.68
165.006	1100.18
165.959	1096.69
166.917	1093.2
167.88	1089.71
168.85	1086.23
169.824	1082.75
170.805	1079.27
171.791	1075.8
172.783	1072.32
173.78	1068.86
174.783	1065.39
175.792	1061.93
176.807	1058.47
177.828	1055.02
178.855	1051.57
179.887	1048.13
180.926	1044.69
181.97	1041.25
183.021	1037.82
184.077	1034.39
185.14	1030.96
186.209	1027.54
187.284	1024.13
188.365	1020.72
189.452	1017.31
190.546	1013.91
191.646	1010.52
192.752	1007.13
193.865	1003.74
194.984	1000.36
196.11	996.985
197.242	993.614
198.381	990.249
199.526	986.889
200.678	983.534
201.837	980.185
203.002	976.84
204.174	973.502
205.353	970.168
206.538	966.841
207.73	963.518
208.93	960.201
210.136	956.89
211.349	953.584
212.569	950.284
213.796	946.989
215.03	943.7
216.272	940.416
217.52	937.138
218.776	933.865
220.039	930.598
221.309	927.336
222.587	924.079
223.872	920.827
225.165	917.581
226.464	914.34
227.772	911.104
229.087	907.874
230.409	904.649
231.739	901.43
233.077	898.216
234.423	895.009
235.776	891.808
237.137	888.612
238.506	885.423
239.883	882.24
241.268	879.063
242.661	875.893
244.062	872.729
245.471	869.572
246.888	866.421
248.313	863.277
249.747	860.14
251.189	857.01
252.639	853.886
254.097	850.769
255.564	847.659
257.04	844.556
258.523	841.46
260.016	838.371
261.517	835.288
263.027	832.213
264.545	829.143
266.073	826.081
267.609	823.025
269.153	819.975
270.707	816.932
272.27	813.895
273.842	810.865
275.423	807.84
277.013	804.822
278.612	801.809
280.221	798.801
281.838	795.795
283.465	792.795
285.102	789.8
286.748	786.811
288.403	783.828
290.068	780.852
291.743	777.882
293.427	774.918
295.121	771.96
296.825	769.01
298.538	766.066
300.262	763.128
301.995	760.198
303.739	757.275
305.492	754.359
307.256	751.45
309.03	748.549
310.814	745.655
312.608	742.769
314.413	739.89
316.228	737.019
318.053	734.156
319.89	731.301
321.736	728.453
323.594	725.614
325.462	722.783
327.341	719.959
329.23	717.144
331.131	714.338
333.043	711.539
334.965	708.749
336.899	705.968
338.844	703.195
340.8	700.43
342.768	697.674
344.747	694.926
346.737	692.187
348.739	689.456
350.752	686.734
352.777	684.02
354.813	681.315
356.862	678.618
358.922	675.93
360.994	673.251
363.078	670.579
365.174	667.916
367.282	665.262
369.403	662.615
371.535	659.977
373.68	657.347
375.837	654.725
378.007	652.111
380.189	649.505
382.384	646.906
384.592	644.315
386.812	641.731
389.045	639.155
391.291	636.586
393.55	634.023
395.822	631.468
398.107	628.919
400.405	626.376
402.717	623.84
405.042	621.31
407.38	618.785
409.732	616.266
412.098	613.751
414.477	611.242
416.869	608.738
419.276	606.237
421.697	603.779
424.131	601.34
426.58	598.906
429.042	596.477
431.519	594.052
434.01	591.632
436.516	589.217
439.036	586.806
441.57	584.401
444.12	582.001
446.684	579.606
449.262	577.217
451.856	574.833
454.465	572.454
457.088	570.082
459.727	567.715
462.381	565.354
465.05	562.999
467.735	560.651
470.435	558.308
473.151	555.973
475.883	553.643
478.63	551.32
481.393	549.004
484.172	546.694
486.968	544.392
489.779	542.096
492.606	539.807
495.45	537.526
498.31	535.252
501.187	532.985
504.081	530.725
506.991	528.473
509.918	526.228
512.861	523.992
515.822	521.762
518.8	519.541
521.795	517.327
524.807	515.122
527.837	512.924
530.884	510.734
533.949	508.552
537.032	506.379
540.132	504.214
543.25	502.056
546.387	499.907
549.541	497.767
552.713	495.634
555.904	493.51
559.114	491.395
562.341	489.279
565.588	487.169
568.853	485.068
572.137	482.975
575.44	480.89
578.762	478.814
582.103	476.747
585.464	474.688
588.844	472.637
592.243	470.596
595.662	468.563
599.101	466.538
602.56	464.522
606.038	462.515
609.537	460.517
613.056	458.527
616.595	456.546
620.155	454.573
623.735	452.609
627.336	450.653
630.957	448.706
634.6	446.767
638.263	444.837
641.948	442.915
645.654	441.001
649.382	439.096
653.131	437.198
656.901	435.308
660.693	433.427
664.508	431.553
668.344	429.686
672.202	427.827
676.083	425.976
679.986	424.131
683.912	422.294
687.86	420.463
691.831	418.639
695.825	416.822
699.842	415.011
703.882	413.205
707.946	411.405
712.033	409.612
716.143	407.825
720.278	406.044
724.436	404.269
728.618	402.501
732.825	400.739
737.055	398.983
741.31	397.234
745.59	395.492
749.894	393.756
754.223	392.027
758.578	390.304
762.957	388.588
767.361	386.878
771.792	385.175
776.247	383.479
780.728	381.79
785.236	380.107
789.769	378.431
794.328	376.761
798.914	375.098
803.526	373.442
808.165	371.793
812.831	370.15
817.523	368.513
822.243	366.884
826.99	365.26
831.764	363.643
836.566	362.033
841.395	360.428
846.253	358.827
851.138	357.232
856.052	355.644
860.994	354.062
865.964	352.487
870.964	350.918
875.992	349.356
881.049	347.8
886.135	346.251
891.251	344.709
896.396	343.174
901.571	341.645
906.776	340.123
912.011	338.608
917.276	337.1
922.571	335.599
927.897	334.105
933.254	332.618
938.642	331.137
944.061	329.664
949.511	328.197
954.993	326.738
960.506	325.285
966.051	323.84
971.628	322.401
977.237	320.969
982.879	319.544
988.553	318.125
994.26	316.714
1000	315.309
1005.77	313.911
1011.58	312.52
1017.42	311.135
1023.29	309.756
1029.2	308.384
1035.14	307.019
1041.12	305.659
1047.13	304.306
1053.17	302.959
1059.25	301.618
1065.37	300.283
1071.52	298.953
1077.71	297.629
1083.93	296.311
1090.18	294.997
1096.48	293.689
1102.81	292.386
1109.17	291.088
1115.58	289.794
1122.02	288.508
1128.5	287.234
1135.01	285.964
1141.56	284.699
1148.15	283.438
1154.78	282.181
1161.45	280.93
1168.15	279.683
1174.9	278.441
1181.68	277.203
1188.5	275.971
1195.36	274.743
1202.26	273.52
1209.21	272.302
1216.19	271.089
1223.21	269.881
1230.27	268.679
1237.37	267.481
1244.51	266.288
1251.7	265.101
1258.93	263.918
1266.19	262.741
1273.5	261.569
1280.86	260.403
1288.25	259.241
1295.69	258.085
1303.17	256.934
1310.69	255.789
1318.26	254.648
1325.87	253.513
1333.52	252.384
1341.22	251.259
1348.96	250.14
1356.75	249.026
1364.58	247.917
1372.46	246.814
1380.38	245.715
1388.35	244.622
1396.37	243.534
1404.43	242.45
1412.54	241.369
1420.69	240.294
1428.89	239.224
1437.14	238.159
1445.44	237.099
1453.78	236.044
1462.18	234.994
1470.62	233.95
1479.11	232.911
1487.65	231.876
1496.24	230.847
1504.87	229.823
1513.56	228.804
1522.3	227.791
1531.09	226.782
1539.93	225.778
1548.82	224.78
1557.76	223.786
1566.75	222.797
1575.8	221.813
1584.89	220.835
1594.04	219.86
1603.25	218.891
1612.5	217.926
1621.81	216.966
1631.17	216.011
1640.59	215.06
1650.06	214.113
1659.59	213.171
1669.17	212.233
1678.8	211.299
1688.5	210.369
1698.24	209.443
1708.05	208.521
1717.91	207.603
1727.83	206.689
1737.8	205.78
1747.83	204.874
1757.92	203.973
1768.07	203.076
1778.28	202.183
1788.55	201.294
1798.87	200.409
1809.26	199.529
1819.7	198.652
1830.21	197.78
1840.77	196.912
1851.4	196.049
1862.09	195.189
1872.84	194.334
1883.65	193.483
1894.52	192.636
1905.46	191.793
1916.46	190.954
1927.52	190.119
1938.65	189.288
1949.84	188.461
1961.1	187.638
1972.42	186.819
1983.81	186.004
1995.26	185.193
2006.78	184.386
2018.37	183.582
2030.02	182.783
2041.74	181.988
2053.53	181.196
2065.38	180.408
2077.3	179.625
2089.3	178.845
2101.36	178.069
2113.49	177.297
2125.69	176.528
2137.96	175.764
2150.3	175.003
2162.72	174.246
2175.2	173.492
2187.76	172.742
2200.39	171.996
2213.09	171.253
2225.87	170.514
2238.72	169.779
2251.65	169.046
2264.64	168.317
2277.72	167.592
2290.87	166.87
2304.09	166.151
2317.39	165.436
2330.77	164.724
2344.23	164.015
2357.76	163.31
2371.37	162.609
2385.06	161.911
2398.83	161.217
2412.68	160.525
2426.61	159.838
2440.62	159.154
2454.71	158.473
2468.88	157.796
2483.13	157.122
2497.47	156.451
2511.89	155.784
2526.39	155.12
2540.97	154.46
2555.64	153.803
2570.4	153.149
2585.23	152.498
2600.16	151.851
2615.17	151.207
2630.27	150.566
2645.45	149.928
2660.73	149.293
2676.09	148.662
2691.53	148.033
2707.07	147.387
2722.7	146.718
2738.42	146.052
2754.23	145.39
2770.13	144.731
2786.12	144.075
2802.21	143.422
2818.38	142.771
2834.65	142.123
2851.02	141.477
2867.48	140.835
2884.03	140.196
2900.68	139.559
2917.43	138.926
2934.27	138.296
2951.21	137.67
2968.25	137.046
2985.38	136.425
3002.62	135.808
3019.95	135.194
3037.39	134.583
3054.92	133.976
3072.56	133.372
3090.3	132.771
3108.14	132.173
3126.08	131.579
3144.13	130.988
3162.28	130.401
3180.53	129.817
3198.9	129.236
3217.36	128.659
3235.94	128.085
3254.62	127.514
3273.41	126.947
3292.3	126.383
3311.31	125.823
3330.43	125.266
3349.65	124.713
3368.99	124.163
3388.44	123.616
3408	123.073
3427.68	122.533
3447.47	121.997
3467.37	121.464
3487.39	120.934
3507.52	120.408
3527.77	119.885
3548.13	119.366
3568.62	118.849
3589.22	118.336
3609.94	117.827
3630.78	117.32
3651.74	116.817
3672.82	116.316
3694.03	115.819
3715.35	115.325
3736.8	114.834
3758.37	114.346
3780.07	113.861
3801.89	113.379
3823.84	112.899
3845.92	112.423
3868.12	111.949
3890.45	111.478
3912.91	111.009
3935.5	110.543
3958.22	110.079
3981.07	109.617
4004.05	109.158
4027.17	108.701
4050.42	108.246
4073.8	107.793
4097.32	107.342
4120.98	106.893
4144.77	106.446
4168.69	106
4192.76	105.555
4216.97	105.121
4241.31	104.693
4265.8	104.266
4290.42	103.84
4315.19	103.416
4340.1	102.994
4365.16	102.573
4390.36	102.153
4415.7	101.735
4441.2	101.318
4466.84	100.903
4492.62	100.489
4518.56	100.078
4544.65	99.6673
4570.88	99.2586
4597.27	98.8516
4623.81	98.4463
4650.5	98.0426
4677.35	97.6407
4704.35	97.2405
4731.51	96.8421
4758.83	96.4454
4786.3	96.0505
4813.93	95.6575
4841.72	95.2662
4869.68	94.8768
4897.79	94.4892
4926.06	94.1036
4954.5	93.7198
4983.1	93.3379
5011.87	92.9579
5040.81	92.5799
5069.91	92.2038
5099.18	91.8297
5128.61	91.4576
5158.22	91.0874
5188	90.7193
5217.95	90.3532
5248.07	89.9891
5278.37	89.627
5308.84	89.267
5339.49	88.909
5370.32	88.5531
5401.32	88.1992
5432.5	87.8475
5463.87	87.4978
5495.41	87.1502
5527.13	86.8047
5559.04	86.4613
5591.14	86.12
5623.41	85.7792
5655.88	85.44
5688.53	85.1029
5721.37	84.7679
5754.4	84.435
5787.62	84.1042
5821.03	83.7755
5854.64	83.4489
5888.44	83.1243
5922.43	82.8019
5956.62	82.4816
5991.01	82.1633
6025.6	81.8471
6060.38	81.533
6095.37	81.221
6130.56	80.911
6165.95	80.6031
6201.55	80.2971
6237.35	79.9932
6273.36	79.6913
6309.57	79.3913
6346	79.0933
6382.63	78.7973
6419.48	78.5031
6456.54	78.2109
6493.82	77.9205
6531.31	77.6319
6569.01	77.3452
6606.93	77.0602
6645.08	76.7769
6683.44	76.4954
6722.02	76.2155
6760.83	75.9373
6799.86	75.6606
6839.12	75.3854
6878.6	75.1118
6918.31	74.8396
6958.25	74.5687
6998.42	74.2992
7038.82	74.0309
7079.46	73.7639
7120.33	73.4981
7161.43	73.2337
7202.78	72.9705
7244.36	72.7086
7286.18	72.4481
7328.25	72.1889
7370.55	71.931
7413.1	71.6745
7455.9	71.4192
7498.94	71.1654
7542.23	70.9129
7585.78	70.6617
7629.57	70.4119
7673.61	70.1634
7717.92	69.9163
7762.47	69.6705
7807.28	69.4261
7852.36	69.183
7897.69	68.9413
7943.28	68.7009
7989.14	68.4619
8035.26	68.2242
8081.65	67.9879
8128.31	67.7529
8175.23	67.5192
8222.43	67.2868
8269.9	67.0557
8317.64	66.8259
8365.66	66.5974
8413.95	66.37
8462.53	66.1435
8511.38	65.9183
8560.52	65.6944
8609.94	65.4717
8659.64	65.2503
8709.64	65.0303
8759.92	64.8115
8810.49	64.594
8861.35	64.3779
8912.51	64.163
8963.96	63.9495
9015.71	63.7373
9067.76	63.5264
9120.11	63.3169
9172.76	63.1086
9225.71	62.9017
9278.97	62.6962
9332.54	62.4919
9386.42	62.289
9440.61	62.0874
9495.11	61.8872
9549.93	61.6882
9605.06	61.4906
9660.51	61.2942
9716.28	61.0992
9772.37	60.9055
9828.79	60.713
9885.53	60.5218
9942.6	60.3319
10000	60.1433
10057.7	59.9559
10115.8	59.7697
10174.2	59.5848
10232.9	59.401
10292	59.2184
10351.4	59.037
10411.2	58.8568
10471.3	58.6777
10531.7	58.4996
10592.5	58.3227
10653.7	58.1468
10715.2	57.972
10777.1	57.7982
10839.3	57.6254
10901.8	57.4535
10964.8	57.2825
11028.1	57.1124
11091.7	56.9432
11155.8	56.7748
11220.2	56.6077
11285	56.4425
11350.1	56.2781
11415.6	56.1145
11481.5	55.9517
11547.8	55.7896
11614.5	55.6284
11681.5	55.4679
11749	55.3083
11816.8	55.1495
11885	54.9915
11953.6	54.8344
12022.6	54.6781
12092.1	54.5226
12161.9	54.368
12232.1	54.2143
12302.7	54.0614
12373.7	53.9093
12445.1	53.7581
12517	53.6078
12589.3	53.4584
12661.9	53.3099
12735	53.1622
12808.6	53.0154
12882.5	52.8695
12956.9	52.7244
13031.7	52.5803
13106.9	52.437
13182.6	52.2946
13258.7	52.1532
13335.2	52.0125
13412.2	51.8728
13489.6	51.734
13567.5	51.596
13645.8	51.4589
13724.6	51.3227
13803.8	51.1873
13883.5	51.0528
13963.7	50.9192
14044.3	50.7862
14125.4	50.6539
14206.9	50.5224
14288.9	50.3918
14371.4	50.262
14454.4	50.1331
14537.8	50.0051
14621.8	49.8779
14706.2	49.7515
14791.1	49.626
14876.5	49.5014
14962.4	49.3776
15048.7	49.2547
15135.6	49.1326
15223	49.0113
15310.9	48.8909
15399.3	48.7714
15488.2	48.6526
15577.6	48.5347
15667.5	48.4176
15758	48.3013
15848.9	48.1859
15940.4	48.0712
16032.5	47.9573
16125	47.8442
16218.1	47.7319
16311.7	47.6203
16405.9	47.5095
16500.6	47.3994
16595.9	47.29
16691.7	47.1813
16788	47.0734
16885	46.9661
16982.4	46.8595
17080.5	46.7535
17179.1	46.6482
17278.3	46.5437
17378	46.4398
17478.3	46.3366
17579.2	46.234
17680.7	46.1322
17782.8	46.031
17885.5	45.9305
17988.7	45.8307
18092.6	45.7316
18197	45.6331
18302.1	45.5354
18407.7	45.4383
18514	45.3418
18620.9	45.246
18728.4	45.1509
18836.5	45.0564
18945.2	44.9626
19054.6	44.8694
19164.6	44.7769
19275.2	44.685
19386.5	44.5937
19498.4	44.503
19611	44.4129
19724.2	44.3234
19838.1	44.2344
19952.6	44.1461
20067.8	44.0584
20183.7	43.9713
20300.2	43.8847
20417.4	43.7988
20535.3	43.7135
20653.8	43.6288
20773	43.5446
20893	43.4611
21013.6	43.3781
21134.9	43.2958
21256.9	43.214
21379.6	43.1328
21503	43.0522
21627.2	42.9722
21752	42.8928
21877.6	42.8139
22003.9	42.7356
22130.9	42.6579
22258.7	42.5808
22387.2	42.5041
22516.5	42.4281
22646.4	42.3526
22777.2	42.2776
22908.7	42.2032
23040.9	42.1293
23173.9	42.0559
23307.7	41.9831
23442.3	41.9109
23577.6	41.8392
23713.7	41.768
23850.6	41.6973
23988.3	41.6272
24126.8	41.5576
24266.1	41.4885
24406.2	41.42
24547.1	41.3519
24688.8	41.2844
24831.3	41.2174
24974.7	41.1508
25118.9	41.0848
25263.9	41.0192
25409.7	40.9541
25556.4	40.8895
25704	40.8253
25852.3	40.7616
26001.6	40.6983
26151.7	40.6355
26302.7	40.5731
26454.5	40.511
26607.3	40.4494
26760.9	40.3882
26915.3	40.3273
27070.7	40.2667
27227	40.2065
27384.2	40.1467
27542.3	40.0871
27701.3	40.0278
27861.2	39.9688
28022.1	39.9096
28183.8	39.848
28346.5	39.7869
28510.2	39.7262
28674.8	39.6659
28840.3	39.6061
29006.8	39.5467
29174.3	39.4878
29342.7	39.4293
29512.1	39.3713
29682.5	39.3137
29853.8	39.2565
30026.2	39.1997
30199.5	39.1434
30373.9	39.0875
30549.2	39.0321
30725.6	38.977
30903	38.9224
31081.4	38.8682
31260.8	38.8144
31441.3	38.761
31622.8	38.708
31805.3	38.6554
31989	38.6033
32173.6	38.5515
32359.4	38.5001
32546.2	38.4491
32734.1	38.3986
32923	38.3484
33113.1	38.2986
33304.3	38.2492
33496.5	38.2002
33689.9	38.1515
33884.4	38.1033
34080	38.0554
34276.8	38.0079
34474.7	37.9608
34673.7	37.9141
34873.9	37.8677
35075.2	37.8217
35277.7	37.776
35481.3	37.7308
35686.2	37.6858
35892.2	37.6413
36099.4	37.5971
36307.8	37.5533
36517.4	37.5098
36728.2	37.4666
36940.3	37.4239
37153.5	37.3814
37368	37.3393
37583.7	37.2976
37800.7	37.2562
38018.9	37.2151
38238.4	37.1744
38459.2	37.134
38681.2	37.0939
38904.5	37.0542
39129.1	37.0148
39355	36.9758
39582.2	36.937
39810.7	36.8986
40040.5	36.8605
40271.7	36.8227
40504.2	36.7853
40738	36.7481
40973.2	36.7113
41209.8	36.6748
41447.7	36.6386
41686.9	36.6027
41927.6	36.5671
42169.7	36.5318
42413.1	36.4968
42658	36.4621
42904.2	36.4278
43151.9	36.3937
43401	36.3599
43651.6	36.3264
43903.6	36.2932
44157	36.2603
44412	36.2277
44668.4	36.1953
44926.2	36.1633
45185.6	36.1315
45446.5	36.1
45708.8	36.0688
45972.7	36.0379
46238.1	36.0072
46505	35.9769
46773.5	35.9468
47043.5	35.9169
47315.1	35.8874
47588.3	35.8581
47863	35.829
48139.3	35.8003
48417.2	35.7718
48696.8	35.7435
48977.9	35.7155
49260.6	35.6878
49545	35.6603
49831	35.6331
50118.7	35.6062
50408.1	35.5794
50699.1	35.553
50991.8	35.5268
51286.1	35.5008
51582.2	35.4751
51880	35.4496
52179.5	35.4244
52480.7	35.3994
52783.7	35.3746
53088.4	35.3501
53394.9	35.3258
53703.2	35.3017
54013.2	35.2779
54325	35.2543
54638.7	35.231
54954.1	35.2078
55271.3	35.1849
55590.4	35.1622
55911.4	35.1398
56234.1	35.1175
56558.8	35.0955
56885.3	35.0737
57213.7	35.0521
57544	35.0308
57876.2	35.0096
58210.3	34.9887
58546.4	34.9679
58884.4	34.9474
59224.3	34.9271
59566.2	34.907
59910.1	34.8871
60256	34.8674
60603.8	34.8479
60953.7	34.8286
61305.6	34.8096
61659.5	34.7907
62015.5	34.772
62373.5	34.7535
62733.6	34.7352
63095.7	34.7171
63460	34.6992
63826.3	34.6814
64194.8	34.6639
64565.4	34.6465
64938.2	34.6294
65313.1	34.6124
65690.1	34.5956
66069.3	34.579
66450.8	34.5626
66834.4	34.5463
67220.2	34.5303
67608.3	34.5144
67998.6	34.4986
68391.2	34.4831
68786	34.4677
69183.1	34.4525
69582.5	34.4375
69984.2	34.4226
70388.2	34.408
70794.6	34.3934
71203.3	34.3791
71614.3	34.3649
72027.8	34.3509
72443.6	34.337
72861.8	34.3233
73282.5	34.3098
73705.5	34.2964
74131	34.2832
74559	34.2701
74989.4	34.2572
75422.3	34.2444
75857.8	34.2318
76295.7	34.2194
76736.1	34.2071
77179.2	34.1949
77624.7	34.1829
78072.8	34.171
78523.6	34.1593
78976.9	34.1477
79432.8	34.1363
79891.4	34.125
80352.6	34.1139
80816.5	34.1029
81283.1	34.092
81752.3	34.0813
82224.3	34.0707
82699	34.0603
83176.4	34.05
83656.6	34.0398
84139.5	34.0297
84625.3	34.0198
85113.8	34.01
85605.2	34.0004
86099.4	33.9909
86596.4	33.9815
87096.4	33.9722
87599.2	33.963
88104.9	33.954
88613.5	33.9451
89125.1	33.9363
89639.6	33.9277
90157.1	33.9191
90677.6	33.9107
91201.1	33.9024
91727.6	33.8943
92257.1	33.8862
92789.7	33.8782
93325.4	33.8704
93864.2	33.8627
94406.1	33.8551
94951.1	33.8476
95499.3	33.8402
96050.6	33.8329
96605.1	33.8258
97162.8	33.8187
97723.7	33.8118
98287.9	33.8049
98855.3	33.7982
99426	33.7915
100000	33.785
100577	33.7786
101158	33.7722
101742	33.766
102329	33.7599
102920	33.7539
103514	33.7479
104112	33.7421
104713	33.7364
105317	33.7307
105925	33.7252
106537	33.7197
107152	33.7144
107771	33.7091
108393	33.7039
109018	33.6988
109648	33.6938
110281	33.6889
110917	33.6841
111558	33.6793
112202	33.6747
112850	33.6701
113501	33.6657
114156	33.6613
114815	33.6569
115478	33.6527
116145	33.6486
116815	33.6445
117490	33.6405
118168	33.6366
118850	33.6328
119536	33.629
120226	33.6253
120921	33.6217
121619	33.6182
122321	33.6148
123027	33.6114
123737	33.6081
124451	33.6049
125170	33.6017
125893	33.5986
126619	33.5956
127350	33.5926
128086	33.5898
128825	33.5869
129569	33.5842
130317	33.5815
131069	33.5789
131826	33.5764
132587	33.5739
133352	33.5715
134122	33.5691
134896	33.5668
135675	33.5646
136458	33.5624
137246	33.5603
138038	33.5583
138835	33.5563
139637	33.5544
140443	33.5525
141254	33.5507
142069	33.5489
142889	33.5472
143714	33.5456
144544	33.544
145378	33.5424
146218	33.541
147062	33.5395
147911	33.5382
148765	33.5368
149624	33.5356
150487	33.5343
151356	33.5332
152230	33.5321
153109	33.531
153993	33.53
154882	33.529
155776	33.5281
156675	33.5272
157580	33.5263
158489	33.5256
159404	33.5248
160325	33.5241
161250	33.5235
162181	33.5229
163117	33.5223
164059	33.5218
165006	33.5213
165959	33.5208
166917	33.5204
167880	33.5201
168850	33.5198
169824	33.5195
170805	33.5192
171791	33.519
172783	33.5189
173780	33.5187
174783	33.5187
175792	33.5186
176807	33.5186
177828	33.5186
178855	33.5187
179887	33.5188
180926	33.5189
181970	33.519
183021	33.5192
184077	33.5194
185140	33.5197
186209	33.52
187284	33.5203
188365	33.5207
189452	33.521
190546	33.5215
191646	33.5219
192752	33.5224
193865	33.5229
194984	33.5234
196110	33.5239
197242	33.5245
198381	33.5251
199526	33.5258
200678	33.5264
201837	33.5271
203002	33.5279
204174	33.5286
205353	33.5294
206538	33.5302
207730	33.531
208930	33.5318
210136	33.5327
211349	33.5336
212569	33.5345
213796	33.5354
215030	33.5364
216272	33.5373
217520	33.5383
218776	33.5393
220039	33.5404
221309	33.5414
222587	33.5425
223872	33.5436
225165	33.5447
226464	33.5459
227772	33.547
229087	33.5482
230409	33.5494
231739	33.5506
233077	33.5518
234423	33.553
235776	33.5543
237137	33.5556
238506	33.5569
239883	33.5582
241268	33.5595
242661	33.5608
244062	33.5622
245471	33.5635
246888	33.5649
248313	33.5663
249747	33.5677
251189	33.5691
252639	33.5706
254097	33.572
255564	33.5735
257040	33.5749
258523	33.5764
260016	33.5779
261517	33.5794
263027	33.5809
264545	33.5825
266073	33.584
267609	33.5856
269153	33.5871
270707	33.5887
272270	33.5903
273842	33.5918
275423	33.5934
277013	33.595
278612	33.5966
280221	33.5983
281838	33.5999
283465	33.6015
285102	33.6032
286748	33.6048
288403	33.6065
290068	33.6082
291743	33.6098
293427	33.6115
295121	33.6132
296825	33.6149
298538	33.6166
300262	33.6183
301995	33.62
303739	33.6217
305492	33.6234
307256	33.6251
309030	33.6269
310814	33.6286
312608	33.6303
314413	33.6321
316228	33.6338
318053	33.6356
319890	33.6373
321736	33.6391
323594	33.6408
325462	33.6426
327341	33.6444
329230	33.6461
331131	33.6479
333043	33.6497
334965	33.6514
336899	33.6532
338844	33.655
340800	33.6568
342768	33.6585
344747	33.6603
346737	33.6621
348739	33.6639
350752	33.6657
352777	33.6674
354813	33.6692
356862	33.671
358922	33.6728
360994	33.6746
363078	33.6764
365174	33.6781
367282	33.6799
369403	33.6817
371535	33.6835
373680	33.6853
375837	33.687
378007	33.6888
380189	33.6906
382384	33.6924
384592	33.6941
386812	33.6959
389045	33.6977
391291	33.6995
393550	33.7012
395822	33.703
398107	33.7047
400405	33.7065
402717	33.7083
405042	33.71
407380	33.7118
409732	33.7135
412098	33.7153
414477	33.717
416869	33.7187
419276	33.7205
421697	33.7222
424131	33.7239
426580	33.7257
429042	33.7274
431519	33.7291
434010	33.7308
436516	33.7325
439036	33.7342
441570	33.7359
444120	33.7376
446684	33.7393
449262	33.741
451856	33.7427
454465	33.7444
457088	33.746
459727	33.7477
462381	33.7494
465050	33.751
467735	33.7527
470435	33.7543
473151	33.756
475883	33.7576
478630	33.7593
481393	33.7609
484172	33.7625
486968	33.7641
489779	33.7657
492606	33.7673
495450	33.7689
498310	33.7705
501187	33.7721
504081	33.7737
506991	33.7753
509918	33.7768
512861	33.7784
515822	33.78
518800	33.7815
521795	33.7831
524807	33.7846
527837	33.7861
530884	33.7877
533949	33.7892
537032	33.7907
540132	33.7922
543250	33.7937
546387	33.7952
549541	33.7967
552713	33.7981
555904	33.7996
559114	33.8011
562341	33.8025
565588	33.804
568853	33.8054
572137	33.8069
575440	33.8083
578762	33.8097
582103	33.8111
585464	33.8125
588844	33.8139
592243	33.8153
595662	33.8167
599101	33.8181
602560	33.8194
606038	33.8208
609537	33.8222
613056	33.8235
616595	33.8248
620155	33.8262
623735	33.8275
627336	33.8288
630957	33.8301
634600	33.8314
638263	33.8327
641948	33.834
645654	33.8353
649382	33.8366
653131	33.8378
656901	33.8391
660693	33.8403
664508	33.8416
668344	33.8428
672202	33.844
676083	33.8452
679986	33.8464
683912	33.8476
687860	33.8488
691831	33.85
695825	33.8512
699842	33.8523
703882	33.8535
707946	33.8546
712033	33.8558
716143	33.8569
720278	33.858
724436	33.8592
728618	33.8603
732825	33.8614
737055	33.8625
741310	33.8636
745590	33.8646
749894	33.8657
754223	33.8668
758578	33.8678
762957	33.8689
767361	33.8699
771792	33.8709
776247	33.8719
780728	33.873
785236	33.874
789769	33.875
794328	33.8759
798914	33.8769
803526	33.8779
808165	33.8789
812831	33.8798
817523	33.8808
822243	33.8817
826990	33.8826
831764	33.8836
836566	33.8845
841395	33.8854
846253	33.8863
851138	33.8872
856052	33.888
860994	33.8889
865964	33.8898
870964	33.8906
875992	33.8915
881049	33.8923
886135	33.8932
891251	33.894
896396	33.8948
901571	33.8956
906776	33.8964
912011	33.8972
917276	33.898
922571	33.8988
927897	33.8996
933254	33.9003
938642	33.9011
944061	33.9018
949511	33.9026
954993	33.9033
960506	33.904
966051	33.9047
971628	33.9055
977237	33.9062
982879	33.9068
988553	33.9075
994260	33.9082
1e+06	33.9089
1.00577e+06	33.9095
1.01158e+06	33.9102
1.01742e+06	33.9108
1.02329e+06	33.9115
1.0292e+06	33.9121
1.03514e+06	33.9127
1.04112e+06	33.9134
1.04713e+06	33.914
1.05317e+06	33.9146
1.05925e+06	33.9152
1.06537e+06	33.9158
1.07152e+06	33.9163
1.07771e+06	33.9169
1.08393e+06	33.9175
1.09018e+06	33.918
1.09648e+06	33.9186
1.10281e+06	33.9191
1.10917e+06	33.9197
1.11558e+06	33.9202
1.12202e+06	33.9207
1.1285e+06	33.9212
1.13501e+06	33.9218
1.14156e+06	33.9223
1.14815e+06	33.9228
1.15478e+06	33.9232
1.16145e+06	33.9237
1.16815e+06	33.9242
1.1749e+06	33.9247
1.18168e+06	33.9251
1.1885e+06	33.9256
1.19536e+06	33.926
1.20226e+06	33.9265
1.20921e+06	33.9269
1.21619e+06	33.9273
1.22321e+06	33.9277
1.23027e+06	33.9282
1.23737e+06	33.9286
1.24451e+06	33.929
1.2517e+06	33.9294
1.25893e+06	33.9298
1.26619e+06	33.9301
1.2735e+06	33.9305
1.28086e+06	33.9309
1.28825e+06	33.9312
1.29569e+06	33.9316
1.30317e+06	33.932
1.31069e+06	33.9323
1.31826e+06	33.9326
1.32587e+06	33.933
1.33352e+06	33.9333
1.34122e+06	33.9336
1.34896e+06	33.9339
1.35675e+06	33.9342
1.36458e+06	33.9345
1.37246e+06	33.9348
1.38038e+06	33.9351
1.38835e+06	33.9354
1.39637e+06	33.9357
1.40443e+06	33.936
1.41254e+06	33.9362
1.42069e+06	33.9365
1.42889e+06	33.9368
1.43714e+06	33.937
1.44544e+06	33.9373
1.45378e+06	33.9375
1.46218e+06	33.9377
1.47062e+06	33.938
1.47911e+06	33.9382
1.48765e+06	33.9384
1.49624e+06	33.9386
1.50487e+06	33.9388
1.51356e+06	33.939
1.5223e+06	33.9392
1.53109e+06	33.9394
1.53993e+06	33.9396
1.54882e+06	33.9398
1.55776e+06	33.94
1.56675e+06	33.9401
1.5758e+06	33.9403
1.58489e+06	33.9405
1.59404e+06	33.9406
1.60325e+06	33.9408
1.6125e+06	33.9409
1.62181e+06	33.9411
1.63117e+06	33.9412
1.64059e+06	33.9414
1.65006e+06	33.9415
1.65959e+06	33.9416
1.66917e+06	33.9417
1.6788e+06	33.9419
1.6885e+06	33.942
1.69824e+06	33.9421
1.70805e+06	33.9422
1.71791e+06	33.9423
1.72783e+06	33.9424
1.7378e+06	33.9425
1.74783e+06	33.9426
1.75792e+06	33.9427
1.76807e+06	33.9428
1.77828e+06	33.9428
1.78855e+06	33.9429
1.79887e+06	33.943
1.80926e+06	33.943
1.8197e+06	33.9431
1.83021e+06	33.9432
1.84077e+06	33.9432
1.8514e+06	33.9433
1.86209e+06	33.9433
1.87284e+06	33.9434
1.88365e+06	33.9434
1.89452e+06	33.9435
1.90546e+06	33.9435
1.91646e+06	33.9435
1.92752e+06	33.9436
1.93865e+06	33.9436
1.94984e+06	33.9436
1.9611e+06	33.9436
1.97242e+06	33.9436
1.98381e+06	33.9437
1.99526e+06	33.9437
2.00678e+06	33.9437
2.01837e+06	33.9437
2.03002e+06	33.9437
2.04174e+06	33.9437
2.05353e+06	33.9437
2.06538e+06	33.9437
2.0773e+06	33.9437
2.0893e+06	33.9437
2.10136e+06	33.9437
2.11349e+06	33.9437
2.12569e+06	33.9436
2.13796e+06	33.9436
2.1503e+06	33.9436
2.16272e+06	33.9436
2.1752e+06	33.9436
2.18776e+06	33.9435
2.20039e+06	33.9435
2.21309e+06	33.9435
2.22587e+06	33.9434
2.23872e+06	33.9434
2.25165e+06	33.9434
2.26464e+06	33.9433
2.27772e+06	33.9433
2.29087e+06	33.9433
2.30409e+06	33.9432
2.31739e+06	33.9432
2.33077e+06	33.9431
2.34423e+06	33.9431
2.35776e+06	33.943
2.37137e+06	33.943
2.38506e+06	33.943
2.39883e+06	33.9429
2.41268e+06	33.9429
2.42661e+06	33.9428
2.44062e+06	33.9427
2.45471e+06	33.9427
2.46888e+06	33.9426
2.48313e+06	33.9426
2.49747e+06	33.9425
2.51189e+06	33.9425
2.52639e+06	33.9424
2.54097e+06	33.9424
2.55564e+06	33.9423
2.5704e+06	33.9422
2.58523e+06	33.9422
2.60016e+06	33.9421
2.61517e+06	33.9421
2.63027e+06	33.942
2.64545e+06	33.942
2.66073e+06	33.9419
2.67609e+06	33.9418
2.69153e+06	33.9418
2.70707e+06	33.9417
2.7227e+06	33.9417
2.73842e+06	33.9416
2.75423e+06	33.9415
2.77013e+06	33.9415
2.78612e+06	33.9414
2.80221e+06	33.9414
2.81838e+06	33.9413
2.83465e+06	33.9412
2.85102e+06	33.9412
2.86748e+06	33.9411
2.88403e+06	33.9411
2.90068e+06	33.941
2.91743e+06	33.941
2.93427e+06	33.9409
2.95121e+06	33.9409
2.96825e+06	33.9408
2.98538e+06	33.9408
3.00262e+06	33.9407
3.01995e+06	33.9407
3.03739e+06	33.9406
3.05492e+06	33.9406
3.07256e+06	33.9405
3.0903e+06	33.9405
3.10814e+06	33.9404
3.12608e+06	33.9404
3.14413e+06	33.9403
3.16228e+06	33.9403
3.18053e+06	33.9402
3.1989e+06	33.9402
3.21736e+06	33.9401
3.23594e+06	33.9401
3.25462e+06	33.94
3.27341e+06	33.94
3.2923e+06	33.9399
3.31131e+06	33.9399
3.33043e+06	33.9399
3.34965e+06	33.9398
3.36899e+06	33.9398
3.38844e+06	33.9397
3.408e+06	33.9397
3.42768e+06	33.9396
3.44747e+06	33.9396
3.46737e+06	33.9396
3.48739e+06	33.9395
3.50752e+06	33.9395
3.52777e+06	33.9394
3.54813e+06	33.9394
3.56862e+06	33.9394
3.58922e+06	33.9393
3.60994e+06	33.9393
3.63078e+06	33.9392
3.65174e+06	33.9392
3.67282e+06	33.9392
3.69403e+06	33.9391
3.71535e+06	33.9391
3.7368e+06	33.9391
3.75837e+06	33.939
3.78007e+06	33.939
3.80189e+06	33.9389
3.82384e+06	33.9389
3.84592e+06	33.9389
3.86812e+06	33.9388
3.89045e+06	33.9388
3.91291e+06	33.9388
3.9355e+06	33.9387
3.95822e+06	33.9387
3.98107e+06	33.9387
4.00405e+06	33.9386
4.02717e+06	33.9386
4.05042e+06	33.9386
4.0738e+06	33.9385
4.09732e+06	33.9385
4.12098e+06	33.9385
4.14477e+06	33.9384
4.16869e+06	33.9384
4.19276e+06	33.9384
4.21697e+06	33.9384
4.24131e+06	33.9383
4.2658e+06	33.9383
4.29042e+06	33.9383
4.31519e+06	33.9382
4.3401e+06	33.9382
4.36516e+06	33.9382
4.39036e+06	33.9381
4.4157e+06	33.9381
4.4412e+06	33.9381
4.46684e+06	33.9381
4.49262e+06	33.938
4.51856e+06	33.938
4.54465e+06	33.938
4.57088e+06	33.9379
4.59727e+06	33.9379
4.62381e+06	33.9379
4.6505e+06	33.9379
4.67735e+06	33.9378
4.70435e+06	33.9378
4.73151e+06	33.9378
4.75883e+06	33.9378
4.7863e+06	33.9377
4.81393e+06	33.9377
4.84172e+06	33.9377
4.86968e+06	33.9377
4.89779e+06	33.9376
4.92606e+06	33.9376
4.9545e+06	33.9376
4.9831e+06	33.9376
5.01187e+06	33.9375
5.04081e+06	33.9375
5.06991e+06	33.9375
5.09918e+06	33.9375
5.12861e+06	33.9374
5.15822e+06	33.9374
5.188e+06	33.9374
5.21795e+06	33.9374
5.24807e+06	33.9374
5.27837e+06	33.9373
5.30884e+06	33.9373
5.33949e+06	33.9373
5.37032e+06	33.9373
5.40132e+06	33.9373
5.4325e+06	33.9372
5.46387e+06	33.9372
5.49541e+06	33.9372
5.52713e+06	33.9372
5.55904e+06	33.9371
5.59114e+06	33.9371
5.62341e+06	33.9371
5.65588e+06	33.9371
5.68853e+06	33.9371
5.72137e+06	33.937
5.7544e+06	33.937
5.78762e+06	33.937
5.82103e+06	33.937
5.85464e+06	33.937
5.88844e+06	33.9369
5.92243e+06	33.9369
5.95662e+06	33.9369
5.99101e+06	33.9369
6.0256e+06	33.9369
6.06038e+06	33.9369
6.09537e+06	33.9368
6.13056e+06	33.9368
6.16595e+06	33.9368
6.20155e+06	33.9368
6.23735e+06	33.9368
6.27336e+06	33.9368
6.30957e+06	33.9367
6.346e+06	33.9367
6.38263e+06	33.9367
6.41948e+06	33.9367
6.45654e+06	33.9367
6.49382e+06	33.9366
6.53131e+06	33.9366
6.56901e+06	33.9366
6.60693e+06	33.9366
6.64508e+06	33.9366
6.68344e+06	33.9366
6.72202e+06	33.9366
6.76083e+06	33.9365
6.79986e+06	33.9365
6.83912e+06	33.9365
6.8786e+06	33.9365
6.91831e+06	33.9365
6.95825e+06	33.9365
6.99842e+06	33.9364
7.03882e+06	33.9364
7.07946e+06	33.9364
7.12033e+06	33.9364
7.16143e+06	33.9364
7.20278e+06	33.9364
7.24436e+06	33.9364
7.28618e+06	33.9363
7.32825e+06	33.9363
7.37055e+06	33.9363
7.4131e+06	33.9363
7.4559e+06	33.9363
7.49894e+06	33.9363
7.54223e+06	33.9363
7.58578e+06	33.9362
7.62957e+06	33.9362
7.67361e+06	33.9362
7.71792e+06	33.9362
7.76247e+06	33.9362
7.80728e+06	33.9362
7.85236e+06	33.9362
7.89769e+06	33.9362
7.94328e+06	33.9361
7.98914e+06	33.9361
8.03526e+06	33.9361
8.08165e+06	33.9361
8.12831e+06	33.9361
8.17523e+06	33.9361
8.22243e+06	33.9361
8.2699e+06	33.9361
8.31764e+06	33.936
8.36566e+06	33.936
8.41395e+06	33.936
8.46253e+06	33.936
8.51138e+06	33.936
8.56052e+06	33.936
8.60994e+06	33.936
8.65964e+06	33.936
8.70964e+06	33.936
8.75992e+06	33.9359
8.81049e+06	33.9359
8.86135e+06	33.9359
8.91251e+06	33.9359
8.96396e+06	33.9359
9.01571e+06	33.9359
9.06776e+06	33.9359
9.12011e+06	33.9359
9.17276e+06	33.9359
9.22571e+06	33.9358
9.27897e+06	33.9358
9.33254e+06	33.9358
9.38642e+06	33.9358
9.44061e+06	33.9358
9.49511e+06	33.9358
9.54993e+06	33.9358
9.60506e+06	33.9358
9.66051e+06	33.9358
9.71628e+06	33.9358
9.77237e+06	33.9358
9.82879e+06	33.9357
9.88553e+06	33.9357
9.9426e+06	33.9357
1e+07	33.9357
