Stopping power dEdx from Ionisation for Ti48[0.0] Z = 22 in Water, process name: ionIoni
E [MeV]	dEdx [MeV/mm]
0.001	22.9498
0.00100577	23.0163
0.00101158	23.083
0.00101742	23.1499
0.00102329	23.2171
0.0010292	23.2844
0.00103514	23.3519
0.00104112	23.4195
0.00104713	23.4874
0.00105317	23.5555
0.00105925	23.6238
0.00106537	23.6923
0.00107152	23.7609
0.00107771	23.8298
0.00108393	23.8989
0.00109018	23.9682
0.00109648	24.0376
0.00110281	24.1073
0.00110917	24.1772
0.00111558	24.2472
0.00112202	24.3175
0.0011285	24.388
0.00113501	24.4587
0.00114156	24.5296
0.00114815	24.6006
0.00115478	24.6719
0.00116145	24.7434
0.00116815	24.8151
0.0011749	24.887
0.00118168	24.9592
0.0011885	25.0315
0.00119536	25.104
0.00120226	25.1768
0.00120921	25.2497
0.00121619	25.3229
0.00122321	25.3963
0.00123027	25.4698
0.00123737	25.5436
0.00124451	25.6176
0.0012517	25.6919
0.00125893	25.7663
0.00126619	25.841
0.0012735	25.9158
0.00128086	25.9909
0.00128825	26.0662
0.00129569	26.1417
0.00130317	26.2175
0.00131069	26.2934
0.00131826	26.3696
0.00132587	26.446
0.00133352	26.5226
0.00134122	26.5994
0.00134896	26.6765
0.00135675	26.7538
0.00136458	26.8312
0.00137246	26.909
0.00138038	26.9869
0.00138835	27.0651
0.00139637	27.1435
0.00140443	27.2221
0.00141254	27.301
0.00142069	27.38
0.00142889	27.4593
0.00143714	27.5389
0.00144544	27.6186
0.00145378	27.6986
0.00146218	27.7788
0.00147062	27.8593
0.00147911	27.94
0.00148765	28.0209
0.00149624	28.102
0.00150487	28.1834
0.00151356	28.265
0.0015223	28.3469
0.00153109	28.429
0.00153993	28.5113
0.00154882	28.5939
0.00155776	28.6767
0.00156675	28.7597
0.0015758	28.843
0.00158489	28.9265
0.00159404	29.0103
0.00160325	29.0943
0.0016125	29.1785
0.00162181	29.263
0.00163117	29.3478
0.00164059	29.4327
0.00165006	29.518
0.00165959	29.6034
0.00166917	29.6891
0.0016788	29.7751
0.0016885	29.8613
0.00169824	29.9478
0.00170805	30.0345
0.00171791	30.1214
0.00172783	30.2086
0.0017378	30.2961
0.00174783	30.3838
0.00175792	30.4717
0.00176807	30.56
0.00177828	30.6484
0.00178855	30.7372
0.00179887	30.8261
0.00180926	30.9154
0.0018197	31.0049
0.00183021	31.0946
0.00184077	31.1846
0.0018514	31.2749
0.00186209	31.3654
0.00187284	31.4562
0.00188365	31.5473
0.00189452	31.6386
0.00190546	31.7302
0.00191646	31.822
0.00192752	31.9141
0.00193865	32.0065
0.00194984	32.0991
0.0019611	32.192
0.00197242	32.2852
0.00198381	32.3786
0.00199526	32.4724
0.00200678	32.5663
0.00201837	32.6606
0.00203002	32.7551
0.00204174	32.8499
0.00205353	32.945
0.00206538	33.0403
0.0020773	33.1359
0.0020893	33.2318
0.00210136	33.328
0.00211349	33.4245
0.00212569	33.5212
0.00213796	33.6182
0.0021503	33.7155
0.00216272	33.813
0.0021752	33.9109
0.00218776	34.009
0.00220039	34.1074
0.00221309	34.2061
0.00222587	34.3051
0.00223872	34.4044
0.00225165	34.5039
0.00226464	34.6037
0.00227772	34.7039
0.00229087	34.8043
0.00230409	34.905
0.00231739	35.006
0.00233077	35.1073
0.00234423	35.2088
0.00235776	35.3107
0.00237137	35.4129
0.00238506	35.5153
0.00239883	35.6181
0.00241268	35.7211
0.00242661	35.8245
0.00244062	35.9281
0.00245471	36.0321
0.00246888	36.1363
0.00248313	36.2408
0.00249747	36.3457
0.00251189	36.4508
0.00252639	36.5563
0.00254097	36.662
0.00255564	36.7681
0.0025704	36.8745
0.00258523	36.9811
0.00260016	37.0881
0.00261517	37.1954
0.00263027	37.303
0.00264545	37.4109
0.00266073	37.5191
0.00267609	37.6276
0.00269153	37.7365
0.00270707	37.8456
0.0027227	37.9551
0.00273842	38.0649
0.00275423	38.175
0.00277013	38.2854
0.00278612	38.3961
0.00280221	38.5072
0.00281838	38.6186
0.00283465	38.7303
0.00285102	38.8423
0.00286748	38.9546
0.00288403	39.0673
0.00290068	39.1803
0.00291743	39.2936
0.00293427	39.4072
0.00295121	39.5212
0.00296825	39.6355
0.00298538	39.7501
0.00300262	39.8651
0.00301995	39.9804
0.00303739	40.096
0.00305492	40.212
0.00307256	40.3283
0.0030903	40.4449
0.00310814	40.5618
0.00312608	40.6791
0.00314413	40.7968
0.00316228	40.9148
0.00318053	41.0331
0.0031989	41.1517
0.00321736	41.2707
0.00323594	41.3901
0.00325462	41.5098
0.00327341	41.6298
0.0032923	41.7502
0.00331131	41.8709
0.00333043	41.992
0.00334965	42.1134
0.00336899	42.2352
0.00338844	42.3573
0.003408	42.4797
0.00342768	42.6026
0.00344747	42.7258
0.00346737	42.8493
0.00348739	42.9732
0.00350752	43.0974
0.00352777	43.222
0.00354813	43.347
0.00356862	43.4723
0.00358922	43.598
0.00360994	43.7241
0.00363078	43.8505
0.00365174	43.9773
0.00367282	44.1044
0.00369403	44.2319
0.00371535	44.3598
0.0037368	44.488
0.00375837	44.6167
0.00378007	44.7456
0.00380189	44.875
0.00382384	45.0047
0.00384592	45.1348
0.00386812	45.2653
0.00389045	45.3962
0.00391291	45.5274
0.0039355	45.659
0.00395822	45.791
0.00398107	45.9234
0.00400405	46.0561
0.00402717	46.1893
0.00405042	46.3228
0.0040738	46.4567
0.00409732	46.591
0.00412098	46.7256
0.00414477	46.8607
0.00416869	46.9962
0.00419276	47.132
0.00421697	47.2682
0.00424131	47.4049
0.0042658	47.5419
0.00429042	47.6793
0.00431519	47.8171
0.0043401	47.9553
0.00436516	48.0939
0.00439036	48.233
0.0044157	48.3724
0.0044412	48.5122
0.00446684	48.6524
0.00449262	48.793
0.00451856	48.934
0.00454465	49.0755
0.00457088	49.2173
0.00459727	49.3596
0.00462381	49.5022
0.0046505	49.6453
0.00467735	49.7888
0.00470435	49.9327
0.00473151	50.077
0.00475883	50.2217
0.0047863	50.3668
0.00481393	50.5124
0.00484172	50.6584
0.00486968	50.8048
0.00489779	50.9516
0.00492606	51.0988
0.0049545	51.2465
0.0049831	51.3946
0.00501187	51.5431
0.00504081	51.6921
0.00506991	51.8415
0.00509918	51.9913
0.00512861	52.1415
0.00515822	51.5611
0.005188	51.7099
0.00521795	51.8591
0.00524807	52.0088
0.00527837	52.1589
0.00530884	52.3094
0.00533949	52.4604
0.00537032	52.6117
0.00540132	52.7636
0.0054325	52.9159
0.00546387	53.0686
0.00549541	53.2217
0.00552713	53.3753
0.00555904	53.5293
0.00559114	53.6838
0.00562341	53.8388
0.00565588	53.9941
0.00568853	54.15
0.00572137	54.3062
0.0057544	54.463
0.00578762	54.6202
0.00582103	54.7778
0.00585464	54.9359
0.00588844	55.0944
0.00592243	55.2534
0.00595662	55.4129
0.00599101	55.5728
0.0060256	55.7332
0.00606038	55.8941
0.00609537	56.0554
0.00613056	56.2172
0.00616595	56.3794
0.00620155	56.5421
0.00623735	56.7053
0.00627336	56.869
0.00630957	57.0331
0.006346	57.1977
0.00638263	57.3628
0.00641948	57.5284
0.00645654	57.6944
0.00649382	57.861
0.00653131	58.028
0.00656901	58.1954
0.00660693	58.3634
0.00664508	58.5319
0.00668344	58.7008
0.00672202	58.8702
0.00676083	59.0401
0.00679986	59.2106
0.00683912	59.3815
0.0068786	59.5529
0.00691831	59.7247
0.00695825	59.8971
0.00699842	60.07
0.00703882	60.2434
0.00707946	60.4173
0.00712033	60.5917
0.00716143	60.7666
0.00720278	60.942
0.00724436	61.1179
0.00728618	61.2943
0.00732825	61.4712
0.00737055	61.6487
0.0074131	61.8266
0.0074559	62.0051
0.00749894	62.1841
0.00754223	62.3636
0.00758578	62.5436
0.00762957	62.7241
0.00767361	62.9052
0.00771792	63.0868
0.00776247	63.2689
0.00780728	63.4515
0.00785236	63.6347
0.00789769	63.8183
0.00794328	64.0026
0.00798914	64.1873
0.00803526	64.3726
0.00808165	64.5584
0.00812831	64.7448
0.00817523	64.9317
0.00822243	65.1191
0.0082699	65.3071
0.00831764	65.4956
0.00836566	65.6847
0.00841395	65.8743
0.00846253	66.0645
0.00851138	66.2552
0.00856052	66.4465
0.00860994	66.6383
0.00865964	66.8307
0.00870964	67.0236
0.00875992	67.2171
0.00881049	67.4111
0.00886135	67.6057
0.00891251	67.8009
0.00896396	67.9967
0.00901571	68.193
0.00906776	68.3898
0.00912011	68.5873
0.00917276	68.7853
0.00922571	68.9839
0.00927897	69.183
0.00933254	69.3827
0.00938642	69.5831
0.00944061	69.7839
0.00949511	69.9854
0.00954993	70.1875
0.00960506	70.3901
0.00966051	70.5933
0.00971628	70.7971
0.00977237	71.0015
0.00982879	71.2065
0.00988553	71.4121
0.0099426	71.6183
0.01	71.8251
0.0100577	72.0324
0.0101158	72.2404
0.0101742	72.449
0.0102329	72.6582
0.010292	72.8679
0.0103514	73.0783
0.0104112	73.2893
0.0104713	73.5009
0.0105317	73.7132
0.0105925	73.926
0.0106537	74.1394
0.0107152	74.3535
0.0107771	74.5682
0.0108393	74.7835
0.0109018	74.9994
0.0109648	75.216
0.0110281	75.4332
0.0110917	75.651
0.0111558	75.8694
0.0112202	76.0885
0.011285	76.3082
0.0113501	76.5285
0.0114156	76.7495
0.0114815	76.9711
0.0115478	77.1934
0.0116145	77.4163
0.0116815	77.6398
0.011749	77.864
0.0118168	78.0888
0.011885	78.3143
0.0119536	78.5405
0.0120226	78.7673
0.0120921	78.9947
0.0121619	79.2228
0.0122321	79.4516
0.0123027	79.681
0.0123737	79.9111
0.0124451	80.1419
0.012517	80.3733
0.0125893	80.6054
0.0126619	80.8382
0.012735	81.0716
0.0128086	81.3058
0.0128825	81.5405
0.0129569	81.776
0.0130317	82.0122
0.0131069	82.249
0.0131826	82.4865
0.0132587	82.7248
0.0133352	82.9637
0.0134122	83.2033
0.0134896	83.4435
0.0135675	83.6845
0.0136458	83.9262
0.0137246	84.1686
0.0138038	84.4117
0.0138835	84.6554
0.0139637	84.8999
0.0140443	85.1451
0.0141254	85.391
0.0142069	85.6377
0.0142889	85.885
0.0143714	86.133
0.0144544	86.3818
0.0145378	86.6313
0.0146218	86.8815
0.0147062	87.1324
0.0147911	87.3841
0.0148765	87.6365
0.0149624	87.8896
0.0150487	88.1434
0.0151356	88.398
0.015223	88.6533
0.0153109	88.9094
0.0153993	89.1662
0.0154882	89.4237
0.0155776	89.682
0.0156675	89.941
0.015758	90.2008
0.0158489	90.4614
0.0159404	90.7227
0.0160325	90.9847
0.016125	91.2475
0.0162181	91.5111
0.0163117	91.7754
0.0164059	92.0405
0.0165006	92.3064
0.0165959	92.573
0.0166917	92.8404
0.016788	93.1086
0.016885	93.3775
0.0169824	93.6473
0.0170805	93.9178
0.0171791	94.1891
0.0172783	94.4612
0.017378	94.734
0.0174783	95.0077
0.0175792	95.2821
0.0176807	95.5574
0.0177828	95.8334
0.0178855	96.1103
0.0179887	96.3879
0.0180926	96.6664
0.018197	96.9456
0.0183021	97.2257
0.0184077	97.5066
0.018514	97.7882
0.0186209	98.0707
0.0187284	98.3541
0.0188365	98.6382
0.0189452	98.9232
0.0190546	99.209
0.0191646	99.4956
0.0192752	99.783
0.0193865	100.071
0.0194984	100.36
0.019611	100.65
0.0197242	100.941
0.0198381	101.233
0.0199526	101.525
0.0200678	101.819
0.0201837	102.113
0.0203002	102.408
0.0204174	102.704
0.0205353	103
0.0206538	103.298
0.020773	103.596
0.020893	103.896
0.0210136	104.196
0.0211349	104.497
0.0212569	104.799
0.0213796	105.102
0.021503	105.405
0.0216272	105.71
0.021752	106.015
0.0218776	106.322
0.0220039	106.629
0.0221309	106.937
0.0222587	107.246
0.0223872	107.556
0.0225165	107.867
0.0226464	108.178
0.0227772	108.491
0.0229087	108.805
0.0230409	109.119
0.0231739	109.434
0.0233077	109.75
0.0234423	110.068
0.0235776	110.386
0.0237137	110.705
0.0238506	111.025
0.0239883	111.345
0.0241268	111.667
0.0242661	111.99
0.0244062	112.314
0.0245471	112.638
0.0246888	112.964
0.0248313	113.29
0.0249747	113.617
0.0251189	113.946
0.0252639	114.275
0.0254097	114.605
0.0255564	114.937
0.025704	115.269
0.0258523	115.602
0.0260016	115.936
0.0261517	116.271
0.0263027	116.607
0.0264545	116.944
0.0266073	117.282
0.0267609	117.621
0.0269153	117.961
0.0270707	118.302
0.027227	118.644
0.0273842	118.987
0.0275423	119.331
0.0277013	119.676
0.0278612	120.022
0.0280221	120.368
0.0281838	120.716
0.0283465	121.065
0.0285102	121.415
0.0286748	121.766
0.0288403	122.118
0.0290068	122.471
0.0291743	122.825
0.0293427	123.18
0.0295121	123.536
0.0296825	123.893
0.0298538	124.251
0.0300262	124.611
0.0301995	124.971
0.0303739	125.332
0.0305492	125.694
0.0307256	126.058
0.030903	126.422
0.0310814	126.788
0.0312608	127.154
0.0314413	127.522
0.0316228	127.89
0.0318053	128.26
0.031989	128.631
0.0321736	129.003
0.0323594	129.376
0.0325462	129.75
0.0327341	130.125
0.032923	130.501
0.0331131	130.878
0.0333043	131.257
0.0334965	131.636
0.0336899	132.017
0.0338844	132.398
0.03408	132.781
0.0342768	133.165
0.0344747	133.55
0.0346737	133.936
0.0348739	134.324
0.0350752	134.712
0.0352777	135.101
0.0354813	135.492
0.0356862	135.884
0.0358922	136.277
0.0360994	136.671
0.0363078	137.066
0.0365174	137.462
0.0367282	137.86
0.0369403	138.258
0.0371535	138.658
0.037368	139.059
0.0375837	139.461
0.0378007	139.864
0.0380189	140.269
0.0382384	140.675
0.0384592	141.081
0.0386812	141.489
0.0389045	141.898
0.0391291	142.309
0.039355	142.72
0.0395822	143.133
0.0398107	143.547
0.0400405	143.962
0.0402717	144.378
0.0405042	144.796
0.040738	145.215
0.0409732	145.635
0.0412098	146.056
0.0414477	146.478
0.0416869	146.902
0.0419276	147.327
0.0421697	147.753
0.0424131	148.18
0.042658	148.609
0.0429042	149.039
0.0431519	149.47
0.043401	149.902
0.0436516	150.336
0.0439036	150.77
0.044157	151.207
0.044412	151.644
0.0446684	152.083
0.0449262	152.522
0.0451856	152.964
0.0454465	153.406
0.0457088	153.85
0.0459727	154.295
0.0462381	154.741
0.046505	155.189
0.0467735	155.638
0.0470435	156.088
0.0473151	156.539
0.0475883	156.992
0.047863	157.446
0.0481393	157.902
0.0484172	158.359
0.0486968	158.817
0.0489779	159.276
0.0492606	159.737
0.049545	160.199
0.049831	160.663
0.0501187	161.127
0.0504081	161.594
0.0506991	162.061
0.0509918	162.53
0.0512861	163
0.0515822	163.472
0.05188	163.945
0.0521795	164.419
0.0524807	164.895
0.0527837	165.372
0.0530884	165.85
0.0533949	166.33
0.0537032	166.812
0.0540132	167.294
0.054325	167.778
0.0546387	168.264
0.0549541	168.751
0.0552713	169.239
0.0555904	169.729
0.0559114	170.22
0.0562341	170.712
0.0565588	171.206
0.0568853	171.702
0.0572137	172.199
0.057544	172.697
0.0578762	173.197
0.0582103	173.698
0.0585464	174.201
0.0588844	174.705
0.0592243	175.21
0.0595662	175.717
0.0599101	176.226
0.060256	176.736
0.0606038	177.247
0.0609537	177.76
0.0613056	178.275
0.0616595	178.791
0.0620155	179.308
0.0623735	179.827
0.0627336	180.348
0.0630957	180.87
0.06346	181.393
0.0638263	181.918
0.0641948	182.445
0.0645654	182.973
0.0649382	183.503
0.0653131	184.034
0.0656901	184.566
0.0660693	185.101
0.0664508	185.636
0.0668344	186.174
0.0672202	186.713
0.0676083	187.253
0.0679986	187.795
0.0683912	188.339
0.068786	188.884
0.0691831	189.431
0.0695825	189.979
0.0699842	190.529
0.0703882	191.081
0.0707946	191.634
0.0712033	192.189
0.0716143	192.745
0.0720278	193.303
0.0724436	193.863
0.0728618	194.424
0.0732825	194.987
0.0737055	195.552
0.074131	196.118
0.074559	196.686
0.0749894	197.255
0.0754223	197.826
0.0758578	198.399
0.0762957	198.974
0.0767361	199.55
0.0771792	200.128
0.0776247	200.707
0.0780728	201.288
0.0785236	201.871
0.0789769	202.456
0.0794328	203.042
0.0798914	203.63
0.0803526	204.22
0.0808165	204.811
0.0812831	205.404
0.0817523	205.999
0.0822243	206.596
0.082699	207.194
0.0831764	207.794
0.0836566	208.396
0.0841395	208.999
0.0846253	209.605
0.0851138	210.212
0.0856052	210.821
0.0860994	211.431
0.0865964	212.044
0.0870964	212.658
0.0875992	213.274
0.0881049	213.891
0.0886135	214.511
0.0891251	215.132
0.0896396	215.756
0.0901571	216.38
0.0906776	217.007
0.0912011	217.636
0.0917276	218.266
0.0922571	218.899
0.0927897	219.533
0.0933254	220.169
0.0938642	220.807
0.0944061	221.446
0.0949511	222.088
0.0954993	222.731
0.0960506	223.376
0.0966051	224.024
0.0971628	224.673
0.0977237	225.324
0.0982879	225.976
0.0988553	226.631
0.099426	227.288
0.1	227.946
0.100577	228.607
0.101158	229.269
0.101742	229.933
0.102329	230.6
0.10292	231.268
0.103514	231.938
0.104112	232.61
0.104713	233.284
0.105317	233.96
0.105925	234.638
0.106537	235.318
0.107152	236
0.107771	236.684
0.108393	237.37
0.109018	238.058
0.109648	238.748
0.110281	239.44
0.110917	240.134
0.111558	240.83
0.112202	241.528
0.11285	242.228
0.113501	242.93
0.114156	243.634
0.114815	244.34
0.115478	245.048
0.116145	245.758
0.116815	246.471
0.11749	247.185
0.118168	247.902
0.11885	248.62
0.119536	249.341
0.120226	250.064
0.120921	250.789
0.121619	251.516
0.122321	252.245
0.123027	252.976
0.123737	253.71
0.124451	254.445
0.12517	255.183
0.125893	255.923
0.126619	256.665
0.12735	257.409
0.128086	258.155
0.128825	258.904
0.129569	259.654
0.130317	260.407
0.131069	261.162
0.131826	261.92
0.132587	262.679
0.133352	263.441
0.134122	264.205
0.134896	264.971
0.135675	265.739
0.136458	266.51
0.137246	267.283
0.138038	268.058
0.138835	268.835
0.139637	269.615
0.140443	270.397
0.141254	271.181
0.142069	271.967
0.142889	272.756
0.143714	273.547
0.144544	274.341
0.145378	275.136
0.146218	275.934
0.147062	276.735
0.147911	277.538
0.148765	278.343
0.149624	279.15
0.150487	279.96
0.151356	280.772
0.15223	281.586
0.153109	282.403
0.153993	283.222
0.154882	284.044
0.155776	284.868
0.156675	285.695
0.15758	286.523
0.158489	287.355
0.159404	288.188
0.160325	289.025
0.16125	289.863
0.162181	290.704
0.163117	291.548
0.164059	292.394
0.165006	293.242
0.165959	294.093
0.166917	294.946
0.16788	295.802
0.16885	296.66
0.169824	297.521
0.170805	298.385
0.171791	299.251
0.172783	300.119
0.17378	300.99
0.174783	301.864
0.175792	302.74
0.176807	303.618
0.177828	304.5
0.178855	305.383
0.179887	306.27
0.180926	307.159
0.18197	308.05
0.183021	308.944
0.184077	309.841
0.18514	310.74
0.186209	311.642
0.187284	312.547
0.188365	313.454
0.189452	314.364
0.190546	315.277
0.191646	316.192
0.192752	317.11
0.193865	318.031
0.194984	318.954
0.19611	319.88
0.197242	320.809
0.198381	321.74
0.199526	322.675
0.200678	323.612
0.201837	324.551
0.203002	325.494
0.204174	326.439
0.205353	327.387
0.206538	328.337
0.20773	329.291
0.20893	330.247
0.210136	331.206
0.211349	332.168
0.212569	333.133
0.213796	334.1
0.21503	335.07
0.216272	336.044
0.21752	337.02
0.218776	337.998
0.220039	338.98
0.221309	339.965
0.222587	340.952
0.223872	341.943
0.225165	342.936
0.226464	343.932
0.227772	344.931
0.229087	345.933
0.230409	346.938
0.231739	347.946
0.233077	348.957
0.234423	349.971
0.235776	350.987
0.237137	352.007
0.238506	353.03
0.239883	354.056
0.241268	355.084
0.242661	356.116
0.244062	357.151
0.245471	358.189
0.246888	359.23
0.248313	360.273
0.249747	361.32
0.251189	362.37
0.252639	363.423
0.254097	364.48
0.255564	365.539
0.25704	366.601
0.258523	367.667
0.260016	368.735
0.261517	369.807
0.263027	370.882
0.264545	371.96
0.266073	373.041
0.267609	374.126
0.269153	375.213
0.270707	376.304
0.27227	377.398
0.273842	378.495
0.275423	379.595
0.277013	380.699
0.278612	381.805
0.280221	382.915
0.281838	384.029
0.283465	385.145
0.285102	386.265
0.286748	387.388
0.288403	388.515
0.290068	389.644
0.291743	390.777
0.293427	391.914
0.295121	393.053
0.296825	394.196
0.298538	395.343
0.300262	396.492
0.301995	397.646
0.303739	398.802
0.305492	399.962
0.307256	401.125
0.30903	402.292
0.310814	403.462
0.312608	404.636
0.314413	405.813
0.316228	406.993
0.318053	408.177
0.31989	409.364
0.321736	410.555
0.323594	411.75
0.325462	412.947
0.327341	414.149
0.32923	415.354
0.331131	416.562
0.333043	417.774
0.334965	418.99
0.336899	420.209
0.338844	421.432
0.3408	422.658
0.342768	423.888
0.344747	425.121
0.346737	426.358
0.348739	427.599
0.350752	428.844
0.352777	430.092
0.354813	431.343
0.356862	432.599
0.358922	433.858
0.360994	435.121
0.363078	436.387
0.365174	437.657
0.367282	438.931
0.369403	440.209
0.371535	441.49
0.37368	442.776
0.375837	444.065
0.378007	445.357
0.380189	446.654
0.382384	447.954
0.384592	449.259
0.386812	450.567
0.389045	451.879
0.391291	453.194
0.39355	454.514
0.395822	455.837
0.398107	457.165
0.400405	458.496
0.402717	459.831
0.405042	461.17
0.40738	462.514
0.409732	463.861
0.412098	465.212
0.414477	466.567
0.416869	467.925
0.419276	469.288
0.421697	470.655
0.424131	472.026
0.42658	473.401
0.429042	474.78
0.431519	476.164
0.43401	477.551
0.436516	478.942
0.439036	480.337
0.44157	481.737
0.44412	483.14
0.446684	484.548
0.449262	485.96
0.451856	487.376
0.454465	488.796
0.457088	490.221
0.459727	491.649
0.462381	493.082
0.46505	494.519
0.467735	495.96
0.470435	497.406
0.473151	498.855
0.475883	500.309
0.47863	501.768
0.481393	503.23
0.484172	504.697
0.486968	506.168
0.489779	507.644
0.492606	509.124
0.49545	510.608
0.49831	512.097
0.501187	513.59
0.504081	515.087
0.506991	516.589
0.509918	518.095
0.512861	519.606
0.515822	521.121
0.5188	522.641
0.521795	524.165
0.524807	525.693
0.527837	527.226
0.530884	528.764
0.533949	530.306
0.537032	531.853
0.540132	533.404
0.54325	534.96
0.546387	536.52
0.549541	538.085
0.552713	539.655
0.555904	541.229
0.559114	542.808
0.562341	544.392
0.565588	545.98
0.568853	547.573
0.572137	549.171
0.57544	550.773
0.578762	552.38
0.582103	553.992
0.585464	555.609
0.588844	557.23
0.592243	558.856
0.595662	560.487
0.599101	562.123
0.60256	563.763
0.606038	565.409
0.609537	567.059
0.613056	568.714
0.616595	570.374
0.620155	572.039
0.623735	573.709
0.627336	575.384
0.630957	577.064
0.6346	578.749
0.638263	580.438
0.641948	582.133
0.645654	583.833
0.649382	585.537
0.653131	587.247
0.656901	588.962
0.660693	590.682
0.664508	592.407
0.668344	594.137
0.672202	595.872
0.676083	597.613
0.679986	599.358
0.683912	601.109
0.68786	602.864
0.691831	604.625
0.695825	606.392
0.699842	608.163
0.703882	609.94
0.707946	611.722
0.712033	613.509
0.716143	615.302
0.720278	617.099
0.724436	618.902
0.728618	620.711
0.732825	622.525
0.737055	624.344
0.74131	626.168
0.74559	627.998
0.749894	629.834
0.754223	631.675
0.758578	633.521
0.762957	635.373
0.767361	637.23
0.771792	639.093
0.776247	640.961
0.780728	642.835
0.785236	644.714
0.789769	646.599
0.794328	648.489
0.798914	650.385
0.803526	652.287
0.808165	654.195
0.812831	656.108
0.817523	658.026
0.822243	659.951
0.82699	661.881
0.831764	663.816
0.836566	665.758
0.841395	667.705
0.846253	669.658
0.851138	671.617
0.856052	673.582
0.860994	675.552
0.865964	677.528
0.870964	679.511
0.875992	681.499
0.881049	683.493
0.886135	685.493
0.891251	687.498
0.896396	689.51
0.901571	691.528
0.906776	693.552
0.912011	695.581
0.917276	697.617
0.922571	699.659
0.927897	701.707
0.933254	703.761
0.938642	705.821
0.944061	707.887
0.949511	709.959
0.954993	712.038
0.960506	714.122
0.966051	716.213
0.971628	718.31
0.977237	720.413
0.982879	722.523
0.988553	724.639
0.99426	726.761
1	728.889
1.00577	731.024
1.01158	733.165
1.01742	735.312
1.02329	737.466
1.0292	739.626
1.03514	741.793
1.04112	743.966
1.04713	746.145
1.05317	748.331
1.05925	750.524
1.06537	752.723
1.07152	754.928
1.07771	757.141
1.08393	759.359
1.09018	761.585
1.09648	763.816
1.10281	766.055
1.10917	768.3
1.11558	770.552
1.12202	772.811
1.1285	775.076
1.13501	777.348
1.14156	779.627
1.14815	781.913
1.15478	784.205
1.16145	786.504
1.16815	788.811
1.1749	791.124
1.18168	793.443
1.1885	795.77
1.19536	798.104
1.20226	800.483
1.20921	802.944
1.21619	805.419
1.22321	807.906
1.23027	810.406
1.23737	812.919
1.24451	815.446
1.2517	817.986
1.25893	820.539
1.26619	823.106
1.2735	825.686
1.28086	828.28
1.28825	830.887
1.29569	833.508
1.30317	836.143
1.31069	838.791
1.31826	841.453
1.32587	844.129
1.33352	846.818
1.34122	849.522
1.34896	852.24
1.35675	854.972
1.36458	857.717
1.37246	860.477
1.38038	863.252
1.38835	866.04
1.39637	868.843
1.40443	871.66
1.41254	874.492
1.42069	877.338
1.42889	880.198
1.43714	883.073
1.44544	885.897
1.45378	888.704
1.46218	891.525
1.47062	894.36
1.47911	897.209
1.48765	900.073
1.49624	902.951
1.50487	905.844
1.51356	908.75
1.5223	911.672
1.53109	914.608
1.53993	917.558
1.54882	920.523
1.55776	923.503
1.56675	926.497
1.5758	929.507
1.58489	932.53
1.59404	935.569
1.60325	938.623
1.6125	941.692
1.62181	944.775
1.63117	947.874
1.64059	950.987
1.65006	954.116
1.65959	957.26
1.66917	960.418
1.6788	963.593
1.6885	966.782
1.69824	969.986
1.70805	973.206
1.71791	976.441
1.72783	979.692
1.7378	982.958
1.74783	986.239
1.75792	989.536
1.76807	992.848
1.77828	996.176
1.78855	999.519
1.79887	1002.88
1.80926	1006.25
1.8197	1009.64
1.83021	1013.05
1.84077	1016.47
1.8514	1019.91
1.86209	1023.36
1.87284	1026.83
1.88365	1030.31
1.89452	1033.81
1.90546	1037.33
1.91646	1040.86
1.92752	1044.39
1.93865	1047.93
1.94984	1051.48
1.9611	1055.05
1.97242	1058.63
1.98381	1062.23
1.99526	1065.85
2.00678	1069.48
2.01837	1073.13
2.03002	1076.8
2.04174	1080.48
2.05353	1084.18
2.06538	1087.9
2.0773	1091.63
2.0893	1095.38
2.10136	1099.14
2.11349	1102.92
2.12569	1106.72
2.13796	1110.54
2.1503	1114.37
2.16272	1118.23
2.1752	1122.09
2.18776	1125.98
2.20039	1129.88
2.21309	1133.81
2.22587	1137.75
2.23872	1141.7
2.25165	1145.68
2.26464	1149.67
2.27772	1153.68
2.29087	1157.71
2.30409	1161.76
2.31739	1165.83
2.33077	1169.92
2.34423	1174.02
2.35776	1178.14
2.37137	1182.29
2.38506	1186.45
2.39883	1190.63
2.41268	1194.83
2.42661	1199.05
2.44062	1203.29
2.45471	1207.55
2.46888	1211.82
2.48313	1216.12
2.49747	1220.44
2.51189	1224.78
2.52639	1229.13
2.54097	1233.51
2.55564	1237.91
2.5704	1242.33
2.58523	1246.76
2.60016	1251.22
2.61517	1255.7
2.63027	1260.19
2.64545	1264.71
2.66073	1269.25
2.67609	1273.81
2.69153	1278.39
2.70707	1282.98
2.7227	1287.6
2.73842	1292.24
2.75423	1296.9
2.77013	1301.58
2.78612	1306.28
2.80221	1311.01
2.81838	1315.75
2.83465	1320.51
2.85102	1325.29
2.86748	1330.1
2.88403	1334.92
2.90068	1339.77
2.91743	1344.63
2.93427	1349.52
2.95121	1354.43
2.96825	1359.36
2.98538	1364.31
3.00262	1369.28
3.01995	1374.27
3.03739	1379.28
3.05492	1384.31
3.07256	1389.37
3.0903	1394.44
3.10814	1399.54
3.12608	1404.66
3.14413	1409.8
3.16228	1414.96
3.18053	1420.14
3.1989	1425.34
3.21736	1430.57
3.23594	1435.81
3.25462	1441.08
3.27341	1446.36
3.2923	1451.67
3.31131	1457
3.33043	1462.35
3.34965	1467.73
3.36899	1473.12
3.38844	1478.53
3.408	1483.97
3.42768	1489.43
3.44747	1494.91
3.46737	1500.41
3.48739	1505.93
3.50752	1511.47
3.52777	1517.04
3.54813	1522.62
3.56862	1528.23
3.58922	1533.85
3.60994	1539.5
3.63078	1545.17
3.65174	1550.86
3.67282	1556.57
3.69403	1562.31
3.71535	1568.06
3.7368	1573.84
3.75837	1579.63
3.78007	1585.45
3.80189	1591.29
3.82384	1597.14
3.84592	1603.02
3.86812	1608.92
3.89045	1614.84
3.91291	1620.78
3.9355	1626.74
3.95822	1632.73
3.98107	1638.73
4.00405	1644.75
4.02717	1650.79
4.05042	1656.86
4.0738	1662.94
4.09732	1669.04
4.12098	1675.17
4.14477	1681.31
4.16869	1687.47
4.19276	1693.66
4.21697	1699.86
4.24131	1706.08
4.2658	1712.33
4.29042	1718.59
4.31519	1724.87
4.3401	1731.17
4.36516	1737.49
4.39036	1743.83
4.4157	1750.19
4.4412	1756.57
4.46684	1762.97
4.49262	1769.38
4.51856	1775.82
4.54465	1782.27
4.57088	1788.74
4.59727	1795.23
4.62381	1801.74
4.6505	1808.27
4.67735	1814.81
4.70435	1821.38
4.73151	1827.96
4.75883	1834.56
4.7863	1841.18
4.81393	1847.82
4.84172	1854.47
4.86968	1861.15
4.89779	1867.84
4.92606	1874.55
4.9545	1881.27
4.9831	1888.01
5.01187	1894.77
5.04081	1901.55
5.06991	1908.35
5.09918	1915.16
5.12861	1921.98
5.15822	1928.83
5.188	1935.69
5.21795	1942.56
5.24807	1949.46
5.27837	1956.37
5.30884	1963.29
5.33949	1970.23
5.37032	1977.19
5.40132	1984.16
5.4325	1991.15
5.46387	1998.15
5.49541	2005.17
5.52713	2012.2
5.55904	2019.25
5.59114	2026.31
5.62341	2033.39
5.65588	2040.48
5.68853	2047.59
5.72137	2054.71
5.7544	2061.84
5.78762	2068.99
5.82103	2076.16
5.85464	2083.33
5.88844	2090.52
5.92243	2097.73
5.95662	2104.94
5.99101	2112.17
6.0256	2119.42
6.06038	2126.67
6.09537	2133.94
6.13056	2141.22
6.16595	2148.52
6.20155	2155.82
6.23735	2163.14
6.27336	2170.47
6.30957	2177.81
6.346	2185.16
6.38263	2192.52
6.41948	2199.9
6.45654	2207.28
6.49382	2214.68
6.53131	2222.09
6.56901	2229.5
6.60693	2236.93
6.64508	2244.37
6.68344	2251.82
6.72202	2259.27
6.76083	2266.74
6.79986	2274.22
6.83912	2281.7
6.8786	2289.2
6.91831	2296.7
6.95825	2304.21
6.99842	2311.73
7.03882	2319.26
7.07946	2326.79
7.12033	2334.34
7.16143	2341.89
7.20278	2349.44
7.24436	2356.95
7.28618	2364.46
7.32825	2371.98
7.37055	2379.51
7.4131	2387.04
7.4559	2394.57
7.49894	2402.11
7.54223	2409.66
7.58578	2417.21
7.62957	2424.76
7.67361	2432.32
7.71792	2439.88
7.76247	2447.44
7.80728	2455
7.85236	2462.57
7.89769	2470.14
7.94328	2477.7
7.98914	2485.27
8.03526	2492.84
8.08165	2500.41
8.12831	2507.98
8.17523	2515.55
8.22243	2523.12
8.2699	2530.68
8.31764	2538.24
8.36566	2545.8
8.41395	2553.36
8.46253	2560.91
8.51138	2568.46
8.56052	2576.01
8.60994	2583.55
8.65964	2591.08
8.70964	2598.61
8.75992	2606.13
8.81049	2613.64
8.86135	2621.15
8.91251	2628.65
8.96396	2636.14
9.01571	2643.62
9.06776	2651.09
9.12011	2658.55
9.17276	2666
9.22571	2673.44
9.27897	2680.87
9.33254	2688.29
9.38642	2695.69
9.44061	2703.08
9.49511	2710.46
9.54993	2717.82
9.60506	2725.17
9.66051	2732.52
9.71628	2739.86
9.77237	2747.18
9.82879	2754.48
9.88553	2761.77
9.9426	2769.04
10	2776.29
10.0577	2783.53
10.1158	2790.74
10.1742	2797.94
10.2329	2805.11
10.292	2812.27
10.3514	2819.41
10.4112	2826.52
10.4713	2833.62
10.5317	2840.69
10.5925	2847.74
10.6537	2854.77
10.7152	2861.77
10.7771	2868.76
10.8393	2875.72
10.9018	2882.65
10.9648	2889.56
11.0281	2896.45
11.0917	2903.31
11.1558	2910.15
11.2202	2916.96
11.285	2923.75
11.3501	2930.51
11.4156	2937.25
11.4815	2943.95
11.5478	2950.63
11.6145	2957.29
11.6815	2963.92
11.749	2970.51
11.8168	2977.08
11.885	2983.63
11.9536	2990.14
12.0226	2996.63
12.0921	3003.09
12.1619	3009.51
12.2321	3015.91
12.3027	3022.28
12.3737	3028.62
12.4451	3034.93
12.517	3041.21
12.5893	3047.45
12.6619	3053.67
12.735	3059.85
12.8086	3066
12.8825	3072.11
12.9569	3078.2
13.0317	3084.25
13.1069	3090.27
13.1826	3096.25
13.2587	3102.2
13.3352	3108.11
13.4122	3113.99
13.4896	3119.84
13.5675	3125.65
13.6458	3131.42
13.7246	3137.16
13.8038	3142.87
13.8835	3148.54
13.9637	3154.17
14.0443	3159.77
14.1254	3165.33
14.2069	3170.85
14.2889	3176.34
14.3714	3181.79
14.4544	3187.22
14.5378	3192.61
14.6218	3197.97
14.7062	3203.29
14.7911	3208.57
14.8765	3213.81
14.9624	3219.02
15.0487	3224.19
15.1356	3229.32
15.223	3234.41
15.3109	3239.46
15.3993	3244.47
15.4882	3249.44
15.5776	3254.38
15.6675	3259.27
15.758	3264.12
15.8489	3268.94
15.9404	3273.71
16.0325	3278.44
16.125	3283.13
16.2181	3287.79
16.3117	3292.4
16.4059	3296.97
16.5006	3301.5
16.5959	3305.98
16.6917	3310.43
16.788	3314.84
16.885	3319.2
16.9824	3323.53
17.0805	3327.81
17.1791	3332.06
17.2783	3336.26
17.378	3340.42
17.4783	3344.54
17.5792	3348.63
17.6807	3352.67
17.7828	3356.68
17.8855	3360.64
17.9887	3364.57
18.0926	3368.45
18.197	3372.3
18.3021	3376.12
18.4077	3379.89
18.514	3383.63
18.6209	3387.33
18.7284	3391
18.8365	3394.63
18.9452	3398.23
19.0546	3401.8
19.1646	3405.33
19.2752	3408.8
19.3865	3412.22
19.4984	3415.61
19.611	3418.96
19.7242	3422.29
19.8381	3425.57
19.9526	3428.83
20.0678	3432.05
20.1837	3435.24
20.3002	3438.4
20.4174	3441.52
20.5353	3444.6
20.6538	3447.65
20.773	3450.67
20.893	3453.65
21.0136	3456.6
21.1349	3459.51
21.2569	3462.39
21.3796	3465.23
21.503	3468.03
21.6272	3470.8
21.752	3473.54
21.8776	3476.23
22.0039	3478.9
22.1309	3481.52
22.2587	3484.11
22.3872	3486.67
22.5165	3489.19
22.6464	3491.67
22.7772	3494.12
22.9087	3496.54
23.0409	3498.92
23.1739	3501.26
23.3077	3503.57
23.4423	3505.84
23.5776	3508.08
23.7137	3510.28
23.8506	3512.45
23.9883	3514.59
24.1268	3516.7
24.2661	3518.78
24.4062	3520.83
24.5471	3522.84
24.6888	3524.82
24.8313	3526.76
24.9747	3528.67
25.1189	3530.55
25.2639	3532.39
25.4097	3534.2
25.5564	3535.97
25.704	3537.71
25.8523	3539.42
26.0016	3541.09
26.1517	3542.73
26.3027	3544.33
26.4545	3545.9
26.6073	3547.43
26.7609	3548.93
26.9153	3550.4
27.0707	3551.83
27.227	3553.23
27.3842	3554.59
27.5423	3555.93
27.7013	3557.23
27.8612	3558.49
28.0221	3559.73
28.1838	3560.93
28.3465	3562.1
28.5102	3563.24
28.6748	3564.35
28.8403	3565.43
29.0068	3566.48
29.1743	3567.49
29.3427	3568.48
29.5121	3569.44
29.6825	3570.36
29.8538	3571.26
30.0262	3572.12
30.1995	3572.95
30.3739	3573.76
30.5492	3574.53
30.7256	3575.27
30.903	3575.98
31.0814	3576.66
31.2608	3577.31
31.4413	3577.92
31.6228	3578.51
31.8053	3579.07
31.989	3579.59
32.1736	3580.09
32.3594	3580.55
32.5462	3580.99
32.7341	3581.4
32.923	3581.77
33.1131	3582.12
33.3043	3582.44
33.4965	3582.73
33.6899	3582.99
33.8844	3583.22
34.08	3583.42
34.2768	3583.6
34.4747	3583.74
34.6737	3583.86
34.8739	3583.95
35.0752	3584.01
35.2777	3584.04
35.4813	3584.04
35.6862	3584.01
35.8922	3583.96
36.0994	3583.87
36.3078	3583.76
36.5174	3583.62
36.7282	3583.45
36.9403	3583.25
37.1535	3583.02
37.368	3582.77
37.5837	3582.48
37.8007	3582.17
38.0189	3581.83
38.2384	3581.46
38.4592	3581.07
38.6812	3580.65
38.9045	3580.2
39.1291	3579.72
39.355	3579.22
39.5822	3578.69
39.8107	3578.13
40.0405	3577.55
40.2717	3576.93
40.5042	3576.29
40.738	3575.62
40.9732	3574.93
41.2098	3574.21
41.4477	3573.46
41.6869	3572.68
41.9276	3571.88
42.1697	3571.05
42.4131	3570.19
42.658	3569.31
42.9042	3568.4
43.1519	3567.47
43.401	3566.51
43.6516	3565.52
43.9036	3564.51
44.157	3563.47
44.412	3562.4
44.6684	3561.31
44.9262	3560.2
45.1856	3559.06
45.4465	3557.9
45.7088	3556.71
45.9727	3555.49
46.2381	3554.25
46.505	3552.99
46.7735	3551.7
47.0435	3550.39
47.3151	3549.06
47.5883	3547.7
47.863	3546.32
48.1393	3544.92
48.4172	3543.5
48.6968	3542.06
48.9779	3540.59
49.2606	3539.1
49.545	3537.59
49.831	3536.05
50.1187	3534.5
50.4081	3532.92
50.6991	3531.31
50.9918	3529.68
51.2861	3528.03
51.5822	3526.36
51.88	3524.66
52.1795	3522.94
52.4807	3521.2
52.7837	3519.43
53.0884	3517.63
53.3949	3515.82
53.7032	3513.98
54.0132	3512.11
54.325	3510.22
54.6387	3508.31
54.9541	3506.37
55.2713	3504.41
55.5904	3502.42
55.9114	3500.41
56.2341	3498.38
56.5588	3496.32
56.8853	3494.24
57.2137	3492.13
57.544	3490
57.8762	3487.84
58.2103	3485.66
58.5464	3483.46
58.8844	3481.23
59.2243	3478.97
59.5662	3476.69
59.9101	3474.39
60.256	3472.07
60.6038	3469.72
60.9537	3467.34
61.3056	3464.94
61.6595	3462.52
62.0155	3460.08
62.3735	3457.61
62.7336	3455.11
63.0957	3452.6
63.46	3450.06
63.8263	3447.49
64.1948	3444.91
64.5654	3442.3
64.9382	3439.67
65.3131	3437.02
65.6901	3434.34
66.0693	3431.64
66.4508	3428.92
66.8344	3426.18
67.2202	3423.42
67.6083	3420.64
67.9986	3417.83
68.3912	3415.01
68.786	3412.16
69.1831	3409.3
69.5825	3406.41
69.9842	3403.51
70.3882	3400.59
70.7946	3397.65
71.2033	3394.69
71.6143	3391.72
72.0278	3388.72
72.4436	3385.69
72.8618	3382.65
73.2825	3379.59
73.7055	3376.51
74.131	3373.42
74.559	3370.3
74.9894	3367.17
75.4223	3364.03
75.8578	3360.86
76.2957	3357.68
76.7361	3354.49
77.1792	3351.27
77.6247	3348.04
78.0728	3344.79
78.5236	3341.53
78.9769	3338.24
79.4328	3334.94
79.8914	3331.62
80.3526	3328.29
80.8165	3324.94
81.2831	3321.57
81.7523	3318.18
82.2243	3314.77
82.699	3311.35
83.1764	3307.91
83.6566	3304.46
84.1395	3300.98
84.6253	3297.49
85.1138	3293.98
85.6052	3290.46
86.0994	3286.91
86.5964	3283.35
87.0964	3279.77
87.5992	3276.18
88.1049	3272.57
88.6135	3268.94
89.1251	3265.29
89.6396	3261.62
90.1571	3257.94
90.6776	3254.24
91.2011	3250.52
91.7276	3246.79
92.2571	3243.04
92.7897	3239.27
93.3254	3235.48
93.8642	3231.68
94.4061	3227.86
94.9511	3224.02
95.4993	3220.16
96.0506	3216.29
96.6051	3212.4
97.1628	3208.49
97.7237	3204.56
98.2879	3200.61
98.8553	3196.65
99.426	3192.67
100	3188.68
100.577	3184.67
101.158	3180.64
101.742	3176.59
102.329	3172.53
102.92	3168.45
103.514	3164.35
104.112	3160.24
104.713	3156.11
105.317	3151.97
105.925	3147.81
106.537	3143.63
107.152	3139.44
107.771	3135.23
108.393	3131
109.018	3126.76
109.648	3122.5
110.281	3118.23
110.917	3113.94
111.558	3109.64
112.202	3105.32
112.85	3100.98
113.501	3096.64
114.156	3092.27
114.815	3087.89
115.478	3083.5
116.145	3079.09
116.815	3074.66
117.49	3070.22
118.168	3065.77
118.85	3061.31
119.536	3056.82
120.226	3052.33
120.921	3047.82
121.619	3043.3
122.321	3038.76
123.027	3034.21
123.737	3029.65
124.451	3025.07
125.17	3020.48
125.893	3015.88
126.619	3011.26
127.35	3006.63
128.086	3001.99
128.825	2997.34
129.569	2992.67
130.317	2987.99
131.069	2983.29
131.826	2978.58
132.587	2973.86
133.352	2969.13
134.122	2964.39
134.896	2959.63
135.675	2954.86
136.458	2950.08
137.246	2945.29
138.038	2940.48
138.835	2935.67
139.637	2930.84
140.443	2926
141.254	2921.14
142.069	2916.28
142.889	2911.4
143.714	2906.52
144.544	2901.62
145.378	2896.7
146.218	2891.78
147.062	2886.84
147.911	2881.9
148.765	2876.94
149.624	2871.97
150.487	2866.99
151.356	2862
152.23	2857
153.109	2851.99
153.993	2846.97
154.882	2841.93
155.776	2836.89
156.675	2831.84
157.58	2826.78
158.489	2821.7
159.404	2816.62
160.325	2811.53
161.25	2806.42
162.181	2801.31
163.117	2796.19
164.059	2791.05
165.006	2785.91
165.959	2780.76
166.917	2775.6
167.88	2770.43
168.85	2765.25
169.824	2760.06
170.805	2754.86
171.791	2749.65
172.783	2744.43
173.78	2739.2
174.783	2733.97
175.792	2728.72
176.807	2723.47
177.828	2718.2
178.855	2712.93
179.887	2707.65
180.926	2702.36
181.97	2697.06
183.021	2691.75
184.077	2686.43
185.14	2681.1
186.209	2675.77
187.284	2670.42
188.365	2665.07
189.452	2659.7
190.546	2654.33
191.646	2648.95
192.752	2643.57
193.865	2638.19
194.984	2632.8
196.11	2627.4
197.242	2622
198.381	2616.58
199.526	2611.16
200.678	2605.73
201.837	2600.29
203.002	2594.84
204.174	2589.39
205.353	2583.92
206.538	2578.45
207.73	2572.98
208.93	2567.49
210.136	2562
211.349	2556.51
212.569	2551
213.796	2545.49
215.03	2539.97
216.272	2534.45
217.52	2528.92
218.776	2523.39
220.039	2517.85
221.309	2512.3
222.587	2506.75
223.872	2501.19
225.165	2495.63
226.464	2490.06
227.772	2484.49
229.087	2478.91
230.409	2473.33
231.739	2467.74
233.077	2462.15
234.423	2456.55
235.776	2450.95
237.137	2445.35
238.506	2439.74
239.883	2434.13
241.268	2428.51
242.661	2422.88
244.062	2417.25
245.471	2411.62
246.888	2405.98
248.313	2400.34
249.747	2394.7
251.189	2389.06
252.639	2383.41
254.097	2377.76
255.564	2372.1
257.04	2366.45
258.523	2360.79
260.016	2355.13
261.517	2349.46
263.027	2343.8
264.545	2338.13
266.073	2332.46
267.609	2326.79
269.153	2321.11
270.707	2315.44
272.27	2309.76
273.842	2304.08
275.423	2298.4
277.013	2292.71
278.612	2287.03
280.221	2281.34
281.838	2275.66
283.465	2269.97
285.102	2264.27
286.748	2258.58
288.403	2252.89
290.068	2247.19
291.743	2241.49
293.427	2235.79
295.121	2230.09
296.825	2224.39
298.538	2218.68
300.262	2212.98
301.995	2207.27
303.739	2201.57
305.492	2195.86
307.256	2190.15
309.03	2184.44
310.814	2178.74
312.608	2173.03
314.413	2167.32
316.228	2161.61
318.053	2155.9
319.89	2150.2
321.736	2144.49
323.594	2138.78
325.462	2133.07
327.341	2127.36
329.23	2121.66
331.131	2115.95
333.043	2110.24
334.965	2104.54
336.899	2098.83
338.844	2093.13
340.8	2087.42
342.768	2081.72
344.747	2076.01
346.737	2070.31
348.739	2064.61
350.752	2058.91
352.777	2053.21
354.813	2047.51
356.862	2041.82
358.922	2036.12
360.994	2030.43
363.078	2024.73
365.174	2019.04
367.282	2013.35
369.403	2007.67
371.535	2001.98
373.68	1996.3
375.837	1990.62
378.007	1984.94
380.189	1979.26
382.384	1973.58
384.592	1967.91
386.812	1962.24
389.045	1956.56
391.291	1950.9
393.55	1945.23
395.822	1939.57
398.107	1933.91
400.405	1928.25
402.717	1922.59
405.042	1916.94
407.38	1911.29
409.732	1905.65
412.098	1900.01
414.477	1894.37
416.869	1888.74
419.276	1883.11
421.697	1877.48
424.131	1871.86
426.58	1866.25
429.042	1860.63
431.519	1855.03
434.01	1849.43
436.516	1843.83
439.036	1838.24
441.57	1832.65
444.12	1827.07
446.684	1821.49
449.262	1815.92
451.856	1810.35
454.465	1804.78
457.088	1799.23
459.727	1793.67
462.381	1788.12
465.05	1782.58
467.735	1777.04
470.435	1771.5
473.151	1765.97
475.883	1760.44
478.63	1754.92
481.393	1749.39
484.172	1743.87
486.968	1738.35
489.779	1732.83
492.606	1727.31
495.45	1721.81
498.31	1716.3
501.187	1710.8
504.081	1705.31
506.991	1699.82
509.918	1694.34
512.861	1688.86
515.822	1683.39
518.8	1677.93
521.795	1672.47
524.807	1667.02
527.837	1661.58
530.884	1656.14
533.949	1650.71
537.032	1645.29
540.132	1639.88
543.25	1634.47
546.387	1629.07
549.541	1623.68
552.713	1618.3
555.904	1612.93
559.114	1607.56
562.341	1602.21
565.588	1596.86
568.853	1591.52
572.137	1586.19
575.44	1580.87
578.762	1575.56
582.103	1570.26
585.464	1564.97
588.844	1559.69
592.243	1554.42
595.662	1549.16
599.101	1543.9
602.56	1538.66
606.038	1533.43
609.537	1528.21
613.056	1523
616.595	1517.79
620.155	1512.6
623.735	1507.42
627.336	1502.24
630.957	1497.08
634.6	1491.93
638.263	1486.78
641.948	1481.65
645.654	1476.52
649.382	1471.41
653.131	1466.3
656.901	1461.2
660.693	1456.11
664.508	1451.03
668.344	1445.96
672.202	1440.89
676.083	1435.83
679.986	1430.78
683.912	1425.74
687.86	1420.7
691.831	1415.68
695.825	1410.65
699.842	1405.63
703.882	1400.62
707.946	1395.62
712.033	1390.61
716.143	1385.61
720.278	1380.63
724.436	1375.74
728.618	1370.85
732.825	1365.97
737.055	1361.09
741.31	1356.22
745.59	1351.35
749.894	1346.49
754.223	1341.63
758.578	1336.77
762.957	1331.93
767.361	1327.09
771.792	1322.25
776.247	1317.42
780.728	1312.6
785.236	1307.79
789.769	1302.98
794.328	1298.18
798.914	1293.39
803.526	1288.6
808.165	1283.82
812.831	1279.06
817.523	1274.3
822.243	1269.54
826.99	1264.8
831.764	1260.07
836.566	1255.34
841.395	1250.63
846.253	1245.93
851.138	1241.23
856.052	1236.55
860.994	1231.87
865.964	1227.21
870.964	1222.56
875.992	1217.92
881.049	1213.29
886.135	1208.67
891.251	1204.06
896.396	1199.46
901.571	1194.88
906.776	1190.3
912.011	1185.74
917.276	1181.2
922.571	1176.66
927.897	1172.13
933.254	1167.62
938.642	1163.12
944.061	1158.64
949.511	1154.16
954.993	1149.7
960.506	1145.25
966.051	1140.79
971.628	1136.35
977.237	1131.92
982.879	1127.5
988.553	1123.09
994.26	1118.7
1000	1114.32
1005.77	1109.96
1011.58	1105.61
1017.42	1101.27
1023.29	1096.95
1029.2	1092.64
1035.14	1088.34
1041.12	1084.06
1047.13	1079.79
1053.17	1075.54
1059.25	1071.3
1065.37	1067.07
1071.52	1062.86
1077.71	1058.66
1083.93	1054.48
1090.18	1050.31
1096.48	1046.15
1102.81	1042.01
1109.17	1037.88
1115.58	1033.76
1122.02	1029.66
1128.5	1025.57
1135.01	1021.5
1141.56	1017.43
1148.15	1013.38
1154.78	1009.35
1161.45	1005.32
1168.15	1001.31
1174.9	997.305
1181.68	993.315
1188.5	989.335
1195.36	985.366
1202.26	981.407
1209.21	977.458
1216.19	973.519
1223.21	969.59
1230.27	965.672
1237.37	961.764
1244.51	957.868
1251.7	953.982
1258.93	950.108
1266.19	946.245
1273.5	942.393
1280.86	938.553
1288.25	934.724
1295.69	930.907
1303.17	927.102
1310.69	923.308
1318.26	919.527
1325.87	915.757
1333.52	911.999
1341.22	908.254
1348.96	904.52
1356.75	900.799
1364.58	897.09
1372.46	893.393
1380.38	889.708
1388.35	886.035
1396.37	882.375
1404.43	878.726
1412.54	875.09
1420.69	871.465
1428.89	867.852
1437.14	864.252
1445.44	860.658
1453.78	857.074
1462.18	853.501
1470.62	849.941
1479.11	846.393
1487.65	842.857
1496.24	839.334
1504.87	835.824
1513.56	832.326
1522.3	828.84
1531.09	825.368
1539.93	821.909
1548.82	818.463
1557.76	815.03
1566.75	811.61
1575.8	808.204
1584.89	804.81
1594.04	801.431
1603.25	798.065
1612.5	794.712
1621.81	791.373
1631.17	788.047
1640.59	784.735
1650.06	781.437
1659.59	778.152
1669.17	774.88
1678.8	771.622
1688.5	768.378
1698.24	765.147
1708.05	761.929
1717.91	758.724
1727.83	755.533
1737.8	752.354
1747.83	749.189
1757.92	746.036
1768.07	742.896
1778.28	739.768
1788.55	736.653
1798.87	733.55
1809.26	730.458
1819.7	727.379
1830.21	724.31
1840.77	721.253
1851.4	718.207
1862.09	715.171
1872.84	712.146
1883.65	709.13
1894.52	706.125
1905.46	703.128
1916.46	700.14
1927.52	697.177
1938.65	694.231
1949.84	691.292
1961.1	688.363
1972.42	685.442
1983.81	682.531
1995.26	679.629
2006.78	676.736
2018.37	673.852
2030.02	670.978
2041.74	668.114
2053.53	665.26
2065.38	662.415
2077.3	659.581
2089.3	656.757
2101.36	653.943
2113.49	651.139
2125.69	648.346
2137.96	645.564
2150.3	642.792
2162.72	640.031
2175.2	637.28
2187.76	634.541
2200.39	631.812
2213.09	629.095
2225.87	626.388
2238.72	623.693
2251.65	621.009
2264.64	618.336
2277.72	615.674
2290.87	613.023
2304.09	610.383
2317.39	607.755
2330.77	605.138
2344.23	602.532
2357.76	599.938
2371.37	597.354
2385.06	594.782
2398.83	592.221
2412.68	589.665
2426.61	587.12
2440.62	584.587
2454.71	582.064
2468.88	579.553
2483.13	577.052
2497.47	574.563
2511.89	572.086
2526.39	569.619
2540.97	567.164
2555.64	564.72
2570.4	562.288
2585.23	559.867
2600.16	557.457
2615.17	555.058
2630.27	552.67
2645.45	550.294
2660.73	547.928
2676.09	545.573
2691.53	543.23
2707.07	540.897
2722.7	538.575
2738.42	536.263
2754.23	533.962
2770.13	531.671
2786.12	529.39
2802.21	527.12
2818.38	524.859
2834.65	522.608
2851.02	520.366
2867.48	518.134
2884.03	515.911
2900.68	513.696
2917.43	511.49
2934.27	509.293
2951.21	507.105
2968.25	504.927
2985.38	502.757
3002.62	500.597
3019.95	498.446
3037.39	496.304
3054.92	494.172
3072.56	492.049
3090.3	489.935
3108.14	487.831
3126.08	485.736
3144.13	483.65
3162.28	481.574
3180.53	479.507
3198.9	477.449
3217.36	475.401
3235.94	473.362
3254.62	471.332
3273.41	469.312
3292.3	467.301
3311.31	465.298
3330.43	463.305
3349.65	461.321
3368.99	459.345
3388.44	457.378
3408	455.42
3427.68	453.471
3447.47	451.531
3467.37	449.6
3487.39	447.678
3507.52	445.764
3527.77	443.86
3548.13	441.964
3568.62	440.077
3589.22	438.199
3609.94	436.33
3630.78	434.47
3651.74	432.618
3672.82	430.776
3694.03	428.942
3715.35	427.116
3736.8	425.299
3758.37	423.49
3780.07	421.69
3801.89	419.898
3823.84	418.115
3845.92	416.339
3868.12	414.571
3890.45	412.811
3912.91	411.06
3935.5	409.316
3958.22	407.581
3981.07	405.853
4004.05	404.134
4027.17	402.423
4050.42	400.72
4073.8	399.025
4097.32	397.338
4120.98	395.659
4144.77	393.989
4168.69	392.326
4192.76	390.672
4216.97	389.026
4241.31	387.387
4265.8	385.757
4290.42	384.134
4315.19	382.519
4340.1	380.912
4365.16	379.313
4390.36	377.721
4415.7	376.137
4441.2	374.561
4466.84	372.992
4492.62	371.43
4518.56	369.876
4544.65	368.329
4570.88	366.789
4597.27	365.257
4623.81	363.731
4650.5	362.115
4677.35	360.49
4704.35	358.874
4731.51	357.264
4758.83	355.663
4786.3	354.068
4813.93	352.479
4841.72	350.896
4869.68	349.319
4897.79	347.75
4926.06	346.188
4954.5	344.633
4983.1	343.085
5011.87	341.545
5040.81	340.013
5069.91	338.488
5099.18	336.97
5128.61	335.461
5158.22	333.959
5188	332.464
5217.95	330.978
5248.07	329.499
5278.37	328.029
5308.84	326.566
5339.49	325.111
5370.32	323.664
5401.32	322.226
5432.5	320.795
5463.87	319.372
5495.41	317.958
5527.13	316.552
5559.04	315.154
5591.14	313.764
5623.41	312.382
5655.88	311.009
5688.53	309.644
5721.37	308.287
5754.4	306.938
5787.62	305.598
5821.03	304.266
5854.64	302.941
5888.44	301.626
5922.43	300.318
5956.62	299.018
5991.01	297.727
6025.6	296.443
6060.38	295.168
6095.37	293.9
6130.56	292.641
6165.95	291.389
6201.55	290.145
6237.35	288.909
6273.36	287.68
6309.57	286.459
6346	285.246
6382.63	284.04
6419.48	282.841
6456.54	281.649
6493.82	280.464
6531.31	279.286
6569.01	278.115
6606.93	276.951
6645.08	275.793
6683.44	274.641
6722.02	273.496
6760.83	272.356
6799.86	271.222
6839.12	270.094
6878.6	268.971
6918.31	267.854
6958.25	266.741
6998.42	265.633
7038.82	264.529
7079.46	263.43
7120.33	262.335
7161.43	261.243
7202.78	260.157
7244.36	259.105
7286.18	258.056
7328.25	257.011
7370.55	255.969
7413.1	254.93
7455.9	253.895
7498.94	252.864
7542.23	251.836
7585.78	250.812
7629.57	249.791
7673.61	248.775
7717.92	247.762
7762.47	246.753
7807.28	245.748
7852.36	244.747
7897.69	243.75
7943.28	242.757
7989.14	241.768
8035.26	240.784
8081.65	239.803
8128.31	238.827
8175.23	237.856
8222.43	236.888
8269.9	235.925
8317.64	234.967
8365.66	234.013
8413.95	233.063
8462.53	232.118
8511.38	231.178
8560.52	230.242
8609.94	229.311
8659.64	228.385
8709.64	227.463
8759.92	226.546
8810.49	225.634
8861.35	224.727
8912.51	223.825
8963.96	222.928
9015.71	222.036
9067.76	221.148
9120.11	220.266
9172.76	219.388
9225.71	218.516
9278.97	217.649
9332.54	216.786
9386.42	215.929
9440.61	215.077
9495.11	214.23
9549.93	213.388
9605.06	212.551
9660.51	211.714
9716.28	210.882
9772.37	210.056
9828.79	209.234
9885.53	208.418
9942.6	207.606
10000	206.8
10057.7	205.999
10115.8	205.203
10174.2	204.413
10232.9	203.627
10292	202.846
10351.4	202.071
10411.2	201.3
10471.3	200.535
10531.7	199.774
10592.5	199.018
10653.7	198.268
10715.2	197.522
10777.1	196.781
10839.3	196.045
10901.8	195.314
10964.8	194.587
11028.1	193.865
11091.7	193.148
11155.8	192.435
11220.2	191.727
11285	191.023
11350.1	190.323
11415.6	189.628
11481.5	188.937
11547.8	188.249
11614.5	187.566
11681.5	186.887
11749	186.211
11816.8	185.539
11885	184.87
11953.6	184.205
12022.6	183.543
12092.1	182.884
12161.9	182.228
12232.1	181.575
12302.7	180.925
12373.7	180.279
12445.1	179.636
12517	178.996
12589.3	178.359
12661.9	177.726
12735	177.096
12808.6	176.469
12882.5	175.846
12956.9	175.226
13031.7	174.609
13106.9	173.995
13182.6	173.385
13258.7	172.778
13335.2	172.175
13412.2	171.574
13489.6	170.977
13567.5	170.384
13645.8	169.793
13724.6	169.206
13803.8	168.623
13883.5	168.042
13963.7	167.465
14044.3	166.891
14125.4	166.32
14206.9	165.752
14288.9	165.188
14371.4	164.626
14454.4	164.067
14537.8	163.51
14621.8	162.957
14706.2	162.406
14791.1	161.859
14876.5	161.315
14962.4	160.774
15048.7	160.236
15135.6	159.702
15223	159.17
15310.9	158.642
15399.3	158.117
15488.2	157.595
15577.6	157.077
15667.5	156.562
15758	156.05
15848.9	155.541
15940.4	155.035
16032.5	154.533
16125	154.034
16218.1	153.538
16311.7	153.045
16405.9	152.556
16500.6	152.07
16595.9	151.586
16691.7	151.107
16788	150.63
16885	150.156
16982.4	149.686
17080.5	149.218
17179.1	148.754
17278.3	148.293
17378	147.834
17478.3	147.379
17579.2	146.926
17680.7	146.477
17782.8	146.03
17885.5	145.586
17988.7	145.145
18092.6	144.707
18197	144.271
18302.1	143.838
18407.7	143.407
18514	142.979
18620.9	142.553
18728.4	142.129
18836.5	141.708
18945.2	141.289
19054.6	140.872
19164.6	140.456
19275.2	140.046
19386.5	139.639
19498.4	139.234
19611	138.83
19724.2	138.429
19838.1	138.03
19952.6	137.632
20067.8	137.237
20183.7	136.844
20300.2	136.452
20417.4	136.063
20535.3	135.676
20653.8	135.291
20773	134.908
20893	134.527
21013.6	134.148
21134.9	133.771
21256.9	133.397
21379.6	133.024
21503	132.654
21627.2	132.286
21752	131.92
21877.6	131.557
22003.9	131.195
22130.9	130.836
22258.7	130.479
22387.2	130.124
22516.5	129.771
22646.4	129.421
22777.2	129.072
22908.7	128.726
23040.9	128.382
23173.9	128.041
23307.7	127.701
23442.3	127.364
23577.6	127.029
23713.7	126.696
23850.6	126.365
23988.3	126.036
24126.8	125.708
24266.1	125.383
24406.2	125.06
24547.1	124.739
24688.8	124.419
24831.3	124.102
24974.7	123.788
25118.9	123.475
25263.9	123.164
25409.7	122.856
25556.4	122.55
25704	122.245
25852.3	121.943
26001.6	121.643
26151.7	121.345
26302.7	121.049
26454.5	120.755
26607.3	120.464
26760.9	120.174
26915.3	119.886
27070.7	119.6
27227	119.317
27384.2	119.035
27542.3	118.755
27701.3	118.477
27861.2	118.201
28022.1	117.927
28183.8	117.654
28346.5	117.383
28510.2	117.114
28674.8	116.847
28840.3	116.582
29006.8	116.318
29174.3	116.055
29342.7	115.795
29512.1	115.535
29682.5	115.278
29853.8	115.022
30026.2	114.768
30199.5	114.516
30373.9	114.265
30549.2	114.016
30725.6	113.768
30903	113.522
31081.4	113.278
31260.8	113.036
31441.3	112.795
31622.8	112.555
31805.3	112.318
31989	112.082
32173.6	111.847
32359.4	111.614
32546.2	111.383
32734.1	111.153
32923	110.925
33113.1	110.698
33304.3	110.473
33496.5	110.249
33689.9	110.027
33884.4	109.806
34080	109.587
34276.8	109.369
34474.7	109.153
34673.7	108.938
34873.9	108.724
35075.2	108.512
35277.7	108.302
35481.3	108.093
35686.2	107.886
35892.2	107.68
36099.4	107.475
36307.8	107.272
36517.4	107.07
36728.2	106.87
36940.3	106.672
37153.5	106.474
37368	106.279
37583.7	106.084
37800.7	105.892
38018.9	105.7
38238.4	105.51
38459.2	105.322
38681.2	105.134
38904.5	104.949
39129.1	104.764
39355	104.581
39582.2	104.399
39810.7	104.219
40040.5	104.04
40271.7	103.862
40504.2	103.686
40738	103.511
40973.2	103.338
41209.8	103.165
41447.7	102.994
41686.9	102.825
41927.6	102.656
42169.7	102.489
42413.1	102.323
42658	102.158
42904.2	101.994
43151.9	101.832
43401	101.671
43651.6	101.51
43903.6	101.351
44157	101.193
44412	101.036
44668.4	100.88
44926.2	100.725
45185.6	100.571
45446.5	100.418
45708.8	100.265
45972.7	100.113
46238.1	99.9626
46505	99.8125
46773.5	99.6631
47043.5	99.5142
47315.1	99.366
47588.3	99.2183
47863	99.071
48139.3	98.9219
48417.2	98.7716
48696.8	98.6225
48977.9	98.4745
49260.6	98.3275
49545	98.1817
49831	98.0369
50118.7	97.8932
50408.1	97.7506
50699.1	97.6091
50991.8	97.4686
51286.1	97.3291
51582.2	97.1907
51880	97.0534
52179.5	96.9171
52480.7	96.7818
52783.7	96.6475
53088.4	96.5143
53394.9	96.3821
53703.2	96.2508
54013.2	96.1206
54325	95.9914
54638.7	95.8632
54954.1	95.7359
55271.3	95.6096
55590.4	95.4844
55911.4	95.36
56234.1	95.2367
56558.8	95.1142
56885.3	94.9928
57213.7	94.8723
57544	94.7527
57876.2	94.6341
58210.3	94.5164
58546.4	94.3996
58884.4	94.2837
59224.3	94.1688
59566.2	94.0548
59910.1	93.9416
60256	93.8294
60603.8	93.7181
60953.7	93.6076
61305.6	93.4981
61659.5	93.3894
62015.5	93.2816
62373.5	93.1746
62733.6	93.0685
63095.7	92.9633
63460	92.8589
63826.3	92.7554
64194.8	92.6527
64565.4	92.5509
64938.2	92.4499
65313.1	92.3497
65690.1	92.2504
66069.3	92.1518
66450.8	92.0541
66834.4	91.9572
67220.2	91.8611
67608.3	91.7658
67998.6	91.6713
68391.2	91.5775
68786	91.4846
69183.1	91.3924
69582.5	91.3011
69984.2	91.2104
70388.2	91.1206
70794.6	91.0315
71203.3	90.9432
71614.3	90.8556
72027.8	90.7688
72443.6	90.6827
72861.8	90.5974
73282.5	90.5128
73705.5	90.4289
74131	90.3458
74559	90.2634
74989.4	90.1817
75422.3	90.1007
75857.8	90.0204
76295.7	89.9408
76736.1	89.862
77179.2	89.7838
77624.7	89.7063
78072.8	89.6295
78523.6	89.5534
78976.9	89.4779
79432.8	89.4032
79891.4	89.3291
80352.6	89.2557
80816.5	89.1829
81283.1	89.1108
81752.3	89.0393
82224.3	88.9685
82699	88.8984
83176.4	88.8289
83656.6	88.76
84139.5	88.6917
84625.3	88.6241
85113.8	88.5571
85605.2	88.4908
86099.4	88.425
86596.4	88.3599
87096.4	88.2954
87599.2	88.2314
88104.9	88.1681
88613.5	88.1054
89125.1	88.0433
89639.6	87.9817
90157.1	87.9208
90677.6	87.8604
91201.1	87.8006
91727.6	87.7414
92257.1	87.6828
92789.7	87.6247
93325.4	87.5672
93864.2	87.5103
94406.1	87.4539
94951.1	87.398
95499.3	87.3427
96050.6	87.288
96605.1	87.2338
97162.8	87.1801
97723.7	87.127
98287.9	87.0744
98855.3	87.0223
99426	86.9708
100000	86.9197
100577	86.8692
101158	86.8192
101742	86.7698
102329	86.7208
102920	86.6723
103514	86.6243
104112	86.5768
104713	86.5298
105317	86.4833
105925	86.4373
106537	86.3918
107152	86.3467
107771	86.3022
108393	86.2581
109018	86.2144
109648	86.1713
110281	86.1286
110917	86.0863
111558	86.0445
112202	86.0032
112850	85.9623
113501	85.9219
114156	85.8819
114815	85.8423
115478	85.8032
116145	85.7645
116815	85.7262
117490	85.6884
118168	85.651
118850	85.614
119536	85.5775
120226	85.5413
120921	85.5056
121619	85.4702
122321	85.4353
123027	85.4008
123737	85.3667
124451	85.333
125170	85.2996
125893	85.2667
126619	85.2342
127350	85.202
128086	85.1702
128825	85.1388
129569	85.1078
130317	85.0771
131069	85.0469
131826	85.017
132587	84.9874
133352	84.9582
134122	84.9294
134896	84.901
135675	84.8728
136458	84.8451
137246	84.8177
138038	84.7906
138835	84.7639
139637	84.7375
140443	84.7115
141254	84.6858
142069	84.6604
142889	84.6354
143714	84.6107
144544	84.5863
145378	84.5622
146218	84.5385
147062	84.515
147911	84.4919
148765	84.4691
149624	84.4466
150487	84.4244
151356	84.4026
152230	84.381
153109	84.3597
153993	84.3387
154882	84.318
155776	84.2976
156675	84.2775
157580	84.2577
158489	84.2382
159404	84.2189
160325	84.2
161250	84.1813
162181	84.1629
163117	84.1447
164059	84.1268
165006	84.1092
165959	84.0919
166917	84.0748
167880	84.058
168850	84.0415
169824	84.0252
170805	84.0091
171791	83.9933
172783	83.9778
173780	83.9625
174783	83.9475
175792	83.9327
176807	83.9181
177828	83.9038
178855	83.8897
179887	83.8759
180926	83.8622
181970	83.8489
183021	83.8357
184077	83.8228
185140	83.8101
186209	83.7976
187284	83.7853
188365	83.7733
189452	83.7615
190546	83.7499
191646	83.7385
192752	83.7273
193865	83.7163
194984	83.7055
196110	83.695
197242	83.6846
198381	83.6745
199526	83.6645
200678	83.6547
201837	83.6452
203002	83.6358
204174	83.6266
205353	83.6176
206538	83.6088
207730	83.6002
208930	83.5917
210136	83.5835
211349	83.5754
212569	83.5675
213796	83.5598
215030	83.5523
216272	83.5449
217520	83.5377
218776	83.5307
220039	83.5238
221309	83.5171
222587	83.5106
223872	83.5042
225165	83.498
226464	83.492
227772	83.4861
229087	83.4803
230409	83.4748
231739	83.4693
233077	83.4641
234423	83.459
235776	83.454
237137	83.4492
238506	83.4445
239883	83.4399
241268	83.4355
242661	83.4313
244062	83.4272
245471	83.4232
246888	83.4193
248313	83.4156
249747	83.4121
251189	83.4086
252639	83.4053
254097	83.4021
255564	83.3991
257040	83.3961
258523	83.3933
260016	83.3906
261517	83.3881
263027	83.3856
264545	83.3833
266073	83.3811
267609	83.379
269153	83.377
270707	83.3752
272270	83.3734
273842	83.3718
275423	83.3702
277013	83.3688
278612	83.3675
280221	83.3663
281838	83.3652
283465	83.3642
285102	83.3633
286748	83.3624
288403	83.3617
290068	83.3611
291743	83.3606
293427	83.3602
295121	83.3599
296825	83.3596
298538	83.3595
300262	83.3594
301995	83.3595
303739	83.3596
305492	83.3598
307256	83.3601
309030	83.3605
310814	83.361
312608	83.3615
314413	83.3622
316228	83.3629
318053	83.3637
319890	83.3645
321736	83.3655
323594	83.3665
325462	83.3676
327341	83.3688
329230	83.37
331131	83.3713
333043	83.3727
334965	83.3742
336899	83.3757
338844	83.3773
340800	83.3789
342768	83.3806
344747	83.3824
346737	83.3843
348739	83.3862
350752	83.3882
352777	83.3902
354813	83.3923
356862	83.3944
358922	83.3966
360994	83.3989
363078	83.4012
365174	83.4036
367282	83.406
369403	83.4085
371535	83.4111
373680	83.4137
375837	83.4163
378007	83.419
380189	83.4217
382384	83.4245
384592	83.4273
386812	83.4302
389045	83.4331
391291	83.4361
393550	83.4391
395822	83.4422
398107	83.4453
400405	83.4484
402717	83.4516
405042	83.4548
407380	83.4581
409732	83.4614
412098	83.4647
414477	83.4681
416869	83.4715
419276	83.475
421697	83.4784
424131	83.482
426580	83.4855
429042	83.4891
431519	83.4927
434010	83.4963
436516	83.5
439036	83.5037
441570	83.5075
444120	83.5112
446684	83.515
449262	83.5188
451856	83.5227
454465	83.5265
457088	83.5304
459727	83.5344
462381	83.5383
465050	83.5423
467735	83.5463
470435	83.5503
473151	83.5543
475883	83.5584
478630	83.5624
481393	83.5665
484172	83.5707
486968	83.5748
489779	83.5789
492606	83.5831
495450	83.5873
498310	83.5915
501187	83.5957
504081	83.5999
506991	83.6042
509918	83.6085
512861	83.6127
515822	83.617
518800	83.6213
521795	83.6256
524807	83.63
527837	83.6343
530884	83.6386
533949	83.643
537032	83.6474
540132	83.6518
543250	83.6561
546387	83.6605
549541	83.6649
552713	83.6693
555904	83.6738
559114	83.6782
562341	83.6826
565588	83.6871
568853	83.6915
572137	83.6959
575440	83.7004
578762	83.7048
582103	83.7093
585464	83.7138
588844	83.7182
592243	83.7227
595662	83.7272
599101	83.7316
602560	83.7361
606038	83.7406
609537	83.745
613056	83.7495
616595	83.754
620155	83.7585
623735	83.7629
627336	83.7674
630957	83.7719
634600	83.7763
638263	83.7808
641948	83.7853
645654	83.7897
649382	83.7942
653131	83.7986
656901	83.8031
660693	83.8075
664508	83.8119
668344	83.8164
672202	83.8208
676083	83.8252
679986	83.8296
683912	83.834
687860	83.8384
691831	83.8428
695825	83.8472
699842	83.8516
703882	83.856
707946	83.8603
712033	83.8647
716143	83.8691
720278	83.8734
724436	83.8777
728618	83.882
732825	83.8864
737055	83.8907
741310	83.895
745590	83.8992
749894	83.9035
754223	83.9078
758578	83.912
762957	83.9163
767361	83.9205
771792	83.9247
776247	83.9289
780728	83.9331
785236	83.9373
789769	83.9415
794328	83.9456
798914	83.9498
803526	83.9539
808165	83.958
812831	83.9621
817523	83.9662
822243	83.9703
826990	83.9744
831764	83.9784
836566	83.9825
841395	83.9865
846253	83.9905
851138	83.9945
856052	83.9985
860994	84.0024
865964	84.0064
870964	84.0103
875992	84.0142
881049	84.0181
886135	84.022
891251	84.0259
896396	84.0297
901571	84.0336
906776	84.0374
912011	84.0412
917276	84.045
922571	84.0488
927897	84.0525
933254	84.0563
938642	84.06
944061	84.0637
949511	84.0674
954993	84.071
960506	84.0747
966051	84.0783
971628	84.0819
977237	84.0855
982879	84.0891
988553	84.0927
994260	84.0962
1e+06	84.0998
1.00577e+06	84.1033
1.01158e+06	84.1068
1.01742e+06	84.1102
1.02329e+06	84.1137
1.0292e+06	84.1171
1.03514e+06	84.1205
1.04112e+06	84.1239
1.04713e+06	84.1273
1.05317e+06	84.1307
1.05925e+06	84.134
1.06537e+06	84.1373
1.07152e+06	84.1406
1.07771e+06	84.1439
1.08393e+06	84.1472
1.09018e+06	84.1504
1.09648e+06	84.1536
1.10281e+06	84.1568
1.10917e+06	84.16
1.11558e+06	84.1632
1.12202e+06	84.1663
1.1285e+06	84.1695
1.13501e+06	84.1726
1.14156e+06	84.1757
1.14815e+06	84.1787
1.15478e+06	84.1818
1.16145e+06	84.1848
1.16815e+06	84.1878
1.1749e+06	84.1908
1.18168e+06	84.1938
1.1885e+06	84.1967
1.19536e+06	84.1996
1.20226e+06	84.2026
1.20921e+06	84.2054
1.21619e+06	84.2083
1.22321e+06	84.2112
1.23027e+06	84.214
1.23737e+06	84.2168
1.24451e+06	84.2196
1.2517e+06	84.2223
1.25893e+06	84.2251
1.26619e+06	84.2278
1.2735e+06	84.2305
1.28086e+06	84.2332
1.28825e+06	84.2359
1.29569e+06	84.2385
1.30317e+06	84.2411
1.31069e+06	84.2438
1.31826e+06	84.2463
1.32587e+06	84.2489
1.33352e+06	84.2514
1.34122e+06	84.254
1.34896e+06	84.2565
1.35675e+06	84.259
1.36458e+06	84.2614
1.37246e+06	84.2639
1.38038e+06	84.2663
1.38835e+06	84.2687
1.39637e+06	84.2711
1.40443e+06	84.2734
1.41254e+06	84.2758
1.42069e+06	84.2781
1.42889e+06	84.2804
1.43714e+06	84.2827
1.44544e+06	84.2849
1.45378e+06	84.2872
1.46218e+06	84.2894
1.47062e+06	84.2916
1.47911e+06	84.2938
1.48765e+06	84.2959
1.49624e+06	84.2981
1.50487e+06	84.3002
1.51356e+06	84.3023
1.5223e+06	84.3044
1.53109e+06	84.3064
1.53993e+06	84.3085
1.54882e+06	84.3105
1.55776e+06	84.3125
1.56675e+06	84.3145
1.5758e+06	84.3165
1.58489e+06	84.3184
1.59404e+06	84.3203
1.60325e+06	84.3222
1.6125e+06	84.3241
1.62181e+06	84.326
1.63117e+06	84.3278
1.64059e+06	84.3296
1.65006e+06	84.3315
1.65959e+06	84.3332
1.66917e+06	84.335
1.6788e+06	84.3368
1.6885e+06	84.3385
1.69824e+06	84.3402
1.70805e+06	84.3419
1.71791e+06	84.3436
1.72783e+06	84.3452
1.7378e+06	84.3469
1.74783e+06	84.3485
1.75792e+06	84.3501
1.76807e+06	84.3517
1.77828e+06	84.3532
1.78855e+06	84.3548
1.79887e+06	84.3563
1.80926e+06	84.3578
1.8197e+06	84.3593
1.83021e+06	84.3607
1.84077e+06	84.3622
1.8514e+06	84.3636
1.86209e+06	84.365
1.87284e+06	84.3664
1.88365e+06	84.3678
1.89452e+06	84.3692
1.90546e+06	84.3705
1.91646e+06	84.3719
1.92752e+06	84.3732
1.93865e+06	84.3745
1.94984e+06	84.3757
1.9611e+06	84.377
1.97242e+06	84.3782
1.98381e+06	84.3794
1.99526e+06	84.3806
2.00678e+06	84.3818
2.01837e+06	84.383
2.03002e+06	84.3842
2.04174e+06	84.3853
2.05353e+06	84.3864
2.06538e+06	84.3875
2.0773e+06	84.3886
2.0893e+06	84.3897
2.10136e+06	84.3907
2.11349e+06	84.3918
2.12569e+06	84.3928
2.13796e+06	84.3938
2.1503e+06	84.3948
2.16272e+06	84.3958
2.1752e+06	84.3967
2.18776e+06	84.3977
2.20039e+06	84.3986
2.21309e+06	84.3995
2.22587e+06	84.4004
2.23872e+06	84.4013
2.25165e+06	84.4021
2.26464e+06	84.403
2.27772e+06	84.4038
2.29087e+06	84.4046
2.30409e+06	84.4054
2.31739e+06	84.4062
2.33077e+06	84.407
2.34423e+06	84.4078
2.35776e+06	84.4085
2.37137e+06	84.4092
2.38506e+06	84.41
2.39883e+06	84.4107
2.41268e+06	84.4114
2.42661e+06	84.412
2.44062e+06	84.4127
2.45471e+06	84.4133
2.46888e+06	84.414
2.48313e+06	84.4146
2.49747e+06	84.4152
2.51189e+06	84.4158
2.52639e+06	84.4164
2.54097e+06	84.4169
2.55564e+06	84.4175
2.5704e+06	84.418
2.58523e+06	84.4186
2.60016e+06	84.4191
2.61517e+06	84.4196
2.63027e+06	84.4201
2.64545e+06	84.4205
2.66073e+06	84.421
2.67609e+06	84.4215
2.69153e+06	84.4219
2.70707e+06	84.4223
2.7227e+06	84.4227
2.73842e+06	84.4231
2.75423e+06	84.4235
2.77013e+06	84.4239
2.78612e+06	84.4243
2.80221e+06	84.4247
2.81838e+06	84.425
2.83465e+06	84.4253
2.85102e+06	84.4257
2.86748e+06	84.426
2.88403e+06	84.4263
2.90068e+06	84.4266
2.91743e+06	84.4269
2.93427e+06	84.4271
2.95121e+06	84.4274
2.96825e+06	84.4277
2.98538e+06	84.4279
3.00262e+06	84.4281
3.01995e+06	84.4284
3.03739e+06	84.4286
3.05492e+06	84.4288
3.07256e+06	84.429
3.0903e+06	84.4292
3.10814e+06	84.4293
3.12608e+06	84.4295
3.14413e+06	84.4297
3.16228e+06	84.4298
3.18053e+06	84.4299
3.1989e+06	84.4301
3.21736e+06	84.4302
3.23594e+06	84.4303
3.25462e+06	84.4304
3.27341e+06	84.4305
3.2923e+06	84.4306
3.31131e+06	84.4307
3.33043e+06	84.4308
3.34965e+06	84.4309
3.36899e+06	84.4309
3.38844e+06	84.431
3.408e+06	84.431
3.42768e+06	84.4311
3.44747e+06	84.4311
3.46737e+06	84.4311
3.48739e+06	84.4311
3.50752e+06	84.4312
3.52777e+06	84.4312
3.54813e+06	84.4312
3.56862e+06	84.4312
3.58922e+06	84.4312
3.60994e+06	84.4311
3.63078e+06	84.4311
3.65174e+06	84.4311
3.67282e+06	84.4311
3.69403e+06	84.431
3.71535e+06	84.431
3.7368e+06	84.4309
3.75837e+06	84.4309
3.78007e+06	84.4308
3.80189e+06	84.4308
3.82384e+06	84.4307
3.84592e+06	84.4306
3.86812e+06	84.4305
3.89045e+06	84.4305
3.91291e+06	84.4304
3.9355e+06	84.4303
3.95822e+06	84.4302
3.98107e+06	84.4301
4.00405e+06	84.43
4.02717e+06	84.4299
4.05042e+06	84.4298
4.0738e+06	84.4297
4.09732e+06	84.4296
4.12098e+06	84.4295
4.14477e+06	84.4294
4.16869e+06	84.4293
4.19276e+06	84.4291
4.21697e+06	84.429
4.24131e+06	84.4289
4.2658e+06	84.4288
4.29042e+06	84.4286
4.31519e+06	84.4285
4.3401e+06	84.4284
4.36516e+06	84.4282
4.39036e+06	84.4281
4.4157e+06	84.428
4.4412e+06	84.4278
4.46684e+06	84.4277
4.49262e+06	84.4276
4.51856e+06	84.4274
4.54465e+06	84.4273
4.57088e+06	84.4272
4.59727e+06	84.427
4.62381e+06	84.4269
4.6505e+06	84.4268
4.67735e+06	84.4266
4.70435e+06	84.4265
4.73151e+06	84.4263
4.75883e+06	84.4262
4.7863e+06	84.4261
4.81393e+06	84.426
4.84172e+06	84.4258
4.86968e+06	84.4257
4.89779e+06	84.4256
4.92606e+06	84.4254
4.9545e+06	84.4253
4.9831e+06	84.4252
5.01187e+06	84.4251
5.04081e+06	84.4249
5.06991e+06	84.4248
5.09918e+06	84.4247
5.12861e+06	84.4246
5.15822e+06	84.4245
5.188e+06	84.4243
5.21795e+06	84.4242
5.24807e+06	84.4241
5.27837e+06	84.424
5.30884e+06	84.4239
5.33949e+06	84.4238
5.37032e+06	84.4237
5.40132e+06	84.4236
5.4325e+06	84.4234
5.46387e+06	84.4233
5.49541e+06	84.4232
5.52713e+06	84.4231
5.55904e+06	84.423
5.59114e+06	84.4229
5.62341e+06	84.4228
5.65588e+06	84.4227
5.68853e+06	84.4226
5.72137e+06	84.4225
5.7544e+06	84.4224
5.78762e+06	84.4223
5.82103e+06	84.4222
5.85464e+06	84.4221
5.88844e+06	84.422
5.92243e+06	84.4219
5.95662e+06	84.4218
5.99101e+06	84.4217
6.0256e+06	84.4216
6.06038e+06	84.4216
6.09537e+06	84.4215
6.13056e+06	84.4214
6.16595e+06	84.4213
6.20155e+06	84.4212
6.23735e+06	84.4211
6.27336e+06	84.421
6.30957e+06	84.4209
6.346e+06	84.4209
6.38263e+06	84.4208
6.41948e+06	84.4207
6.45654e+06	84.4206
6.49382e+06	84.4205
6.53131e+06	84.4204
6.56901e+06	84.4204
6.60693e+06	84.4203
6.64508e+06	84.4202
6.68344e+06	84.4201
6.72202e+06	84.42
6.76083e+06	84.42
6.79986e+06	84.4199
6.83912e+06	84.4198
6.8786e+06	84.4197
6.91831e+06	84.4197
6.95825e+06	84.4196
6.99842e+06	84.4195
7.03882e+06	84.4194
7.07946e+06	84.4194
7.12033e+06	84.4193
7.16143e+06	84.4192
7.20278e+06	84.4192
7.24436e+06	84.4191
7.28618e+06	84.419
7.32825e+06	84.419
7.37055e+06	84.4189
7.4131e+06	84.4188
7.4559e+06	84.4188
7.49894e+06	84.4187
7.54223e+06	84.4186
7.58578e+06	84.4186
7.62957e+06	84.4185
7.67361e+06	84.4184
7.71792e+06	84.4184
7.76247e+06	84.4183
7.80728e+06	84.4182
7.85236e+06	84.4182
7.89769e+06	84.4181
7.94328e+06	84.4181
7.98914e+06	84.418
8.03526e+06	84.4179
8.08165e+06	84.4179
8.12831e+06	84.4178
8.17523e+06	84.4178
8.22243e+06	84.4177
8.2699e+06	84.4177
8.31764e+06	84.4176
8.36566e+06	84.4175
8.41395e+06	84.4175
8.46253e+06	84.4174
8.51138e+06	84.4174
8.56052e+06	84.4173
8.60994e+06	84.4173
8.65964e+06	84.4172
8.70964e+06	84.4172
8.75992e+06	84.4171
8.81049e+06	84.4171
8.86135e+06	84.417
8.91251e+06	84.417
8.96396e+06	84.4169
9.01571e+06	84.4169
9.06776e+06	84.4168
9.12011e+06	84.4168
9.17276e+06	84.4167
9.22571e+06	84.4167
9.27897e+06	84.4166
9.33254e+06	84.4166
9.38642e+06	84.4165
9.44061e+06	84.4165
9.49511e+06	84.4164
9.54993e+06	84.4164
9.60506e+06	84.4163
9.66051e+06	84.4163
9.71628e+06	84.4162
9.77237e+06	84.4162
9.82879e+06	84.4162
9.88553e+06	84.4161
9.9426e+06	84.4161
1e+07	84.416
