Stopping power dEdx from Ionisation for Ti48[0.0] Z = 22 in G4_Si, process name: ionIoni
E [MeV]	dEdx [MeV/mm]
0.001	29.5433
0.00100577	29.6291
0.00101158	29.7151
0.00101742	29.8014
0.00102329	29.8879
0.0010292	29.9747
0.00103514	30.0617
0.00104112	30.149
0.00104713	30.2366
0.00105317	30.3244
0.00105925	30.4124
0.00106537	30.5007
0.00107152	30.5893
0.00107771	30.6781
0.00108393	30.7671
0.00109018	30.8565
0.00109648	30.946
0.00110281	31.0359
0.00110917	31.126
0.00111558	31.2163
0.00112202	31.3069
0.0011285	31.3978
0.00113501	31.4889
0.00114156	31.5804
0.00114815	31.672
0.00115478	31.7639
0.00116145	31.8561
0.00116815	31.9486
0.0011749	32.0413
0.00118168	32.1343
0.0011885	32.2276
0.00119536	32.3211
0.00120226	32.4149
0.00120921	32.509
0.00121619	32.6033
0.00122321	32.6979
0.00123027	32.7928
0.00123737	32.888
0.00124451	32.9834
0.0012517	33.0791
0.00125893	33.1751
0.00126619	33.2714
0.0012735	33.3679
0.00128086	33.4647
0.00128825	33.5618
0.00129569	33.6592
0.00130317	33.7569
0.00131069	33.8548
0.00131826	33.953
0.00132587	34.0515
0.00133352	34.1503
0.00134122	34.2494
0.00134896	34.3487
0.00135675	34.4484
0.00136458	34.5483
0.00137246	34.6485
0.00138038	34.749
0.00138835	34.8498
0.00139637	34.9509
0.00140443	35.0523
0.00141254	35.154
0.00142069	35.2559
0.00142889	35.3582
0.00143714	35.4608
0.00144544	35.5636
0.00145378	35.6668
0.00146218	35.7702
0.00147062	35.8739
0.00147911	35.978
0.00148765	36.0823
0.00149624	36.187
0.00150487	36.2919
0.00151356	36.3972
0.0015223	36.5027
0.00153109	36.6086
0.00153993	36.7147
0.00154882	36.8212
0.00155776	36.9279
0.00156675	37.035
0.0015758	37.1424
0.00158489	37.2501
0.00159404	37.3581
0.00160325	37.4664
0.0016125	37.5751
0.00162181	37.684
0.00163117	37.7933
0.00164059	37.9028
0.00165006	38.0127
0.00165959	38.1229
0.00166917	38.2335
0.0016788	38.3443
0.0016885	38.4555
0.00169824	38.5669
0.00170805	38.6787
0.00171791	38.7909
0.00172783	38.9033
0.0017378	39.0161
0.00174783	39.1292
0.00175792	39.2426
0.00176807	39.3564
0.00177828	39.4704
0.00178855	39.5848
0.00179887	39.6996
0.00180926	39.8147
0.0018197	39.9301
0.00183021	40.0458
0.00184077	40.1619
0.0018514	40.2783
0.00186209	40.395
0.00187284	40.5121
0.00188365	40.6295
0.00189452	40.7472
0.00190546	40.8653
0.00191646	40.9837
0.00192752	41.1025
0.00193865	41.2216
0.00194984	41.3411
0.0019611	41.4609
0.00197242	41.581
0.00198381	41.7015
0.00199526	41.8223
0.00200678	41.9435
0.00201837	42.0651
0.00203002	42.1869
0.00204174	42.3092
0.00205353	42.4318
0.00206538	42.5547
0.0020773	42.678
0.0020893	42.8017
0.00210136	42.9257
0.00211349	43.05
0.00212569	43.1748
0.00213796	43.2998
0.0021503	43.4253
0.00216272	43.5511
0.0021752	43.6773
0.00218776	43.8038
0.00220039	43.9307
0.00221309	44.058
0.00222587	44.1856
0.00223872	44.3136
0.00225165	44.442
0.00226464	44.5707
0.00227772	44.6998
0.00229087	44.8293
0.00230409	44.9591
0.00231739	45.0894
0.00233077	45.22
0.00234423	45.3509
0.00235776	45.4823
0.00237137	45.614
0.00238506	45.7462
0.00239883	45.8786
0.00241268	46.0115
0.00242661	46.1448
0.00244062	46.2784
0.00245471	46.4125
0.00246888	46.5469
0.00248313	46.6817
0.00249747	46.8169
0.00251189	46.9525
0.00252639	47.0884
0.00254097	47.2248
0.00255564	47.3616
0.0025704	47.4987
0.00258523	47.6363
0.00260016	47.7742
0.00261517	47.9125
0.00263027	48.0513
0.00264545	48.1904
0.00266073	48.33
0.00267609	48.4699
0.00269153	48.6103
0.00270707	48.751
0.0027227	48.8922
0.00273842	49.0337
0.00275423	49.1757
0.00277013	49.3181
0.00278612	49.4609
0.00280221	49.6041
0.00281838	49.7477
0.00283465	49.8917
0.00285102	50.0362
0.00286748	50.181
0.00288403	50.3263
0.00290068	50.472
0.00291743	50.6181
0.00293427	50.7647
0.00295121	50.9116
0.00296825	51.059
0.00298538	51.2068
0.00300262	51.3551
0.00301995	51.5037
0.00303739	51.6528
0.00305492	51.8023
0.00307256	51.9523
0.0030903	52.1027
0.00310814	52.2535
0.00312608	52.4047
0.00314413	52.5564
0.00316228	52.7086
0.00318053	52.8611
0.0031989	53.0141
0.00321736	53.1676
0.00323594	53.3215
0.00325462	53.4758
0.00327341	53.6306
0.0032923	53.7858
0.00331131	53.9414
0.00333043	54.0976
0.00334965	54.2541
0.00336899	54.4112
0.00338844	54.5686
0.003408	54.7266
0.00342768	54.8849
0.00344747	55.0438
0.00346737	55.2031
0.00348739	55.3628
0.00350752	55.523
0.00352777	55.6837
0.00354813	55.8449
0.00356862	56.0065
0.00358922	56.1685
0.00360994	56.3311
0.00363078	56.4941
0.00365174	56.6575
0.00367282	56.8215
0.00369403	56.9859
0.00371535	57.1508
0.0037368	57.3162
0.00375837	57.482
0.00378007	57.6483
0.00380189	57.8151
0.00382384	57.9824
0.00384592	58.1502
0.00386812	58.3184
0.00389045	58.4872
0.00391291	58.6564
0.0039355	58.8261
0.00395822	58.9963
0.00398107	59.167
0.00400405	59.3382
0.00402717	59.5098
0.00405042	59.682
0.0040738	59.8547
0.00409732	60.0278
0.00412098	60.2015
0.00414477	60.3757
0.00416869	60.5503
0.00419276	60.7255
0.00421697	60.9012
0.00424131	61.0773
0.0042658	61.254
0.00429042	61.4312
0.00431519	61.6089
0.0043401	61.7872
0.00436516	61.9659
0.00439036	62.1451
0.0044157	62.3249
0.0044412	62.5052
0.00446684	62.686
0.00449262	62.8673
0.00451856	63.0491
0.00454465	63.2315
0.00457088	63.4144
0.00459727	63.5978
0.00462381	63.7818
0.0046505	63.9663
0.00467735	64.1513
0.00470435	64.3368
0.00473151	64.5229
0.00475883	64.7095
0.0047863	64.8967
0.00481393	65.0844
0.00484172	65.2726
0.00486968	65.4614
0.00489779	65.6507
0.00492606	65.8406
0.0049545	66.031
0.0049831	66.222
0.00501187	66.4135
0.00504081	66.6055
0.00506991	66.7982
0.00509918	66.9913
0.00512861	67.1851
0.00515822	67.3794
0.005188	67.5742
0.00521795	67.7696
0.00524807	67.9656
0.00527837	68.1622
0.00530884	68.3593
0.00533949	68.5569
0.00537032	68.7552
0.00540132	68.954
0.0054325	69.1534
0.00546387	69.3534
0.00549541	69.5539
0.00552713	69.755
0.00555904	69.9567
0.00559114	70.159
0.00562341	70.3619
0.00565588	70.5653
0.00568853	70.7693
0.00572137	70.974
0.0057544	71.1792
0.00578762	71.385
0.00582103	71.5914
0.00585464	71.7984
0.00588844	72.0059
0.00592243	72.2141
0.00595662	72.4229
0.00599101	72.6323
0.0060256	72.8423
0.00606038	73.0529
0.00609537	73.2641
0.00613056	73.4759
0.00616595	73.6883
0.00620155	73.9014
0.00623735	74.115
0.00627336	74.3293
0.00630957	74.5442
0.006346	74.7597
0.00638263	74.9758
0.00641948	75.1926
0.00645654	75.4099
0.00649382	75.6279
0.00653131	75.8465
0.00656901	76.0658
0.00660693	76.2857
0.00664508	76.5062
0.00668344	76.7274
0.00672202	76.9492
0.00676083	77.1716
0.00679986	77.3947
0.00683912	77.6184
0.0068786	77.8428
0.00691831	78.0678
0.00695825	78.2934
0.00699842	78.5197
0.00703882	78.7467
0.00707946	78.9743
0.00712033	79.2026
0.00716143	79.4315
0.00720278	79.6611
0.00724436	79.8914
0.00728618	80.1223
0.00732825	80.3539
0.00737055	80.5861
0.0074131	80.819
0.0074559	81.0526
0.00749894	81.2869
0.00754223	81.5218
0.00758578	81.7574
0.00762957	81.9937
0.00767361	82.2307
0.00771792	82.4684
0.00776247	82.7067
0.00780728	82.9457
0.00785236	83.1855
0.00789769	83.4259
0.00794328	83.667
0.00798914	83.9088
0.00803526	84.1513
0.00808165	84.3945
0.00812831	84.6384
0.00817523	84.8829
0.00822243	85.1283
0.0082699	85.3743
0.00831764	85.621
0.00836566	85.8684
0.00841395	86.1166
0.00846253	86.3654
0.00851138	86.615
0.00856052	86.8653
0.00860994	87.1163
0.00865964	87.368
0.00870964	87.6205
0.00875992	87.8737
0.00881049	88.1276
0.00886135	88.3823
0.00891251	88.6377
0.00896396	88.8938
0.00901571	89.1507
0.00906776	89.4083
0.00912011	90.9718
0.00917276	91.2337
0.00922571	91.4964
0.00927897	91.7598
0.00933254	92.024
0.00938642	92.2889
0.00944061	92.5546
0.00949511	92.8211
0.00954993	93.0883
0.00960506	93.3563
0.00966051	93.625
0.00971628	93.8946
0.00977237	94.1649
0.00982879	94.436
0.00988553	94.7078
0.0099426	94.9805
0.01	95.2539
0.0100577	95.5281
0.0101158	95.8031
0.0101742	96.0789
0.0102329	96.3555
0.010292	96.6329
0.0103514	96.9111
0.0104112	97.1901
0.0104713	97.4699
0.0105317	97.7505
0.0105925	98.0319
0.0106537	98.3141
0.0107152	98.5971
0.0107771	98.8809
0.0108393	99.1656
0.0109018	99.451
0.0109648	99.7373
0.0110281	100.024
0.0110917	100.312
0.0111558	100.601
0.0112202	100.891
0.011285	101.181
0.0113501	101.472
0.0114156	101.765
0.0114815	102.057
0.0115478	102.351
0.0116145	102.646
0.0116815	102.941
0.011749	103.238
0.0118168	103.535
0.011885	103.833
0.0119536	104.132
0.0120226	104.431
0.0120921	104.732
0.0121619	105.034
0.0122321	105.336
0.0123027	105.639
0.0123737	105.943
0.0124451	106.248
0.012517	106.554
0.0125893	106.861
0.0126619	107.168
0.012735	107.477
0.0128086	107.786
0.0128825	108.096
0.0129569	108.407
0.0130317	108.72
0.0131069	109.032
0.0131826	109.346
0.0132587	109.661
0.0133352	109.977
0.0134122	110.293
0.0134896	110.611
0.0135675	110.929
0.0136458	111.248
0.0137246	111.568
0.0138038	111.89
0.0138835	112.212
0.0139637	112.535
0.0140443	112.859
0.0141254	113.183
0.0142069	113.509
0.0142889	113.836
0.0143714	114.163
0.0144544	114.492
0.0145378	114.822
0.0146218	115.152
0.0147062	115.483
0.0147911	115.816
0.0148765	116.149
0.0149624	116.483
0.0150487	116.819
0.0151356	117.155
0.015223	117.492
0.0153109	117.83
0.0153993	118.169
0.0154882	118.509
0.0155776	118.85
0.0156675	119.192
0.015758	119.536
0.0158489	119.88
0.0159404	120.225
0.0160325	120.571
0.016125	120.918
0.0162181	121.265
0.0163117	121.614
0.0164059	121.964
0.0165006	122.315
0.0165959	122.667
0.0166917	123.02
0.016788	123.375
0.016885	123.73
0.0169824	124.086
0.0170805	124.443
0.0171791	124.801
0.0172783	125.16
0.017378	125.52
0.0174783	125.881
0.0175792	126.244
0.0176807	126.607
0.0177828	126.971
0.0178855	127.337
0.0179887	127.703
0.0180926	128.071
0.018197	128.439
0.0183021	128.809
0.0184077	129.179
0.018514	129.551
0.0186209	129.924
0.0187284	130.298
0.0188365	130.673
0.0189452	131.049
0.0190546	131.426
0.0191646	131.804
0.0192752	132.183
0.0193865	132.564
0.0194984	132.945
0.019611	133.328
0.0197242	133.711
0.0198381	134.096
0.0199526	134.482
0.0200678	134.869
0.0201837	135.257
0.0203002	135.646
0.0204174	136.036
0.0205353	136.428
0.0206538	136.82
0.020773	137.214
0.020893	137.609
0.0210136	138.005
0.0211349	138.402
0.0212569	138.8
0.0213796	139.199
0.021503	139.6
0.0216272	140.001
0.021752	140.404
0.0218776	140.808
0.0220039	141.213
0.0221309	141.62
0.0222587	142.027
0.0223872	142.436
0.0225165	142.845
0.0226464	143.256
0.0227772	143.669
0.0229087	144.082
0.0230409	144.496
0.0231739	144.912
0.0233077	145.329
0.0234423	145.747
0.0235776	146.167
0.0237137	146.587
0.0238506	147.009
0.0239883	147.432
0.0241268	147.856
0.0242661	148.281
0.0244062	148.708
0.0245471	149.136
0.0246888	149.565
0.0248313	149.995
0.0249747	150.426
0.0251189	150.859
0.0252639	151.293
0.0254097	151.728
0.0255564	152.165
0.025704	152.603
0.0258523	153.042
0.0260016	153.482
0.0261517	153.923
0.0263027	154.366
0.0264545	154.81
0.0266073	155.256
0.0267609	155.702
0.0269153	156.15
0.0270707	156.599
0.027227	157.05
0.0273842	157.501
0.0275423	157.954
0.0277013	158.409
0.0278612	158.864
0.0280221	159.321
0.0281838	159.78
0.0283465	160.239
0.0285102	160.7
0.0286748	161.162
0.0288403	161.626
0.0290068	162.091
0.0291743	162.557
0.0293427	163.025
0.0295121	163.494
0.0296825	163.964
0.0298538	164.436
0.0300262	164.908
0.0301995	165.383
0.0303739	165.858
0.0305492	166.336
0.0307256	166.814
0.030903	167.294
0.0310814	167.775
0.0312608	168.257
0.0314413	168.741
0.0316228	169.227
0.0318053	169.713
0.031989	170.202
0.0321736	170.691
0.0323594	171.182
0.0325462	171.674
0.0327341	172.168
0.032923	172.663
0.0331131	173.16
0.0333043	173.658
0.0334965	174.157
0.0336899	174.658
0.0338844	175.16
0.03408	175.664
0.0342768	176.169
0.0344747	176.676
0.0346737	177.184
0.0348739	177.693
0.0350752	178.205
0.0352777	178.717
0.0354813	179.231
0.0356862	179.746
0.0358922	180.263
0.0360994	180.782
0.0363078	181.301
0.0365174	181.823
0.0367282	182.346
0.0369403	182.87
0.0371535	183.396
0.037368	183.923
0.0375837	184.452
0.0378007	184.983
0.0380189	185.514
0.0382384	186.048
0.0384592	186.583
0.0386812	187.119
0.0389045	187.657
0.0391291	188.197
0.039355	188.738
0.0395822	189.281
0.0398107	189.825
0.0400405	190.371
0.0402717	190.918
0.0405042	191.467
0.040738	192.018
0.0409732	192.57
0.0412098	193.124
0.0414477	193.679
0.0416869	194.236
0.0419276	194.794
0.0421697	195.354
0.0424131	195.916
0.042658	196.479
0.0429042	197.044
0.0431519	197.611
0.043401	198.179
0.0436516	198.748
0.0439036	199.32
0.044157	199.893
0.044412	200.468
0.0446684	201.044
0.0449262	201.622
0.0451856	202.202
0.0454465	202.783
0.0457088	203.366
0.0459727	203.95
0.0462381	204.537
0.046505	205.125
0.0467735	205.714
0.0470435	206.306
0.0473151	206.899
0.0475883	207.494
0.047863	208.09
0.0481393	208.688
0.0484172	209.288
0.0486968	209.89
0.0489779	210.493
0.0492606	211.098
0.049545	211.705
0.049831	212.314
0.0501187	212.924
0.0504081	213.536
0.0506991	214.15
0.0509918	214.765
0.0512861	215.383
0.0515822	216.002
0.05188	216.623
0.0521795	217.245
0.0524807	217.87
0.0527837	218.496
0.0530884	219.124
0.0533949	219.754
0.0537032	220.385
0.0540132	221.019
0.054325	221.654
0.0546387	222.291
0.0549541	222.93
0.0552713	223.571
0.0555904	224.213
0.0559114	224.858
0.0562341	225.504
0.0565588	226.152
0.0568853	226.802
0.0572137	227.454
0.057544	228.108
0.0578762	228.763
0.0582103	229.421
0.0585464	230.08
0.0588844	230.741
0.0592243	231.404
0.0595662	232.069
0.0599101	232.736
0.060256	233.405
0.0606038	234.076
0.0609537	234.748
0.0613056	235.423
0.0616595	236.099
0.0620155	236.778
0.0623735	237.458
0.0627336	238.141
0.0630957	238.825
0.06346	239.511
0.0638263	240.199
0.0641948	240.89
0.0645654	241.582
0.0649382	242.276
0.0653131	242.972
0.0656901	243.67
0.0660693	244.37
0.0664508	245.073
0.0668344	245.777
0.0672202	246.483
0.0676083	247.191
0.0679986	247.901
0.0683912	248.614
0.068786	249.328
0.0691831	250.044
0.0695825	250.763
0.0699842	251.483
0.0703882	252.206
0.0707946	252.93
0.0712033	253.657
0.0716143	254.386
0.0720278	255.117
0.0724436	255.85
0.0728618	256.585
0.0732825	257.322
0.0737055	258.061
0.074131	258.802
0.074559	259.546
0.0749894	260.291
0.0754223	261.039
0.0758578	261.789
0.0762957	262.541
0.0767361	263.295
0.0771792	264.052
0.0776247	264.81
0.0780728	265.571
0.0785236	266.334
0.0789769	267.099
0.0794328	267.866
0.0798914	268.635
0.0803526	269.407
0.0808165	270.181
0.0812831	270.957
0.0817523	271.735
0.0822243	272.516
0.082699	273.298
0.0831764	274.083
0.0836566	274.871
0.0841395	275.66
0.0846253	276.452
0.0851138	277.246
0.0856052	278.042
0.0860994	278.841
0.0865964	279.642
0.0870964	280.445
0.0875992	281.25
0.0881049	282.058
0.0886135	282.868
0.0891251	283.68
0.0896396	284.495
0.0901571	285.312
0.0906776	286.131
0.0912011	286.953
0.0917276	287.777
0.0922571	288.604
0.0927897	289.432
0.0933254	290.263
0.0938642	291.097
0.0944061	291.933
0.0949511	292.771
0.0954993	293.612
0.0960506	294.455
0.0966051	295.301
0.0971628	296.149
0.0977237	296.999
0.0982879	297.852
0.0988553	298.707
0.099426	299.565
0.1	300.425
0.100577	301.287
0.101158	302.152
0.101742	303.02
0.102329	303.89
0.10292	304.762
0.103514	305.637
0.104112	306.515
0.104713	307.395
0.105317	308.277
0.105925	309.163
0.106537	310.05
0.107152	310.94
0.107771	311.833
0.108393	312.728
0.109018	313.626
0.109648	314.526
0.110281	315.429
0.110917	316.335
0.111558	317.243
0.112202	318.153
0.11285	319.067
0.113501	319.983
0.114156	320.901
0.114815	321.822
0.115478	322.746
0.116145	323.673
0.116815	324.602
0.11749	325.533
0.118168	326.468
0.11885	327.405
0.119536	328.345
0.120226	329.287
0.120921	330.232
0.121619	331.18
0.122321	332.13
0.123027	333.084
0.123737	334.04
0.124451	334.998
0.12517	335.96
0.125893	336.924
0.126619	337.891
0.12735	338.861
0.128086	339.833
0.128825	340.808
0.129569	341.786
0.130317	342.767
0.131069	343.751
0.131826	344.737
0.132587	345.727
0.133352	346.719
0.134122	347.714
0.134896	348.711
0.135675	349.712
0.136458	350.716
0.137246	351.722
0.138038	352.731
0.138835	353.743
0.139637	354.758
0.140443	355.776
0.141254	356.797
0.142069	357.821
0.142889	358.847
0.143714	359.877
0.144544	360.909
0.145378	361.945
0.146218	362.983
0.147062	364.025
0.147911	365.069
0.148765	366.116
0.149624	367.167
0.150487	368.22
0.151356	369.276
0.15223	370.336
0.153109	371.398
0.153993	372.463
0.154882	373.532
0.155776	374.603
0.156675	375.678
0.15758	376.756
0.158489	377.836
0.159404	378.92
0.160325	380.007
0.16125	381.097
0.162181	382.19
0.163117	383.286
0.164059	384.386
0.165006	385.488
0.165959	386.594
0.166917	387.703
0.16788	388.814
0.16885	389.93
0.169824	391.048
0.170805	392.169
0.171791	393.294
0.172783	394.422
0.17378	395.553
0.174783	396.688
0.175792	397.825
0.176807	398.966
0.177828	400.11
0.178855	401.257
0.179887	402.408
0.180926	403.562
0.18197	404.719
0.183021	405.88
0.184077	407.043
0.18514	408.211
0.186209	409.381
0.187284	410.555
0.188365	411.732
0.189452	412.913
0.190546	414.096
0.191646	415.284
0.192752	416.474
0.193865	417.668
0.194984	418.866
0.19611	420.067
0.197242	421.271
0.198381	422.479
0.199526	423.69
0.200678	424.904
0.201837	426.122
0.203002	427.344
0.204174	428.569
0.205353	429.798
0.206538	431.03
0.20773	432.265
0.20893	433.504
0.210136	434.747
0.211349	435.993
0.212569	437.243
0.213796	438.496
0.21503	439.753
0.216272	441.013
0.21752	442.277
0.218776	443.545
0.220039	444.816
0.221309	446.091
0.222587	447.369
0.223872	448.651
0.225165	449.937
0.226464	451.226
0.227772	452.52
0.229087	453.816
0.230409	455.117
0.231739	456.421
0.233077	457.729
0.234423	459.041
0.235776	460.356
0.237137	461.675
0.238506	462.998
0.239883	464.324
0.241268	465.655
0.242661	466.989
0.244062	468.327
0.245471	469.669
0.246888	471.015
0.248313	472.364
0.249747	473.717
0.251189	475.074
0.252639	476.435
0.254097	477.8
0.255564	479.169
0.25704	480.542
0.258523	481.918
0.260016	483.299
0.261517	484.683
0.263027	486.072
0.264545	487.464
0.266073	488.86
0.267609	490.261
0.269153	491.665
0.270707	493.073
0.27227	494.486
0.273842	495.902
0.275423	497.322
0.277013	498.747
0.278612	500.175
0.280221	501.607
0.281838	503.044
0.283465	504.485
0.285102	505.929
0.286748	507.378
0.288403	508.831
0.290068	510.288
0.291743	511.75
0.293427	513.215
0.295121	514.685
0.296825	516.158
0.298538	517.636
0.300262	519.118
0.301995	520.605
0.303739	522.095
0.305492	523.59
0.307256	525.089
0.30903	526.593
0.310814	528.1
0.312608	529.612
0.314413	531.129
0.316228	532.649
0.318053	534.174
0.31989	535.703
0.321736	537.237
0.323594	538.775
0.325462	540.317
0.327341	541.863
0.32923	543.415
0.331131	544.97
0.333043	546.53
0.334965	548.094
0.336899	549.663
0.338844	551.236
0.3408	552.814
0.342768	554.396
0.344747	555.983
0.346737	557.574
0.348739	559.17
0.350752	560.77
0.352777	562.375
0.354813	563.984
0.356862	565.598
0.358922	567.216
0.360994	568.84
0.363078	570.467
0.365174	572.1
0.367282	573.737
0.369403	575.378
0.371535	577.025
0.37368	578.675
0.375837	580.331
0.378007	581.992
0.380189	583.657
0.382384	585.326
0.384592	587.001
0.386812	588.68
0.389045	590.364
0.391291	592.053
0.39355	593.747
0.395822	595.445
0.398107	597.149
0.400405	598.857
0.402717	600.57
0.405042	602.287
0.40738	604.01
0.409732	605.738
0.412098	607.47
0.414477	609.208
0.416869	610.95
0.419276	612.697
0.421697	614.449
0.424131	616.207
0.42658	617.969
0.429042	619.736
0.431519	621.508
0.43401	623.286
0.436516	625.068
0.439036	626.855
0.44157	628.648
0.44412	630.445
0.446684	632.248
0.449262	634.055
0.451856	635.868
0.454465	637.686
0.457088	639.509
0.459727	641.338
0.462381	643.171
0.46505	645.01
0.467735	646.854
0.470435	648.703
0.473151	650.557
0.475883	652.417
0.47863	654.282
0.481393	656.152
0.484172	658.028
0.486968	659.908
0.489779	661.794
0.492606	663.686
0.49545	665.583
0.49831	667.485
0.501187	669.393
0.504081	671.306
0.506991	673.224
0.509918	675.148
0.512861	677.077
0.515822	679.012
0.5188	680.952
0.521795	682.898
0.524807	684.849
0.527837	686.806
0.530884	688.769
0.533949	690.736
0.537032	692.71
0.540132	694.689
0.54325	696.674
0.546387	698.664
0.549541	700.66
0.552713	702.662
0.555904	704.669
0.559114	706.682
0.562341	708.7
0.565588	710.725
0.568853	712.755
0.572137	714.791
0.57544	716.832
0.578762	718.88
0.582103	720.933
0.585464	722.992
0.588844	725.057
0.592243	727.127
0.595662	729.204
0.599101	731.286
0.60256	733.374
0.606038	735.469
0.609537	737.569
0.613056	739.675
0.616595	741.787
0.620155	743.905
0.623735	746.029
0.627336	748.159
0.630957	750.295
0.6346	752.437
0.638263	754.585
0.641948	756.739
0.645654	758.899
0.649382	761.066
0.653131	763.238
0.656901	765.417
0.660693	767.602
0.664508	769.793
0.668344	771.99
0.672202	774.193
0.676083	776.403
0.679986	778.619
0.683912	780.841
0.68786	783.069
0.691831	785.304
0.695825	787.545
0.699842	789.792
0.703882	792.046
0.707946	794.306
0.712033	796.572
0.716143	798.845
0.720278	801.125
0.724436	803.41
0.728618	805.702
0.732825	808.001
0.737055	810.306
0.74131	812.618
0.74559	814.936
0.749894	817.261
0.754223	819.592
0.758578	821.93
0.762957	824.274
0.767361	826.625
0.771792	828.983
0.776247	831.347
0.780728	833.718
0.785236	836.096
0.789769	838.481
0.794328	840.872
0.798914	843.27
0.803526	845.674
0.808165	848.086
0.812831	850.504
0.817523	852.929
0.822243	855.361
0.82699	857.8
0.831764	860.246
0.836566	862.698
0.841395	865.158
0.846253	867.624
0.851138	870.098
0.856052	872.578
0.860994	875.065
0.865964	877.56
0.870964	880.061
0.875992	882.569
0.881049	885.085
0.886135	887.608
0.891251	890.137
0.896396	892.674
0.901571	895.218
0.906776	897.769
0.912011	900.328
0.917276	902.893
0.922571	905.466
0.927897	908.046
0.933254	910.633
0.938642	913.228
0.944061	915.83
0.949511	918.439
0.954993	921.056
0.960506	923.68
0.966051	926.311
0.971628	928.95
0.977237	931.596
0.982879	934.25
0.988553	936.911
0.99426	939.579
1	942.255
1.00577	944.939
1.01158	947.63
1.01742	950.329
1.02329	953.035
1.0292	955.749
1.03514	958.471
1.04112	961.2
1.04713	963.937
1.05317	966.682
1.05925	969.434
1.06537	972.194
1.07152	974.962
1.07771	977.738
1.08393	980.521
1.09018	983.313
1.09648	986.112
1.10281	988.919
1.10917	991.734
1.11558	994.557
1.12202	997.387
1.1285	1000.23
1.13501	1003.07
1.14156	1005.93
1.14815	1008.79
1.15478	1011.66
1.16145	1014.54
1.16815	1017.43
1.1749	1020.32
1.18168	1023.23
1.1885	1026.14
1.19536	1029.06
1.20226	1032.16
1.20921	1035.67
1.21619	1039.19
1.22321	1042.73
1.23027	1046.3
1.23737	1049.88
1.24451	1053.48
1.2517	1057.1
1.25893	1060.73
1.26619	1064.39
1.2735	1068.07
1.28086	1071.76
1.28825	1075.48
1.29569	1079.21
1.30317	1082.97
1.31069	1086.74
1.31826	1090.53
1.32587	1094.35
1.33352	1098.18
1.34122	1102.03
1.34896	1105.9
1.35675	1109.79
1.36458	1113.7
1.37246	1117.63
1.38038	1121.58
1.38835	1125.54
1.39637	1129.53
1.40443	1133.54
1.41254	1137.57
1.42069	1141.61
1.42889	1145.68
1.43714	1149.77
1.44544	1153.75
1.45378	1157.68
1.46218	1161.63
1.47062	1165.6
1.47911	1169.58
1.48765	1173.59
1.49624	1177.61
1.50487	1181.65
1.51356	1185.71
1.5223	1189.79
1.53109	1193.89
1.53993	1198
1.54882	1202.14
1.55776	1206.29
1.56675	1210.46
1.5758	1214.65
1.58489	1218.85
1.59404	1223.07
1.60325	1227.32
1.6125	1231.58
1.62181	1235.85
1.63117	1240.15
1.64059	1244.46
1.65006	1248.79
1.65959	1253.14
1.66917	1257.5
1.6788	1261.89
1.6885	1266.29
1.69824	1270.7
1.70805	1275.14
1.71791	1279.59
1.72783	1284.05
1.7378	1288.54
1.74783	1293.04
1.75792	1297.55
1.76807	1302.09
1.77828	1306.64
1.78855	1311.2
1.79887	1315.78
1.80926	1320.37
1.8197	1324.99
1.83021	1329.61
1.84077	1334.25
1.8514	1338.91
1.86209	1343.58
1.87284	1348.26
1.88365	1352.96
1.89452	1357.67
1.90546	1362.4
1.91646	1367.14
1.92752	1371.86
1.93865	1376.57
1.94984	1381.3
1.9611	1386.04
1.97242	1390.79
1.98381	1395.55
1.99526	1400.33
2.00678	1405.12
2.01837	1409.92
2.03002	1414.74
2.04174	1419.57
2.05353	1424.41
2.06538	1429.26
2.0773	1434.13
2.0893	1439.01
2.10136	1443.9
2.11349	1448.8
2.12569	1453.72
2.13796	1458.65
2.1503	1463.59
2.16272	1468.55
2.1752	1473.52
2.18776	1478.5
2.20039	1483.49
2.21309	1488.49
2.22587	1493.51
2.23872	1498.54
2.25165	1503.59
2.26464	1508.64
2.27772	1513.71
2.29087	1518.79
2.30409	1523.89
2.31739	1528.99
2.33077	1534.11
2.34423	1539.25
2.35776	1544.39
2.37137	1549.55
2.38506	1554.72
2.39883	1559.9
2.41268	1565.1
2.42661	1570.3
2.44062	1575.52
2.45471	1580.76
2.46888	1586
2.48313	1591.26
2.49747	1596.53
2.51189	1601.81
2.52639	1607.11
2.54097	1612.41
2.55564	1617.73
2.5704	1623.07
2.58523	1628.41
2.60016	1633.77
2.61517	1639.14
2.63027	1644.52
2.64545	1649.91
2.66073	1655.32
2.67609	1660.74
2.69153	1666.17
2.70707	1671.61
2.7227	1677.07
2.73842	1682.54
2.75423	1688.01
2.77013	1693.51
2.78612	1699.01
2.80221	1704.52
2.81838	1710.05
2.83465	1715.59
2.85102	1721.14
2.86748	1726.7
2.88403	1732.28
2.90068	1737.86
2.91743	1743.46
2.93427	1749.07
2.95121	1754.69
2.96825	1760.32
2.98538	1765.97
3.00262	1771.63
3.01995	1777.3
3.03739	1782.98
3.05492	1788.68
3.07256	1794.38
3.0903	1800.11
3.10814	1805.84
3.12608	1811.59
3.14413	1817.34
3.16228	1823.12
3.18053	1828.9
3.1989	1834.7
3.21736	1840.52
3.23594	1846.34
3.25462	1852.19
3.27341	1858.04
3.2923	1863.91
3.31131	1869.8
3.33043	1875.69
3.34965	1881.61
3.36899	1887.54
3.38844	1893.48
3.408	1899.44
3.42768	1905.42
3.44747	1911.41
3.46737	1917.42
3.48739	1923.45
3.50752	1929.49
3.52777	1935.56
3.54813	1941.64
3.56862	1947.74
3.58922	1953.85
3.60994	1959.99
3.63078	1966.15
3.65174	1972.33
3.67282	1978.52
3.69403	1984.74
3.71535	1990.99
3.7368	1997.25
3.75837	2003.54
3.78007	2009.85
3.80189	2016.18
3.82384	2022.54
3.84592	2028.93
3.86812	2035.34
3.89045	2041.77
3.91291	2048.24
3.9355	2054.73
3.95822	2061.25
3.98107	2067.79
4.00405	2074.37
4.02717	2080.97
4.05042	2087.61
4.0738	2094.27
4.09732	2100.97
4.12098	2107.7
4.14477	2114.46
4.16869	2121.25
4.19276	2128.07
4.21697	2134.93
4.24131	2141.83
4.2658	2148.76
4.29042	2155.72
4.31519	2162.72
4.3401	2169.76
4.36516	2176.84
4.39036	2183.96
4.4157	2191.11
4.4412	2198.3
4.46684	2205.53
4.49262	2212.79
4.51856	2220.1
4.54465	2227.44
4.57088	2234.82
4.59727	2242.24
4.62381	2249.69
4.6505	2257.18
4.67735	2264.72
4.70435	2272.29
4.73151	2279.89
4.75883	2287.54
4.7863	2295.22
4.81393	2302.94
4.84172	2310.7
4.86968	2318.49
4.89779	2326.33
4.92606	2334.2
4.9545	2342.11
4.9831	2350.05
5.01187	2358.04
5.04081	2366.06
5.06991	2374.12
5.09918	2382.21
5.12861	2390.34
5.15822	2398.51
5.188	2406.72
5.21795	2414.96
5.24807	2423.24
5.27837	2431.55
5.30884	2439.9
5.33949	2448.29
5.37032	2456.71
5.40132	2465.17
5.4325	2473.66
5.46387	2482.19
5.49541	2490.75
5.52713	2499.35
5.55904	2507.99
5.59114	2516.65
5.62341	2525.36
5.65588	2534.09
5.68853	2542.86
5.72137	2551.66
5.7544	2560.5
5.78762	2569.36
5.82103	2578.26
5.85464	2587.2
5.88844	2596.16
5.92243	2605.15
5.95662	2614.18
5.99101	2623.23
6.0256	2632.32
6.06038	2641.43
6.09537	2650.58
6.13056	2659.75
6.16595	2668.95
6.20155	2678.18
6.23735	2687.44
6.27336	2696.72
6.30957	2706.03
6.346	2715.36
6.38263	2724.72
6.41948	2734.11
6.45654	2743.51
6.49382	2752.95
6.53131	2762.4
6.56901	2771.87
6.60693	2781.37
6.64508	2790.89
6.68344	2800.42
6.72202	2809.98
6.76083	2819.55
6.79986	2829.14
6.83912	2838.75
6.8786	2848.37
6.91831	2858.01
6.95825	2867.66
6.99842	2877.32
7.03882	2887
7.07946	2896.69
7.12033	2906.38
7.16143	2916.09
7.20278	2925.8
7.24436	2935.49
7.28618	2945.19
7.32825	2954.89
7.37055	2964.59
7.4131	2974.31
7.4559	2984.03
7.49894	2993.75
7.54223	3003.48
7.58578	3013.21
7.62957	3022.94
7.67361	3032.68
7.71792	3042.43
7.76247	3052.17
7.80728	3061.92
7.85236	3071.67
7.89769	3081.43
7.94328	3091.18
7.98914	3100.94
8.03526	3110.7
8.08165	3120.46
8.12831	3130.22
8.17523	3139.98
8.22243	3149.74
8.2699	3159.5
8.31764	3169.27
8.36566	3179.03
8.41395	3188.79
8.46253	3198.54
8.51138	3208.3
8.56052	3218.05
8.60994	3227.81
8.65964	3237.56
8.70964	3247.31
8.75992	3257.05
8.81049	3266.79
8.86135	3276.53
8.91251	3286.26
8.96396	3295.99
9.01571	3305.72
9.06776	3315.44
9.12011	3325.16
9.17276	3334.87
9.22571	3344.57
9.27897	3354.27
9.33254	3363.97
9.38642	3373.66
9.44061	3383.34
9.49511	3393.02
9.54993	3402.68
9.60506	3412.35
9.66051	3422.03
9.71628	3431.71
9.77237	3441.38
9.82879	3451.04
9.88553	3460.7
9.9426	3470.34
10	3479.98
10.0577	3489.6
10.1158	3499.22
10.1742	3508.83
10.2329	3518.43
10.292	3528.02
10.3514	3537.59
10.4112	3547.16
10.4713	3556.72
10.5317	3566.26
10.5925	3575.79
10.6537	3585.31
10.7152	3594.82
10.7771	3604.32
10.8393	3613.81
10.9018	3623.28
10.9648	3632.74
11.0281	3642.18
11.0917	3651.62
11.1558	3661.04
11.2202	3670.44
11.285	3679.84
11.3501	3689.21
11.4156	3698.58
11.4815	3707.93
11.5478	3717.27
11.6145	3726.59
11.6815	3735.9
11.749	3745.19
11.8168	3754.47
11.885	3763.73
11.9536	3772.98
12.0226	3782.21
12.0921	3791.44
12.1619	3800.64
12.2321	3809.83
12.3027	3819.01
12.3737	3828.17
12.4451	3837.31
12.517	3846.44
12.5893	3855.55
12.6619	3864.65
12.735	3873.73
12.8086	3882.79
12.8825	3891.83
12.9569	3900.86
13.0317	3909.86
13.1069	3918.86
13.1826	3927.83
13.2587	3936.78
13.3352	3945.72
13.4122	3954.64
13.4896	3963.54
13.5675	3972.42
13.6458	3981.28
13.7246	3990.13
13.8038	3998.96
13.8835	4007.76
13.9637	4016.55
14.0443	4025.32
14.1254	4034.08
14.2069	4042.81
14.2889	4051.53
14.3714	4060.22
14.4544	4068.91
14.5378	4077.59
14.6218	4086.24
14.7062	4094.88
14.7911	4103.5
14.8765	4112.09
14.9624	4120.67
15.0487	4129.23
15.1356	4137.77
15.223	4146.29
15.3109	4154.79
15.3993	4163.27
15.4882	4171.72
15.5776	4180.16
15.6675	4188.58
15.758	4196.97
15.8489	4205.34
15.9404	4213.69
16.0325	4222.02
16.125	4230.33
16.2181	4238.62
16.3117	4246.88
16.4059	4255.13
16.5006	4263.35
16.5959	4271.54
16.6917	4279.72
16.788	4287.87
16.885	4296.01
16.9824	4304.12
17.0805	4312.21
17.1791	4320.27
17.2783	4328.32
17.378	4336.34
17.4783	4344.34
17.5792	4352.32
17.6807	4360.28
17.7828	4368.22
17.8855	4376.14
17.9887	4384.04
18.0926	4391.92
18.197	4399.77
18.3021	4407.61
18.4077	4415.43
18.514	4423.23
18.6209	4431.01
18.7284	4438.78
18.8365	4446.52
18.9452	4454.25
19.0546	4461.97
19.1646	4469.67
19.2752	4477.32
19.3865	4484.94
19.4984	4492.54
19.611	4500.13
19.7242	4507.7
19.8381	4515.25
19.9526	4522.79
20.0678	4530.31
20.1837	4537.82
20.3002	4545.3
20.4174	4552.77
20.5353	4560.21
20.6538	4567.64
20.773	4575.05
20.893	4582.44
21.0136	4589.81
21.1349	4597.16
21.2569	4604.49
21.3796	4611.8
21.503	4619.09
21.6272	4626.36
21.752	4633.61
21.8776	4640.83
22.0039	4648.04
22.1309	4655.22
22.2587	4662.38
22.3872	4669.51
22.5165	4676.63
22.6464	4683.72
22.7772	4690.79
22.9087	4697.83
23.0409	4704.86
23.1739	4711.86
23.3077	4718.83
23.4423	4725.79
23.5776	4732.71
23.7137	4739.62
23.8506	4746.5
23.9883	4753.36
24.1268	4760.2
24.2661	4767.03
24.4062	4773.82
24.5471	4780.6
24.6888	4787.34
24.8313	4794.06
24.9747	4800.76
25.1189	4807.43
25.2639	4814.07
25.4097	4820.69
25.5564	4827.28
25.704	4833.84
25.8523	4840.37
26.0016	4846.87
26.1517	4853.35
26.3027	4859.79
26.4545	4866.21
26.6073	4872.59
26.7609	4878.95
26.9153	4885.28
27.0707	4891.57
27.227	4897.84
27.3842	4904.07
27.5423	4910.27
27.7013	4916.44
27.8612	4922.58
28.0221	4928.69
28.1838	4934.76
28.3465	4940.8
28.5102	4946.81
28.6748	4952.79
28.8403	4958.73
29.0068	4964.64
29.1743	4970.52
29.3427	4976.36
29.5121	4982.17
29.6825	4987.95
29.8538	4993.68
30.0262	4999.38
30.1995	5005.05
30.3739	5010.68
30.5492	5016.27
30.7256	5021.82
30.903	5027.34
31.0814	5032.81
31.2608	5038.25
31.4413	5043.65
31.6228	5049.01
31.8053	5054.33
31.989	5059.6
32.1736	5064.84
32.3594	5070.03
32.5462	5075.19
32.7341	5080.3
32.923	5085.37
33.1131	5090.4
33.3043	5095.38
33.4965	5100.32
33.6899	5105.21
33.8844	5110.07
34.08	5114.87
34.2768	5119.64
34.4747	5124.35
34.6737	5129.03
34.8739	5133.65
35.0752	5138.23
35.2777	5142.76
35.4813	5147.25
35.6862	5151.68
35.8922	5156.07
36.0994	5160.41
36.3078	5164.7
36.5174	5168.94
36.7282	5173.13
36.9403	5177.27
37.1535	5181.36
37.368	5185.4
37.5837	5189.39
37.8007	5193.33
38.0189	5197.22
38.2384	5201.06
38.4592	5204.84
38.6812	5208.57
38.9045	5212.25
39.1291	5215.87
39.355	5219.45
39.5822	5222.96
39.8107	5226.43
40.0405	5229.84
40.2717	5233.19
40.5042	5236.49
40.738	5239.73
40.9732	5242.92
41.2098	5246.05
41.4477	5249.12
41.6869	5252.14
41.9276	5255.1
42.1697	5258
42.4131	5260.84
42.658	5263.62
42.9042	5266.35
43.1519	5269.02
43.401	5271.63
43.6516	5274.18
43.9036	5276.67
44.157	5279.1
44.412	5281.47
44.6684	5283.78
44.9262	5286.04
45.1856	5288.23
45.4465	5290.37
45.7088	5292.45
45.9727	5294.47
46.2381	5296.43
46.505	5298.33
46.7735	5300.17
47.0435	5301.96
47.3151	5303.68
47.5883	5305.35
47.863	5306.97
48.1393	5308.53
48.4172	5310.05
48.6968	5311.51
48.9779	5312.91
49.2606	5314.25
49.545	5315.54
49.831	5316.76
50.1187	5317.93
50.4081	5319.04
50.6991	5320.09
50.9918	5321.08
51.2861	5322.01
51.5822	5322.87
51.88	5323.68
52.1795	5324.43
52.4807	5325.11
52.7837	5325.73
53.0884	5326.29
53.3949	5326.79
53.7032	5327.22
54.0132	5327.59
54.325	5327.9
54.6387	5328.14
54.9541	5328.33
55.2713	5328.44
55.5904	5328.5
55.9114	5328.48
56.2341	5328.41
56.5588	5328.27
56.8853	5328.07
57.2137	5327.8
57.544	5327.47
57.8762	5327.07
58.2103	5326.61
58.5464	5326.08
58.8844	5325.49
59.2243	5324.84
59.5662	5324.12
59.9101	5323.34
60.256	5322.49
60.6038	5321.58
60.9537	5320.61
61.3056	5319.57
61.6595	5318.47
62.0155	5317.31
62.3735	5316.09
62.7336	5314.8
63.0957	5313.45
63.46	5312.04
63.8263	5310.57
64.1948	5309.04
64.5654	5307.46
64.9382	5305.81
65.3131	5304.1
65.6901	5302.34
66.0693	5300.51
66.4508	5298.64
66.8344	5296.7
67.2202	5294.72
67.6083	5292.68
67.9986	5290.58
68.3912	5288.44
68.786	5286.24
69.1831	5283.99
69.5825	5281.7
69.9842	5279.36
70.3882	5276.97
70.7946	5274.54
71.2033	5272.06
71.6143	5269.54
72.0278	5266.97
72.4436	5264.23
72.8618	5261.44
73.2825	5258.61
73.7055	5255.74
74.131	5252.83
74.559	5249.88
74.9894	5246.89
75.4223	5243.86
75.8578	5240.78
76.2957	5237.67
76.7361	5234.51
77.1792	5231.31
77.6247	5228.07
78.0728	5224.78
78.5236	5221.46
78.9769	5218.09
79.4328	5214.68
79.8914	5211.22
80.3526	5207.73
80.8165	5204.19
81.2831	5200.61
81.7523	5196.98
82.2243	5193.31
82.699	5189.6
83.1764	5185.84
83.6566	5182.04
84.1395	5178.2
84.6253	5174.32
85.1138	5170.39
85.6052	5166.41
86.0994	5162.4
86.5964	5158.34
87.0964	5154.24
87.5992	5150.09
88.1049	5145.9
88.6135	5141.67
89.1251	5137.39
89.6396	5133.07
90.1571	5128.71
90.6776	5124.31
91.2011	5119.86
91.7276	5115.37
92.2571	5110.84
92.7897	5106.27
93.3254	5101.65
93.8642	5097
94.4061	5092.3
94.9511	5087.56
95.4993	5082.78
96.0506	5077.96
96.6051	5073.11
97.1628	5068.23
97.7237	5063.31
98.2879	5058.34
98.8553	5053.34
99.426	5048.29
100	5043.21
100.577	5038.08
101.158	5032.92
101.742	5027.72
102.329	5022.48
102.92	5017.2
103.514	5011.88
104.112	5006.52
104.713	5001.12
105.317	4995.69
105.925	4990.22
106.537	4984.71
107.152	4979.16
107.771	4973.57
108.393	4967.95
109.018	4962.29
109.648	4956.6
110.281	4950.87
110.917	4945.1
111.558	4939.3
112.202	4933.47
112.85	4927.6
113.501	4921.7
114.156	4915.76
114.815	4909.79
115.478	4903.79
116.145	4897.76
116.815	4891.7
117.49	4885.6
118.168	4879.48
118.85	4873.33
119.536	4867.14
120.226	4860.94
120.921	4854.7
121.619	4848.44
122.321	4842.15
123.027	4835.83
123.737	4829.49
124.451	4823.12
125.17	4816.72
125.893	4810.3
126.619	4803.85
127.35	4797.37
128.086	4790.87
128.825	4784.34
129.569	4777.78
130.317	4771.2
131.069	4764.59
131.826	4757.96
132.587	4751.3
133.352	4744.61
134.122	4737.9
134.896	4731.17
135.675	4724.41
136.458	4717.62
137.246	4710.81
138.038	4703.98
138.835	4697.12
139.637	4690.24
140.443	4683.33
141.254	4676.4
142.069	4669.45
142.889	4662.47
143.714	4655.48
144.544	4648.45
145.378	4641.41
146.218	4634.34
147.062	4627.26
147.911	4620.14
148.765	4613.01
149.624	4605.86
150.487	4598.68
151.356	4591.48
152.23	4584.26
153.109	4577.02
153.993	4569.76
154.882	4562.47
155.776	4555.16
156.675	4547.84
157.58	4540.49
158.489	4533.12
159.404	4525.73
160.325	4518.31
161.25	4510.88
162.181	4503.43
163.117	4495.96
164.059	4488.46
165.006	4480.95
165.959	4473.41
166.917	4465.86
167.88	4458.29
168.85	4450.69
169.824	4443.08
170.805	4435.45
171.791	4427.8
172.783	4420.13
173.78	4412.44
174.783	4404.74
175.792	4397.01
176.807	4389.27
177.828	4381.51
178.855	4373.73
179.887	4365.94
180.926	4358.13
181.97	4350.3
183.021	4342.45
184.077	4334.59
185.14	4326.71
186.209	4318.82
187.284	4310.91
188.365	4302.99
189.452	4295.05
190.546	4287.09
191.646	4279.13
192.752	4271.15
193.865	4263.16
194.984	4255.16
196.11	4247.15
197.242	4239.12
198.381	4231.08
199.526	4223.02
200.678	4214.96
201.837	4206.88
203.002	4198.78
204.174	4190.68
205.353	4182.56
206.538	4174.43
207.73	4166.29
208.93	4158.13
210.136	4149.97
211.349	4141.79
212.569	4133.6
213.796	4125.4
215.03	4117.18
216.272	4108.96
217.52	4100.72
218.776	4092.48
220.039	4084.22
221.309	4075.95
222.587	4067.67
223.872	4059.38
225.165	4051.08
226.464	4042.77
227.772	4034.45
229.087	4026.12
230.409	4017.78
231.739	4009.43
233.077	4001.08
234.423	3992.71
235.776	3984.33
237.137	3975.94
238.506	3967.55
239.883	3959.15
241.268	3950.73
242.661	3942.3
244.062	3933.87
245.471	3925.43
246.888	3916.98
248.313	3908.52
249.747	3900.06
251.189	3891.58
252.639	3883.1
254.097	3874.62
255.564	3866.12
257.04	3857.62
258.523	3849.11
260.016	3840.59
261.517	3832.07
263.027	3823.54
264.545	3815.01
266.073	3806.47
267.609	3797.92
269.153	3789.37
270.707	3780.81
272.27	3772.24
273.842	3763.67
275.423	3755.1
277.013	3746.52
278.612	3737.93
280.221	3729.34
281.838	3720.74
283.465	3712.14
285.102	3703.53
286.748	3694.92
288.403	3686.31
290.068	3677.69
291.743	3669.06
293.427	3660.43
295.121	3651.8
296.825	3643.16
298.538	3634.52
300.262	3625.88
301.995	3617.23
303.739	3608.58
305.492	3599.93
307.256	3591.27
309.03	3582.62
310.814	3573.95
312.608	3565.29
314.413	3556.62
316.228	3547.95
318.053	3539.28
319.89	3530.61
321.736	3521.94
323.594	3513.26
325.462	3504.58
327.341	3495.9
329.23	3487.22
331.131	3478.54
333.043	3469.85
334.965	3461.17
336.899	3452.48
338.844	3443.79
340.8	3435.11
342.768	3426.42
344.747	3417.73
346.737	3409.04
348.739	3400.35
350.752	3391.66
352.777	3382.97
354.813	3374.28
356.862	3365.6
358.922	3356.91
360.994	3348.22
363.078	3339.53
365.174	3330.85
367.282	3322.16
369.403	3313.48
371.535	3304.8
373.68	3296.12
375.837	3287.44
378.007	3278.76
380.189	3270.08
382.384	3261.41
384.592	3252.74
386.812	3244.07
389.045	3235.4
391.291	3226.73
393.55	3218.07
395.822	3209.4
398.107	3200.74
400.405	3192.09
402.717	3183.43
405.042	3174.78
407.38	3166.14
409.732	3157.49
412.098	3148.85
414.477	3140.22
416.869	3131.58
419.276	3122.96
421.697	3114.33
424.131	3105.71
426.58	3097.09
429.042	3088.48
431.519	3079.87
434.01	3071.27
436.516	3062.67
439.036	3054.08
441.57	3045.49
444.12	3036.9
446.684	3028.32
449.262	3019.75
451.856	3011.18
454.465	3002.61
457.088	2994.06
459.727	2985.5
462.381	2976.96
465.05	2968.41
467.735	2959.88
470.435	2951.35
473.151	2942.82
475.883	2934.3
478.63	2925.79
481.393	2917.27
484.172	2908.76
486.968	2900.26
489.779	2891.76
492.606	2883.27
495.45	2874.78
498.31	2866.3
501.187	2857.83
504.081	2849.36
506.991	2840.91
509.918	2832.46
512.861	2824.01
515.822	2815.58
518.8	2807.16
521.795	2798.74
524.807	2790.33
527.837	2781.93
530.884	2773.54
533.949	2765.16
537.032	2756.79
540.132	2748.43
543.25	2740.08
546.387	2731.74
549.541	2723.41
552.713	2715.09
555.904	2706.78
559.114	2698.48
562.341	2690.19
565.588	2681.91
568.853	2673.64
572.137	2665.38
575.44	2657.14
578.762	2648.91
582.103	2640.68
585.464	2632.47
588.844	2624.27
592.243	2616.09
595.662	2607.91
599.101	2599.75
602.56	2591.59
606.038	2583.45
609.537	2575.33
613.056	2567.21
616.595	2559.1
620.155	2551.01
623.735	2542.93
627.336	2534.86
630.957	2526.8
634.6	2518.76
638.263	2510.72
641.948	2502.7
645.654	2494.69
649.382	2486.69
653.131	2478.7
656.901	2470.72
660.693	2462.76
664.508	2454.8
668.344	2446.86
672.202	2438.92
676.083	2431
679.986	2423.08
683.912	2415.18
687.86	2407.28
691.831	2399.4
695.825	2391.52
699.842	2383.65
703.882	2375.79
707.946	2367.93
712.033	2360.08
716.143	2352.24
720.278	2344.42
724.436	2336.7
728.618	2328.99
732.825	2321.28
737.055	2313.58
741.31	2305.89
745.59	2298.21
749.894	2290.54
754.223	2282.87
758.578	2275.21
762.957	2267.56
767.361	2259.92
771.792	2252.29
776.247	2244.67
780.728	2237.06
785.236	2229.46
789.769	2221.87
794.328	2214.3
798.914	2206.73
803.526	2199.17
808.165	2191.63
812.831	2184.09
817.523	2176.57
822.243	2169.06
826.99	2161.57
831.764	2154.08
836.566	2146.61
841.395	2139.15
846.253	2131.71
851.138	2124.28
856.052	2116.86
860.994	2109.46
865.964	2102.07
870.964	2094.7
875.992	2087.34
881.049	2080
886.135	2072.67
891.251	2065.35
896.396	2058.06
901.571	2050.78
906.776	2043.51
912.011	2036.26
917.276	2029.03
922.571	2021.81
927.897	2014.61
933.254	2007.43
938.642	2000.26
944.061	1993.12
949.511	1985.98
954.993	1978.87
960.506	1971.77
966.051	1964.67
971.628	1957.58
977.237	1950.51
982.879	1943.46
988.553	1936.43
994.26	1929.42
1000	1922.42
1005.77	1915.44
1011.58	1908.48
1017.42	1901.54
1023.29	1894.62
1029.2	1887.72
1035.14	1880.83
1041.12	1873.97
1047.13	1867.12
1053.17	1860.3
1059.25	1853.49
1065.37	1846.7
1071.52	1839.93
1077.71	1833.18
1083.93	1826.45
1090.18	1819.73
1096.48	1813.04
1102.81	1806.36
1109.17	1799.71
1115.58	1793.07
1122.02	1786.45
1128.5	1779.85
1135.01	1773.26
1141.56	1766.7
1148.15	1760.15
1154.78	1753.62
1161.45	1747.11
1168.15	1740.61
1174.9	1734.14
1181.68	1727.67
1188.5	1721.23
1195.36	1714.8
1202.26	1708.38
1209.21	1701.98
1216.19	1695.6
1223.21	1689.23
1230.27	1682.88
1237.37	1676.54
1244.51	1670.22
1251.7	1663.91
1258.93	1657.62
1266.19	1651.35
1273.5	1645.1
1280.86	1638.86
1288.25	1632.64
1295.69	1626.43
1303.17	1620.24
1310.69	1614.07
1318.26	1607.92
1325.87	1601.78
1333.52	1595.67
1341.22	1589.57
1348.96	1583.48
1356.75	1577.42
1364.58	1571.37
1372.46	1565.34
1380.38	1559.32
1388.35	1553.33
1396.37	1547.35
1404.43	1541.39
1412.54	1535.45
1420.69	1529.52
1428.89	1523.61
1437.14	1517.72
1445.44	1511.84
1453.78	1505.97
1462.18	1500.12
1470.62	1494.29
1479.11	1488.48
1487.65	1482.68
1496.24	1476.9
1504.87	1471.14
1513.56	1465.4
1522.3	1459.67
1531.09	1453.97
1539.93	1448.28
1548.82	1442.61
1557.76	1436.96
1566.75	1431.33
1575.8	1425.72
1584.89	1420.13
1594.04	1414.55
1603.25	1409
1612.5	1403.46
1621.81	1397.95
1631.17	1392.45
1640.59	1386.97
1650.06	1381.52
1659.59	1376.08
1669.17	1370.66
1678.8	1365.26
1688.5	1359.88
1698.24	1354.51
1708.05	1349.17
1717.91	1343.85
1727.83	1338.54
1737.8	1333.26
1747.83	1327.99
1757.92	1322.74
1768.07	1317.51
1778.28	1312.3
1788.55	1307.11
1798.87	1301.93
1809.26	1296.77
1819.7	1291.63
1830.21	1286.5
1840.77	1281.4
1851.4	1276.31
1862.09	1271.23
1872.84	1266.17
1883.65	1261.13
1894.52	1256.1
1905.46	1251.09
1916.46	1246.09
1927.52	1241.12
1938.65	1236.18
1949.84	1231.26
1961.1	1226.35
1972.42	1221.45
1983.81	1216.57
1995.26	1211.7
2006.78	1206.85
2018.37	1202.01
2030.02	1197.19
2041.74	1192.38
2053.53	1187.59
2065.38	1182.82
2077.3	1178.06
2089.3	1173.31
2101.36	1168.59
2113.49	1163.87
2125.69	1159.18
2137.96	1154.5
2150.3	1149.84
2162.72	1145.19
2175.2	1140.56
2187.76	1135.95
2200.39	1131.36
2213.09	1126.78
2225.87	1122.22
2238.72	1117.67
2251.65	1113.15
2264.64	1108.64
2277.72	1104.14
2290.87	1099.67
2304.09	1095.21
2317.39	1090.77
2330.77	1086.34
2344.23	1081.93
2357.76	1077.54
2371.37	1073.17
2385.06	1068.82
2398.83	1064.48
2412.68	1060.15
2426.61	1055.83
2440.62	1051.53
2454.71	1047.25
2468.88	1042.99
2483.13	1038.74
2497.47	1034.52
2511.89	1030.3
2526.39	1026.11
2540.97	1021.93
2555.64	1017.77
2570.4	1013.63
2585.23	1009.5
2600.16	1005.39
2615.17	1001.3
2630.27	997.225
2645.45	993.168
2660.73	989.127
2676.09	985.103
2691.53	981.096
2707.07	977.106
2722.7	973.132
2738.42	969.175
2754.23	965.233
2770.13	961.308
2786.12	957.399
2802.21	953.506
2818.38	949.628
2834.65	945.766
2851.02	941.918
2867.48	938.086
2884.03	934.268
2900.68	930.463
2917.43	926.673
2934.27	922.898
2951.21	919.137
2968.25	915.391
2985.38	911.66
3002.62	907.943
3019.95	904.241
3037.39	900.554
3054.92	896.882
3072.56	893.225
3090.3	889.583
3108.14	885.955
3126.08	882.343
3144.13	878.746
3162.28	875.164
3180.53	871.597
3198.9	868.044
3217.36	864.507
3235.94	860.984
3254.62	857.477
3273.41	853.984
3292.3	850.505
3311.31	847.041
3330.43	843.592
3349.65	840.157
3368.99	836.736
3388.44	833.33
3408	829.937
3427.68	826.559
3447.47	823.195
3467.37	819.845
3487.39	816.51
3507.52	813.189
3527.77	809.882
3548.13	806.59
3568.62	803.311
3589.22	800.048
3609.94	796.798
3630.78	793.562
3651.74	790.341
3672.82	787.134
3694.03	783.94
3715.35	780.761
3736.8	777.595
3758.37	774.443
3780.07	771.304
3801.89	768.179
3823.84	765.068
3845.92	761.969
3868.12	758.883
3890.45	755.81
3912.91	752.751
3935.5	749.704
3958.22	746.671
3981.07	743.651
4004.05	740.644
4027.17	737.651
4050.42	734.671
4073.8	731.704
4097.32	728.75
4120.98	725.81
4144.77	722.882
4168.69	719.969
4192.76	717.068
4216.97	714.18
4241.31	711.306
4265.8	708.444
4290.42	705.596
4315.19	702.76
4340.1	699.937
4365.16	697.127
4390.36	694.33
4415.7	691.545
4441.2	688.772
4466.84	686.012
4492.62	683.264
4518.56	680.529
4544.65	677.805
4570.88	675.094
4597.27	672.394
4623.81	669.706
4650.5	667.029
4677.35	664.363
4704.35	661.709
4731.51	659.065
4758.83	656.432
4786.3	653.809
4813.93	651.193
4841.72	648.585
4869.68	645.987
4897.79	643.399
4926.06	640.821
4954.5	638.254
4983.1	635.697
5011.87	633.151
5040.81	630.616
5069.91	628.092
5099.18	625.579
5128.61	623.077
5158.22	620.586
5188	618.107
5217.95	615.639
5248.07	613.182
5278.37	610.737
5308.84	608.304
5339.49	605.882
5370.32	603.473
5401.32	601.075
5432.5	598.689
5463.87	596.316
5495.41	593.954
5527.13	591.605
5559.04	589.267
5591.14	586.942
5623.41	584.629
5655.88	582.329
5688.53	580.041
5721.37	577.765
5754.4	575.502
5787.62	573.251
5821.03	571.012
5854.64	568.786
5888.44	566.572
5922.43	564.37
5956.62	562.181
5991.01	560.004
6025.6	557.839
6060.38	555.686
6095.37	553.545
6130.56	551.416
6165.95	549.3
6201.55	547.195
6237.35	545.101
6273.36	543.02
6309.57	540.95
6346	538.891
6382.63	536.843
6419.48	534.807
6456.54	532.781
6493.82	530.766
6531.31	528.762
6569.01	526.767
6606.93	524.783
6645.08	522.809
6683.44	520.845
6722.02	518.889
6760.83	516.943
6799.86	515.006
6839.12	513.077
6878.6	511.068
6918.31	508.996
6958.25	506.932
6998.42	504.878
7038.82	502.832
7079.46	500.793
7120.33	498.762
7161.43	496.738
7202.78	494.723
7244.36	492.767
7286.18	490.818
7328.25	488.876
7370.55	486.94
7413.1	485.01
7455.9	483.087
7498.94	481.171
7542.23	479.262
7585.78	477.36
7629.57	475.465
7673.61	473.577
7717.92	471.696
7762.47	469.823
7807.28	467.957
7852.36	466.098
7897.69	464.247
7943.28	462.403
7989.14	460.567
8035.26	458.739
8081.65	456.919
8128.31	455.107
8175.23	453.303
8222.43	451.507
8269.9	449.719
8317.64	447.939
8365.66	446.167
8413.95	444.404
8462.53	442.649
8511.38	440.903
8560.52	439.165
8609.94	437.436
8659.64	435.716
8709.64	434.004
8759.92	432.301
8810.49	430.607
8861.35	428.921
8912.51	427.245
8963.96	425.578
9015.71	423.919
9067.76	422.27
9120.11	420.629
9172.76	418.998
9225.71	417.376
9278.97	415.763
9332.54	414.159
9386.42	412.565
9440.61	410.979
9495.11	409.403
9549.93	407.837
9605.06	406.278
9660.51	404.721
9716.28	403.173
9772.37	401.634
9828.79	400.104
9885.53	398.583
9942.6	397.072
10000	395.57
10057.7	394.077
10115.8	392.594
10174.2	391.119
10232.9	389.654
10292	388.198
10351.4	386.752
10411.2	385.314
10471.3	383.885
10531.7	382.466
10592.5	381.055
10653.7	379.654
10715.2	378.261
10777.1	376.877
10839.3	375.502
10901.8	374.136
10964.8	372.778
11028.1	371.428
11091.7	370.087
11155.8	368.754
11220.2	367.43
11285	366.113
11350.1	364.804
11415.6	363.503
11481.5	362.21
11547.8	360.924
11614.5	359.645
11681.5	358.373
11749	357.108
11816.8	355.85
11885	354.599
11953.6	353.353
12022.6	352.114
12092.1	350.88
12161.9	349.652
12232.1	348.43
12302.7	347.214
12373.7	346.003
12445.1	344.799
12517	343.601
12589.3	342.409
12661.9	341.224
12735	340.044
12808.6	338.87
12882.5	337.703
12956.9	336.541
13031.7	335.386
13106.9	334.237
13182.6	333.094
13258.7	331.958
13335.2	330.827
13412.2	329.703
13489.6	328.585
13567.5	327.473
13645.8	326.367
13724.6	325.267
13803.8	324.173
13883.5	323.085
13963.7	322.003
14044.3	320.927
14125.4	319.857
14206.9	318.793
14288.9	317.735
14371.4	316.682
14454.4	315.634
14537.8	314.59
14621.8	313.552
14706.2	312.52
14791.1	311.494
14876.5	310.473
14962.4	309.459
15048.7	308.45
15135.6	307.447
15223	306.45
15310.9	305.459
15399.3	304.473
15488.2	303.494
15577.6	302.521
15667.5	301.553
15758	300.592
15848.9	299.636
15940.4	298.687
16032.5	297.744
16125	296.806
16218.1	295.874
16311.7	294.949
16405.9	294.029
16500.6	293.115
16595.9	292.207
16691.7	291.305
16788	290.409
16885	289.518
16982.4	288.634
17080.5	287.755
17179.1	286.881
17278.3	286.014
17378	285.152
17478.3	284.295
17579.2	283.444
17680.7	282.598
17782.8	281.757
17885.5	280.922
17988.7	280.092
18092.6	279.266
18197	278.446
18302.1	277.631
18407.7	276.82
18514	276.014
18620.9	275.212
18728.4	274.415
18836.5	273.622
18945.2	272.833
19054.6	272.048
19164.6	271.266
19275.2	270.494
19386.5	269.727
19498.4	268.964
19611	268.205
19724.2	267.45
19838.1	266.698
19952.6	265.95
20067.8	265.206
20183.7	264.465
20300.2	263.729
20417.4	262.996
20535.3	262.268
20653.8	261.543
20773	260.822
20893	260.106
21013.6	259.393
21134.9	258.684
21256.9	257.979
21379.6	257.279
21503	256.582
21627.2	255.89
21752	255.202
21877.6	254.517
22003.9	253.837
22130.9	253.161
22258.7	252.489
22387.2	251.821
22516.5	251.158
22646.4	250.498
22777.2	249.843
22908.7	249.192
23040.9	248.545
23173.9	247.902
23307.7	247.263
23442.3	246.628
23577.6	245.997
23713.7	245.37
23850.6	244.747
23988.3	244.128
24126.8	243.512
24266.1	242.899
24406.2	242.291
24547.1	241.686
24688.8	241.085
24831.3	240.489
24974.7	239.896
25118.9	239.307
25263.9	238.722
25409.7	238.141
25556.4	237.564
25704	236.991
25852.3	236.422
26001.6	235.856
26151.7	235.295
26302.7	234.737
26454.5	234.184
26607.3	233.634
26760.9	233.088
26915.3	232.545
27070.7	232.006
27227	231.471
27384.2	230.94
27542.3	230.412
27701.3	229.888
27861.2	229.367
28022.1	228.85
28183.8	228.336
28346.5	227.825
28510.2	227.318
28674.8	226.813
28840.3	226.312
29006.8	225.814
29174.3	225.319
29342.7	224.826
29512.1	224.337
29682.5	223.851
29853.8	223.368
30026.2	222.889
30199.5	222.412
30373.9	221.938
30549.2	221.468
30725.6	221
30903	220.536
31081.4	220.075
31260.8	219.617
31441.3	219.161
31622.8	218.71
31805.3	218.261
31989	217.815
32173.6	217.372
32359.4	216.932
32546.2	216.495
32734.1	216.062
32923	215.631
33113.1	215.203
33304.3	214.778
33496.5	214.356
33689.9	213.937
33884.4	213.52
34080	213.107
34276.8	212.696
34474.7	212.288
34673.7	211.883
34873.9	211.481
35075.2	211.081
35277.7	210.685
35481.3	210.291
35686.2	209.9
35892.2	209.512
36099.4	209.127
36307.8	208.745
36517.4	208.365
36728.2	207.988
36940.3	207.614
37153.5	207.242
37368	206.874
37583.7	206.508
37800.7	206.144
38018.9	205.783
38238.4	205.425
38459.2	205.069
38681.2	204.716
38904.5	204.365
39129.1	204.017
39355	203.671
39582.2	203.328
39810.7	202.988
40040.5	202.649
40271.7	202.314
40504.2	201.98
40738	201.65
40973.2	201.321
41209.8	200.995
41447.7	200.672
41686.9	200.351
41927.6	200.032
42169.7	199.716
42413.1	199.402
42658	199.09
42904.2	198.781
43151.9	198.473
43401	198.168
43651.6	197.866
43903.6	197.565
44157	197.266
44412	196.97
44668.4	196.675
44926.2	196.383
45185.6	196.092
45446.5	195.803
45708.8	195.516
45972.7	195.23
46238.1	194.947
46505	194.665
46773.5	194.384
47043.5	194.105
47315.1	193.827
47588.3	193.551
47863	193.275
48139.3	192.992
48417.2	192.7
48696.8	192.41
48977.9	192.122
49260.6	191.837
49545	191.554
49831	191.273
50118.7	190.994
50408.1	190.718
50699.1	190.443
50991.8	190.171
51286.1	189.901
51582.2	189.633
51880	189.367
52179.5	189.103
52480.7	188.841
52783.7	188.581
53088.4	188.324
53394.9	188.068
53703.2	187.814
54013.2	187.563
54325	187.313
54638.7	187.066
54954.1	186.82
55271.3	186.576
55590.4	186.335
55911.4	186.095
56234.1	185.857
56558.8	185.621
56885.3	185.387
57213.7	185.155
57544	184.925
57876.2	184.697
58210.3	184.47
58546.4	184.246
58884.4	184.023
59224.3	183.802
59566.2	183.583
59910.1	183.366
60256	183.151
60603.8	182.937
60953.7	182.725
61305.6	182.515
61659.5	182.307
62015.5	182.101
62373.5	181.896
62733.6	181.693
63095.7	181.492
63460	181.292
63826.3	181.094
64194.8	180.898
64565.4	180.703
64938.2	180.511
65313.1	180.32
65690.1	180.13
66069.3	179.942
66450.8	179.756
66834.4	179.571
67220.2	179.389
67608.3	179.207
67998.6	179.027
68391.2	178.849
68786	178.673
69183.1	178.498
69582.5	178.324
69984.2	178.152
70388.2	177.982
70794.6	177.813
71203.3	177.646
71614.3	177.48
72027.8	177.316
72443.6	177.153
72861.8	176.992
73282.5	176.832
73705.5	176.674
74131	176.517
74559	176.361
74989.4	176.207
75422.3	176.055
75857.8	175.904
76295.7	175.754
76736.1	175.606
77179.2	175.459
77624.7	175.313
78072.8	175.169
78523.6	175.027
78976.9	174.885
79432.8	174.745
79891.4	174.607
80352.6	174.469
80816.5	174.333
81283.1	174.199
81752.3	174.065
82224.3	173.933
82699	173.803
83176.4	173.673
83656.6	173.545
84139.5	173.418
84625.3	173.292
85113.8	173.168
85605.2	173.045
86099.4	172.923
86596.4	172.802
87096.4	172.683
87599.2	172.565
88104.9	172.448
88613.5	172.332
89125.1	172.218
89639.6	172.104
90157.1	171.992
90677.6	171.881
91201.1	171.771
91727.6	171.663
92257.1	171.555
92789.7	171.449
93325.4	171.343
93864.2	171.239
94406.1	171.136
94951.1	171.034
95499.3	170.934
96050.6	170.834
96605.1	170.735
97162.8	170.638
97723.7	170.541
98287.9	170.446
98855.3	170.352
99426	170.258
100000	170.166
100577	170.075
101158	169.985
101742	169.896
102329	169.808
102920	169.721
103514	169.635
104112	169.55
104713	169.466
105317	169.383
105925	169.301
106537	169.22
107152	169.14
107771	169.061
108393	168.982
109018	168.905
109648	168.829
110281	168.753
110917	168.679
111558	168.606
112202	168.533
112850	168.461
113501	168.39
114156	168.321
114815	168.252
115478	168.184
116145	168.116
116815	168.05
117490	167.985
118168	167.92
118850	167.856
119536	167.793
120226	167.731
120921	167.67
121619	167.61
122321	167.55
123027	167.491
123737	167.433
124451	167.376
125170	167.32
125893	167.264
126619	167.209
127350	167.155
128086	167.102
128825	167.05
129569	166.998
130317	166.947
131069	166.897
131826	166.848
132587	166.799
133352	166.751
134122	166.704
134896	166.658
135675	166.612
136458	166.567
137246	166.523
138038	166.479
138835	166.436
139637	166.394
140443	166.352
141254	166.312
142069	166.271
142889	166.232
143714	166.193
144544	166.155
145378	166.118
146218	166.081
147062	166.045
147911	166.009
148765	165.974
149624	165.94
150487	165.906
151356	165.873
152230	165.841
153109	165.809
153993	165.778
154882	165.747
155776	165.717
156675	165.688
157580	165.659
158489	165.631
159404	165.603
160325	165.576
161250	165.55
162181	165.524
163117	165.499
164059	165.474
165006	165.45
165959	165.426
166917	165.403
167880	165.38
168850	165.358
169824	165.337
170805	165.316
171791	165.295
172783	165.275
173780	165.256
174783	165.237
175792	165.218
176807	165.2
177828	165.183
178855	165.166
179887	165.149
180926	165.133
181970	165.118
183021	165.103
184077	165.088
185140	165.074
186209	165.06
187284	165.047
188365	165.034
189452	165.022
190546	165.01
191646	164.999
192752	164.988
193865	164.977
194984	164.967
196110	164.957
197242	164.948
198381	164.939
199526	164.931
200678	164.923
201837	164.915
203002	164.908
204174	164.901
205353	164.895
206538	164.889
207730	164.883
208930	164.878
210136	164.873
211349	164.868
212569	164.864
213796	164.86
215030	164.857
216272	164.854
217520	164.851
218776	164.849
220039	164.847
221309	164.845
222587	164.844
223872	164.843
225165	164.843
226464	164.842
227772	164.842
229087	164.843
230409	164.843
231739	164.845
233077	164.846
234423	164.848
235776	164.85
237137	164.852
238506	164.854
239883	164.857
241268	164.861
242661	164.864
244062	164.868
245471	164.872
246888	164.876
248313	164.881
249747	164.886
251189	164.891
252639	164.897
254097	164.902
255564	164.909
257040	164.915
258523	164.921
260016	164.928
261517	164.935
263027	164.943
264545	164.95
266073	164.958
267609	164.966
269153	164.975
270707	164.983
272270	164.992
273842	165.001
275423	165.01
277013	165.02
278612	165.03
280221	165.04
281838	165.05
283465	165.06
285102	165.071
286748	165.082
288403	165.093
290068	165.104
291743	165.115
293427	165.127
295121	165.139
296825	165.151
298538	165.163
300262	165.176
301995	165.189
303739	165.201
305492	165.214
307256	165.228
309030	165.241
310814	165.255
312608	165.269
314413	165.282
316228	165.297
318053	165.311
319890	165.325
321736	165.34
323594	165.355
325462	165.37
327341	165.385
329230	165.4
331131	165.416
333043	165.431
334965	165.447
336899	165.463
338844	165.479
340800	165.495
342768	165.512
344747	165.528
346737	165.545
348739	165.561
350752	165.578
352777	165.595
354813	165.613
356862	165.63
358922	165.647
360994	165.665
363078	165.682
365174	165.7
367282	165.718
369403	165.736
371535	165.754
373680	165.773
375837	165.791
378007	165.81
380189	165.828
382384	165.847
384592	165.866
386812	165.885
389045	165.904
391291	165.923
393550	165.942
395822	165.961
398107	165.981
400405	166
402717	166.02
405042	166.04
407380	166.059
409732	166.079
412098	166.099
414477	166.119
416869	166.139
419276	166.16
421697	166.18
424131	166.2
426580	166.221
429042	166.241
431519	166.262
434010	166.282
436516	166.303
439036	166.324
441570	166.345
444120	166.366
446684	166.387
449262	166.408
451856	166.429
454465	166.45
457088	166.472
459727	166.493
462381	166.514
465050	166.536
467735	166.557
470435	166.579
473151	166.6
475883	166.622
478630	166.644
481393	166.665
484172	166.687
486968	166.709
489779	166.731
492606	166.753
495450	166.775
498310	166.797
501187	166.819
504081	166.841
506991	166.863
509918	166.885
512861	166.907
515822	166.93
518800	166.952
521795	166.974
524807	166.997
527837	167.019
530884	167.041
533949	167.064
537032	167.086
540132	167.109
543250	167.131
546387	167.154
549541	167.176
552713	167.199
555904	167.221
559114	167.244
562341	167.266
565588	167.289
568853	167.312
572137	167.334
575440	167.357
578762	167.38
582103	167.402
585464	167.425
588844	167.448
592243	167.471
595662	167.493
599101	167.516
602560	167.539
606038	167.562
609537	167.584
613056	167.607
616595	167.63
620155	167.653
623735	167.675
627336	167.698
630957	167.721
634600	167.744
638263	167.767
641948	167.789
645654	167.812
649382	167.835
653131	167.858
656901	167.88
660693	167.903
664508	167.926
668344	167.949
672202	167.971
676083	167.994
679986	168.017
683912	168.039
687860	168.062
691831	168.085
695825	168.107
699842	168.13
703882	168.153
707946	168.175
712033	168.198
716143	168.221
720278	168.243
724436	168.266
728618	168.288
732825	168.311
737055	168.333
741310	168.356
745590	168.378
749894	168.401
754223	168.423
758578	168.445
762957	168.468
767361	168.49
771792	168.513
776247	168.535
780728	168.557
785236	168.579
789769	168.602
794328	168.624
798914	168.646
803526	168.668
808165	168.69
812831	168.712
817523	168.734
822243	168.756
826990	168.779
831764	168.8
836566	168.822
841395	168.844
846253	168.866
851138	168.888
856052	168.91
860994	168.932
865964	168.953
870964	168.975
875992	168.997
881049	169.019
886135	169.04
891251	169.062
896396	169.083
901571	169.105
906776	169.126
912011	169.148
917276	169.169
922571	169.19
927897	169.212
933254	169.233
938642	169.254
944061	169.275
949511	169.297
954993	169.318
960506	169.339
966051	169.36
971628	169.381
977237	169.402
982879	169.423
988553	169.444
994260	169.465
1e+06	169.485
1.00577e+06	169.506
1.01158e+06	169.527
1.01742e+06	169.547
1.02329e+06	169.568
1.0292e+06	169.589
1.03514e+06	169.609
1.04112e+06	169.63
1.04713e+06	169.65
1.05317e+06	169.67
1.05925e+06	169.691
1.06537e+06	169.711
1.07152e+06	169.731
1.07771e+06	169.752
1.08393e+06	169.772
1.09018e+06	169.792
1.09648e+06	169.812
1.10281e+06	169.832
1.10917e+06	169.852
1.11558e+06	169.872
1.12202e+06	169.892
1.1285e+06	169.912
1.13501e+06	169.931
1.14156e+06	169.951
1.14815e+06	169.971
1.15478e+06	169.99
1.16145e+06	170.01
1.16815e+06	170.03
1.1749e+06	170.049
1.18168e+06	170.068
1.1885e+06	170.088
1.19536e+06	170.107
1.20226e+06	170.126
1.20921e+06	170.146
1.21619e+06	170.165
1.22321e+06	170.184
1.23027e+06	170.203
1.23737e+06	170.222
1.24451e+06	170.241
1.2517e+06	170.26
1.25893e+06	170.279
1.26619e+06	170.298
1.2735e+06	170.316
1.28086e+06	170.335
1.28825e+06	170.354
1.29569e+06	170.372
1.30317e+06	170.391
1.31069e+06	170.41
1.31826e+06	170.428
1.32587e+06	170.446
1.33352e+06	170.465
1.34122e+06	170.483
1.34896e+06	170.501
1.35675e+06	170.519
1.36458e+06	170.538
1.37246e+06	170.556
1.38038e+06	170.574
1.38835e+06	170.592
1.39637e+06	170.61
1.40443e+06	170.627
1.41254e+06	170.645
1.42069e+06	170.663
1.42889e+06	170.681
1.43714e+06	170.698
1.44544e+06	170.716
1.45378e+06	170.733
1.46218e+06	170.751
1.47062e+06	170.768
1.47911e+06	170.786
1.48765e+06	170.803
1.49624e+06	170.82
1.50487e+06	170.837
1.51356e+06	170.854
1.5223e+06	170.872
1.53109e+06	170.889
1.53993e+06	170.906
1.54882e+06	170.922
1.55776e+06	170.939
1.56675e+06	170.956
1.5758e+06	170.973
1.58489e+06	170.99
1.59404e+06	171.006
1.60325e+06	171.023
1.6125e+06	171.039
1.62181e+06	171.056
1.63117e+06	171.072
1.64059e+06	171.088
1.65006e+06	171.105
1.65959e+06	171.121
1.66917e+06	171.137
1.6788e+06	171.153
1.6885e+06	171.169
1.69824e+06	171.185
1.70805e+06	171.201
1.71791e+06	171.217
1.72783e+06	171.233
1.7378e+06	171.249
1.74783e+06	171.265
1.75792e+06	171.28
1.76807e+06	171.296
1.77828e+06	171.311
1.78855e+06	171.327
1.79887e+06	171.342
1.80926e+06	171.358
1.8197e+06	171.373
1.83021e+06	171.388
1.84077e+06	171.404
1.8514e+06	171.419
1.86209e+06	171.434
1.87284e+06	171.449
1.88365e+06	171.464
1.89452e+06	171.479
1.90546e+06	171.494
1.91646e+06	171.508
1.92752e+06	171.523
1.93865e+06	171.538
1.94984e+06	171.552
1.9611e+06	171.567
1.97242e+06	171.582
1.98381e+06	171.596
1.99526e+06	171.61
2.00678e+06	171.625
2.01837e+06	171.639
2.03002e+06	171.653
2.04174e+06	171.668
2.05353e+06	171.682
2.06538e+06	171.696
2.0773e+06	171.71
2.0893e+06	171.724
2.10136e+06	171.738
2.11349e+06	171.751
2.12569e+06	171.765
2.13796e+06	171.779
2.1503e+06	171.793
2.16272e+06	171.806
2.1752e+06	171.82
2.18776e+06	171.833
2.20039e+06	171.847
2.21309e+06	171.86
2.22587e+06	171.873
2.23872e+06	171.887
2.25165e+06	171.9
2.26464e+06	171.913
2.27772e+06	171.926
2.29087e+06	171.939
2.30409e+06	171.952
2.31739e+06	171.965
2.33077e+06	171.978
2.34423e+06	171.991
2.35776e+06	172.004
2.37137e+06	172.016
2.38506e+06	172.029
2.39883e+06	172.042
2.41268e+06	172.054
2.42661e+06	172.067
2.44062e+06	172.079
2.45471e+06	172.092
2.46888e+06	172.104
2.48313e+06	172.116
2.49747e+06	172.128
2.51189e+06	172.141
2.52639e+06	172.153
2.54097e+06	172.165
2.55564e+06	172.177
2.5704e+06	172.189
2.58523e+06	172.2
2.60016e+06	172.212
2.61517e+06	172.224
2.63027e+06	172.236
2.64545e+06	172.247
2.66073e+06	172.259
2.67609e+06	172.271
2.69153e+06	172.282
2.70707e+06	172.294
2.7227e+06	172.305
2.73842e+06	172.316
2.75423e+06	172.328
2.77013e+06	172.339
2.78612e+06	172.35
2.80221e+06	172.361
2.81838e+06	172.372
2.83465e+06	172.383
2.85102e+06	172.394
2.86748e+06	172.405
2.88403e+06	172.416
2.90068e+06	172.427
2.91743e+06	172.438
2.93427e+06	172.448
2.95121e+06	172.459
2.96825e+06	172.47
2.98538e+06	172.48
3.00262e+06	172.491
3.01995e+06	172.501
3.03739e+06	172.511
3.05492e+06	172.522
3.07256e+06	172.532
3.0903e+06	172.542
3.10814e+06	172.552
3.12608e+06	172.562
3.14413e+06	172.573
3.16228e+06	172.583
3.18053e+06	172.593
3.1989e+06	172.602
3.21736e+06	172.612
3.23594e+06	172.622
3.25462e+06	172.632
3.27341e+06	172.642
3.2923e+06	172.651
3.31131e+06	172.661
3.33043e+06	172.67
3.34965e+06	172.68
3.36899e+06	172.689
3.38844e+06	172.699
3.408e+06	172.708
3.42768e+06	172.717
3.44747e+06	172.727
3.46737e+06	172.736
3.48739e+06	172.745
3.50752e+06	172.754
3.52777e+06	172.763
3.54813e+06	172.772
3.56862e+06	172.781
3.58922e+06	172.79
3.60994e+06	172.799
3.63078e+06	172.808
3.65174e+06	172.817
3.67282e+06	172.825
3.69403e+06	172.834
3.71535e+06	172.843
3.7368e+06	172.851
3.75837e+06	172.86
3.78007e+06	172.868
3.80189e+06	172.877
3.82384e+06	172.885
3.84592e+06	172.893
3.86812e+06	172.902
3.89045e+06	172.91
3.91291e+06	172.918
3.9355e+06	172.926
3.95822e+06	172.934
3.98107e+06	172.942
4.00405e+06	172.95
4.02717e+06	172.958
4.05042e+06	172.966
4.0738e+06	172.974
4.09732e+06	172.982
4.12098e+06	172.989
4.14477e+06	172.997
4.16869e+06	173.005
4.19276e+06	173.012
4.21697e+06	173.02
4.24131e+06	173.028
4.2658e+06	173.035
4.29042e+06	173.042
4.31519e+06	173.05
4.3401e+06	173.057
4.36516e+06	173.065
4.39036e+06	173.072
4.4157e+06	173.079
4.4412e+06	173.086
4.46684e+06	173.093
4.49262e+06	173.1
4.51856e+06	173.107
4.54465e+06	173.114
4.57088e+06	173.121
4.59727e+06	173.128
4.62381e+06	173.135
4.6505e+06	173.142
4.67735e+06	173.149
4.70435e+06	173.155
4.73151e+06	173.162
4.75883e+06	173.169
4.7863e+06	173.175
4.81393e+06	173.182
4.84172e+06	173.188
4.86968e+06	173.195
4.89779e+06	173.201
4.92606e+06	173.208
4.9545e+06	173.214
4.9831e+06	173.22
5.01187e+06	173.227
5.04081e+06	173.233
5.06991e+06	173.239
5.09918e+06	173.245
5.12861e+06	173.251
5.15822e+06	173.257
5.188e+06	173.263
5.21795e+06	173.269
5.24807e+06	173.275
5.27837e+06	173.281
5.30884e+06	173.287
5.33949e+06	173.293
5.37032e+06	173.298
5.40132e+06	173.304
5.4325e+06	173.31
5.46387e+06	173.315
5.49541e+06	173.321
5.52713e+06	173.327
5.55904e+06	173.332
5.59114e+06	173.338
5.62341e+06	173.343
5.65588e+06	173.349
5.68853e+06	173.354
5.72137e+06	173.359
5.7544e+06	173.365
5.78762e+06	173.37
5.82103e+06	173.375
5.85464e+06	173.38
5.88844e+06	173.385
5.92243e+06	173.39
5.95662e+06	173.395
5.99101e+06	173.4
6.0256e+06	173.405
6.06038e+06	173.41
6.09537e+06	173.415
6.13056e+06	173.42
6.16595e+06	173.425
6.20155e+06	173.43
6.23735e+06	173.435
6.27336e+06	173.439
6.30957e+06	173.444
6.346e+06	173.449
6.38263e+06	173.453
6.41948e+06	173.458
6.45654e+06	173.462
6.49382e+06	173.467
6.53131e+06	173.471
6.56901e+06	173.476
6.60693e+06	173.48
6.64508e+06	173.485
6.68344e+06	173.489
6.72202e+06	173.493
6.76083e+06	173.498
6.79986e+06	173.502
6.83912e+06	173.506
6.8786e+06	173.51
6.91831e+06	173.514
6.95825e+06	173.518
6.99842e+06	173.522
7.03882e+06	173.527
7.07946e+06	173.53
7.12033e+06	173.534
7.16143e+06	173.538
7.20278e+06	173.542
7.24436e+06	173.546
7.28618e+06	173.55
7.32825e+06	173.554
7.37055e+06	173.558
7.4131e+06	173.561
7.4559e+06	173.565
7.49894e+06	173.569
7.54223e+06	173.572
7.58578e+06	173.576
7.62957e+06	173.579
7.67361e+06	173.583
7.71792e+06	173.587
7.76247e+06	173.59
7.80728e+06	173.593
7.85236e+06	173.597
7.89769e+06	173.6
7.94328e+06	173.604
7.98914e+06	173.607
8.03526e+06	173.61
8.08165e+06	173.614
8.12831e+06	173.617
8.17523e+06	173.62
8.22243e+06	173.623
8.2699e+06	173.626
8.31764e+06	173.629
8.36566e+06	173.632
8.41395e+06	173.636
8.46253e+06	173.639
8.51138e+06	173.642
8.56052e+06	173.645
8.60994e+06	173.647
8.65964e+06	173.65
8.70964e+06	173.653
8.75992e+06	173.656
8.81049e+06	173.659
8.86135e+06	173.662
8.91251e+06	173.665
8.96396e+06	173.667
9.01571e+06	173.67
9.06776e+06	173.673
9.12011e+06	173.675
9.17276e+06	173.678
9.22571e+06	173.681
9.27897e+06	173.683
9.33254e+06	173.686
9.38642e+06	173.688
9.44061e+06	173.691
9.49511e+06	173.693
9.54993e+06	173.696
9.60506e+06	173.698
9.66051e+06	173.701
9.71628e+06	173.703
9.77237e+06	173.705
9.82879e+06	173.708
9.88553e+06	173.71
9.9426e+06	173.712
1e+07	173.714
