Stopping power dEdx from Ionisation for triton Z = 1 in G4_Si, process name: hIoni
E [MeV]	dEdx [MeV/mm]
0.001	14.1397
0.00100577	14.1804
0.00101158	14.2213
0.00101742	14.2623
0.00102329	14.3034
0.0010292	14.3446
0.00103514	14.386
0.00104112	14.4275
0.00104713	14.469
0.00105317	14.5107
0.00105925	14.5526
0.00106537	14.5945
0.00107152	14.6366
0.00107771	14.6788
0.00108393	14.7211
0.00109018	14.7635
0.00109648	14.8061
0.00110281	14.8487
0.00110917	14.8915
0.00111558	14.9345
0.00112202	14.9775
0.0011285	15.0207
0.00113501	15.064
0.00114156	15.1074
0.00114815	15.1509
0.00115478	15.1946
0.00116145	15.2384
0.00116815	15.2823
0.0011749	15.3264
0.00118168	15.3706
0.0011885	15.4149
0.00119536	15.4593
0.00120226	15.5039
0.00120921	15.5485
0.00121619	15.5934
0.00122321	15.6383
0.00123027	15.6834
0.00123737	15.7286
0.00124451	15.7739
0.0012517	15.8194
0.00125893	15.865
0.00126619	15.9107
0.0012735	15.9566
0.00128086	16.0026
0.00128825	16.0487
0.00129569	16.095
0.00130317	16.1413
0.00131069	16.1879
0.00131826	16.2345
0.00132587	16.2813
0.00133352	16.3283
0.00134122	16.3753
0.00134896	16.4225
0.00135675	16.4699
0.00136458	16.5173
0.00137246	16.5649
0.00138038	16.6127
0.00138835	16.6606
0.00139637	16.7086
0.00140443	16.7568
0.00141254	16.8051
0.00142069	16.8535
0.00142889	16.9021
0.00143714	16.9508
0.00144544	16.9996
0.00145378	17.0486
0.00146218	17.0978
0.00147062	17.1471
0.00147911	17.1965
0.00148765	17.2461
0.00149624	17.2958
0.00150487	17.3456
0.00151356	17.3956
0.0015223	17.4458
0.00153109	17.496
0.00153993	17.5465
0.00154882	17.597
0.00155776	17.6478
0.00156675	17.6986
0.0015758	17.7497
0.00158489	17.8008
0.00159404	17.8521
0.00160325	17.9036
0.0016125	17.9552
0.00162181	18.0069
0.00163117	18.0588
0.00164059	18.1109
0.00165006	18.1631
0.00165959	18.2154
0.00166917	18.268
0.0016788	18.3206
0.0016885	18.3734
0.00169824	18.4264
0.00170805	18.4795
0.00171791	18.5327
0.00172783	18.5862
0.0017378	18.6397
0.00174783	18.6935
0.00175792	18.7473
0.00176807	18.8014
0.00177828	18.8556
0.00178855	18.9099
0.00179887	18.9644
0.00180926	19.0191
0.0018197	19.0739
0.00183021	19.1289
0.00184077	19.184
0.0018514	19.2393
0.00186209	19.2948
0.00187284	19.3504
0.00188365	19.4062
0.00189452	19.4621
0.00190546	19.5182
0.00191646	19.5745
0.00192752	19.6309
0.00193865	19.6875
0.00194984	19.7442
0.0019611	19.8011
0.00197242	19.8582
0.00198381	19.9154
0.00199526	19.9728
0.00200678	20.0304
0.00201837	20.0881
0.00203002	20.146
0.00204174	20.2041
0.00205353	20.2624
0.00206538	20.3208
0.0020773	20.3793
0.0020893	20.4381
0.00210136	20.497
0.00211349	20.5561
0.00212569	20.6153
0.00213796	20.6747
0.0021503	20.7343
0.00216272	20.7941
0.0021752	20.854
0.00218776	20.9141
0.00220039	20.9744
0.00221309	21.0349
0.00222587	21.0955
0.00223872	21.1563
0.00225165	21.2173
0.00226464	21.2784
0.00227772	21.3398
0.00229087	21.4013
0.00230409	21.463
0.00231739	21.5248
0.00233077	21.5869
0.00234423	21.6491
0.00235776	21.7115
0.00237137	21.7741
0.00238506	21.8368
0.00239883	21.8998
0.00241268	21.9629
0.00242661	22.0262
0.00244062	22.0897
0.00245471	22.1534
0.00246888	22.2172
0.00248313	22.2813
0.00249747	22.3455
0.00251189	22.4099
0.00252639	22.4745
0.00254097	22.5393
0.00255564	22.6042
0.0025704	22.6694
0.00258523	22.7347
0.00260016	22.8003
0.00261517	22.866
0.00263027	22.9319
0.00264545	22.998
0.00266073	23.0643
0.00267609	23.1308
0.00269153	23.1974
0.00270707	23.2643
0.0027227	23.3313
0.00273842	23.3986
0.00275423	23.466
0.00277013	23.5337
0.00278612	23.6015
0.00280221	23.6695
0.00281838	23.7378
0.00283465	23.8062
0.00285102	23.8748
0.00286748	23.9436
0.00288403	24.0126
0.00290068	24.0818
0.00291743	24.1513
0.00293427	24.2209
0.00295121	24.2907
0.00296825	24.3607
0.00298538	24.4309
0.00300262	24.4965
0.00301995	24.558
0.00303739	24.62
0.00305492	24.6823
0.00307256	24.7452
0.0030903	24.8084
0.00310814	24.8721
0.00312608	24.9362
0.00314413	25.0008
0.00316228	25.0658
0.00318053	25.1313
0.0031989	25.1972
0.00321736	25.2636
0.00323594	25.3305
0.00325462	25.3978
0.00327341	25.4656
0.0032923	25.5338
0.00331131	25.6026
0.00333043	25.6718
0.00334965	25.7414
0.00336899	25.8116
0.00338844	25.8822
0.003408	25.9533
0.00342768	26.0249
0.00344747	26.0969
0.00346737	26.1695
0.00348739	26.2425
0.00350752	26.3161
0.00352777	26.3901
0.00354813	26.4646
0.00356862	26.5397
0.00358922	26.6152
0.00360994	26.6912
0.00363078	26.7678
0.00365174	26.8448
0.00367282	26.9224
0.00369403	27.0004
0.00371535	27.079
0.0037368	27.1581
0.00375837	27.2377
0.00378007	27.3179
0.00380189	27.3985
0.00382384	27.4797
0.00384592	27.5614
0.00386812	27.6436
0.00389045	27.7264
0.00391291	27.8097
0.0039355	27.8935
0.00395822	27.9779
0.00398107	28.0628
0.00400405	28.1482
0.00402717	28.2342
0.00405042	28.3207
0.0040738	28.4077
0.00409732	28.4953
0.00412098	28.5834
0.00414477	28.6721
0.00416869	28.7613
0.00419276	28.8511
0.00421697	28.9414
0.00424131	29.0323
0.0042658	29.1237
0.00429042	29.2157
0.00431519	29.3082
0.0043401	29.4013
0.00436516	29.495
0.00439036	29.5891
0.0044157	29.6839
0.0044412	29.7792
0.00446684	29.875
0.00449262	29.9703
0.00451856	30.0523
0.00454465	30.1348
0.00457088	30.2178
0.00459727	30.3012
0.00462381	30.3851
0.0046505	30.4695
0.00467735	30.5543
0.00470435	30.6396
0.00473151	30.7254
0.00475883	30.8117
0.0047863	30.8984
0.00481393	30.9855
0.00484172	31.0731
0.00486968	31.1612
0.00489779	31.2498
0.00492606	31.3387
0.0049545	31.4282
0.0049831	31.5181
0.00501187	31.6084
0.00504081	31.6992
0.00506991	31.7904
0.00509918	31.8821
0.00512861	31.9742
0.00515822	32.0668
0.005188	32.1597
0.00521795	32.2531
0.00524807	32.347
0.00527837	32.4412
0.00530884	32.5359
0.00533949	32.6309
0.00537032	32.7264
0.00540132	32.8223
0.0054325	32.9186
0.00546387	33.0153
0.00549541	33.1124
0.00552713	33.2098
0.00555904	33.3076
0.00559114	33.4059
0.00562341	33.5044
0.00565588	33.6034
0.00568853	33.7027
0.00572137	33.8023
0.0057544	33.9023
0.00578762	34.0026
0.00582103	34.1032
0.00585464	34.2042
0.00588844	34.3055
0.00592243	34.4071
0.00595662	34.5089
0.00599101	34.6108
0.0060256	34.7108
0.00606038	34.811
0.00609537	34.9115
0.00613056	35.0122
0.00616595	35.1133
0.00620155	35.2145
0.00623735	35.3161
0.00627336	35.4179
0.00630957	35.52
0.006346	35.6224
0.00638263	35.725
0.00641948	35.8279
0.00645654	35.9311
0.00649382	36.0346
0.00653131	36.1383
0.00656901	36.2423
0.00660693	36.3466
0.00664508	36.4512
0.00668344	36.5561
0.00672202	36.6612
0.00676083	36.7666
0.00679986	36.8724
0.00683912	36.9784
0.0068786	37.0847
0.00691831	37.1913
0.00695825	37.2981
0.00699842	37.4053
0.00703882	37.5128
0.00707946	37.6206
0.00712033	37.7287
0.00716143	37.8371
0.00720278	37.9458
0.00724436	38.0548
0.00728618	38.1642
0.00732825	38.2738
0.00737055	38.3838
0.0074131	38.4941
0.0074559	38.6048
0.00749894	38.7157
0.00754223	38.8267
0.00758578	38.9382
0.00762957	39.0499
0.00767361	39.162
0.00771792	39.2744
0.00776247	39.3872
0.00780728	39.5003
0.00785236	39.6137
0.00789769	39.7275
0.00794328	39.8416
0.00798914	39.956
0.00803526	40.0708
0.00808165	40.186
0.00812831	40.3015
0.00817523	40.4173
0.00822243	40.5335
0.0082699	40.65
0.00831764	40.7669
0.00836566	40.8841
0.00841395	41.0017
0.00846253	41.1196
0.00851138	41.2379
0.00856052	41.3566
0.00860994	41.4756
0.00865964	41.5949
0.00870964	41.7147
0.00875992	41.8348
0.00881049	41.9552
0.00886135	42.0761
0.00891251	42.1973
0.00896396	42.3189
0.00901571	42.4408
0.00906776	42.5632
0.00912011	42.686
0.00917276	42.8091
0.00922571	42.9326
0.00927897	43.0565
0.00933254	43.1808
0.00938642	43.3054
0.00944061	43.4304
0.00949511	43.5558
0.00954993	43.6816
0.00960506	43.8078
0.00966051	43.9343
0.00971628	44.0612
0.00977237	44.1885
0.00982879	44.3162
0.00988553	44.4442
0.0099426	44.5727
0.01	44.7015
0.0100577	44.8307
0.0101158	44.9602
0.0101742	45.0902
0.0102329	45.2205
0.010292	45.3513
0.0103514	45.4824
0.0104112	45.6138
0.0104713	45.7457
0.0105317	45.878
0.0105925	46.0106
0.0106537	46.1436
0.0107152	46.2771
0.0107771	46.4109
0.0108393	46.545
0.0109018	46.6796
0.0109648	46.8146
0.0110281	46.9499
0.0110917	47.0857
0.0111558	47.2218
0.0112202	47.3584
0.011285	47.4953
0.0113501	47.6326
0.0114156	47.7703
0.0114815	47.9084
0.0115478	48.0469
0.0116145	48.1859
0.0116815	48.3252
0.011749	48.4649
0.0118168	48.605
0.011885	48.7455
0.0119536	48.8865
0.0120226	49.0276
0.0120921	49.1691
0.0121619	49.3111
0.0122321	49.4534
0.0123027	49.5961
0.0123737	49.7393
0.0124451	49.8828
0.012517	50.0268
0.0125893	50.1712
0.0126619	50.3159
0.012735	50.4611
0.0128086	50.6067
0.0128825	50.7528
0.0129569	50.8992
0.0130317	51.046
0.0131069	51.1933
0.0131826	51.341
0.0132587	51.4891
0.0133352	51.6376
0.0134122	51.7865
0.0134896	51.9359
0.0135675	52.0856
0.0136458	52.2358
0.0137246	52.3864
0.0138038	52.5375
0.0138835	52.6889
0.0139637	52.8408
0.0140443	52.9931
0.0141254	53.1458
0.0142069	53.299
0.0142889	53.4526
0.0143714	53.6066
0.0144544	53.7611
0.0145378	53.916
0.0146218	54.0713
0.0147062	54.2271
0.0147911	54.3833
0.0148765	54.5399
0.0149624	54.697
0.0150487	54.8547
0.0151356	55.0127
0.015223	55.1713
0.0153109	55.3303
0.0153993	55.4897
0.0154882	55.6496
0.0155776	55.8099
0.0156675	55.9707
0.015758	56.132
0.0158489	56.2937
0.0159404	56.4559
0.0160325	56.6185
0.016125	56.7816
0.0162181	56.9452
0.0163117	57.1092
0.0164059	57.2737
0.0165006	57.4387
0.0165959	57.6042
0.0166917	57.7701
0.016788	57.9365
0.016885	58.1034
0.0169824	58.2707
0.0170805	58.4386
0.0171791	58.6069
0.0172783	58.7758
0.017378	58.9451
0.0174783	59.1149
0.0175792	59.2853
0.0176807	59.4561
0.0177828	59.6274
0.0178855	59.7993
0.0179887	59.9716
0.0180926	60.1445
0.018197	60.3179
0.0183021	60.4918
0.0184077	60.6663
0.018514	60.8412
0.0186209	61.0166
0.0187284	61.1926
0.0188365	61.3691
0.0189452	61.546
0.0190546	61.7235
0.0191646	61.9015
0.0192752	62.08
0.0193865	62.2589
0.0194984	62.4384
0.019611	62.6184
0.0197242	62.7988
0.0198381	62.9798
0.0199526	63.1612
0.0200678	63.3432
0.0201837	63.5256
0.0203002	63.7085
0.0204174	63.8919
0.0205353	64.0757
0.0206538	64.2601
0.020773	64.4449
0.020893	64.6302
0.0210136	64.816
0.0211349	65.0022
0.0212569	65.1889
0.0213796	65.3761
0.021503	65.5638
0.0216272	65.752
0.021752	65.9407
0.0218776	66.1299
0.0220039	66.3196
0.0221309	66.5099
0.0222587	66.7007
0.0223872	66.892
0.0225165	67.0839
0.0226464	67.2763
0.0227772	67.4693
0.0229087	67.6628
0.0230409	67.857
0.0231739	68.0517
0.0233077	68.2471
0.0234423	68.4431
0.0235776	68.6396
0.0237137	68.8369
0.0238506	69.0348
0.0239883	69.2333
0.0241268	69.4325
0.0242661	69.6324
0.0244062	69.833
0.0245471	70.0343
0.0246888	70.2362
0.0248313	70.4389
0.0249747	70.6423
0.0251189	70.8465
0.0252639	71.0513
0.0254097	71.2569
0.0255564	71.4633
0.025704	71.6704
0.0258523	71.8783
0.0260016	72.087
0.0261517	72.2965
0.0263027	72.5068
0.0264545	72.7179
0.0266073	72.9298
0.0267609	73.1426
0.0269153	73.3562
0.0270707	73.5706
0.027227	73.7859
0.0273842	74.0019
0.0275423	74.2184
0.0277013	74.4355
0.0278612	74.653
0.0280221	74.8708
0.0281838	75.0888
0.0283465	75.3069
0.0285102	75.5249
0.0286748	75.7429
0.0288403	75.9605
0.0290068	76.1777
0.0291743	76.3944
0.0293427	76.6105
0.0295121	76.8257
0.0296825	77.04
0.0298538	77.2532
0.0300262	77.4652
0.0301995	77.6759
0.0303739	77.8854
0.0305492	78.0936
0.0307256	78.3005
0.030903	78.5062
0.0310814	78.7108
0.0312608	78.9142
0.0314413	79.1165
0.0316228	79.3176
0.0318053	79.5177
0.031989	79.7168
0.0321736	79.915
0.0323594	80.1121
0.0325462	80.3084
0.0327341	80.5039
0.032923	80.6985
0.0331131	80.8924
0.0333043	81.0856
0.0334965	81.2781
0.0336899	81.47
0.0338844	81.6614
0.03408	81.8523
0.0342768	82.0429
0.0344747	82.233
0.0346737	82.4229
0.0348739	82.6126
0.0350752	82.8022
0.0352777	82.9917
0.0354813	83.1813
0.0356862	83.371
0.0358922	83.5608
0.0360994	83.751
0.0363078	83.9415
0.0365174	84.1325
0.0367282	84.3241
0.0369403	84.5164
0.0371535	84.7095
0.037368	84.9035
0.0375837	85.0974
0.0378007	85.292
0.0380189	85.4876
0.0382384	85.6842
0.0384592	85.8817
0.0386812	86.0802
0.0389045	86.2796
0.0391291	86.4799
0.039355	86.681
0.0395822	86.883
0.0398107	87.0857
0.0400405	87.2893
0.0402717	87.4936
0.0405042	87.6986
0.040738	87.9043
0.0409732	88.1107
0.0412098	88.3176
0.0414477	88.5252
0.0416869	88.7333
0.0419276	88.9419
0.0421697	89.151
0.0424131	89.3605
0.042658	89.5704
0.0429042	89.7806
0.0431519	89.9912
0.043401	90.2019
0.0436516	90.4129
0.0439036	90.6241
0.044157	90.8353
0.044412	91.0467
0.0446684	91.258
0.0449262	91.4692
0.0451856	91.6804
0.0454465	91.8916
0.0457088	92.1026
0.0459727	92.3135
0.0462381	92.5243
0.046505	92.7351
0.0467735	92.9457
0.0470435	93.1563
0.0473151	93.3668
0.0475883	93.5773
0.047863	93.7877
0.0481393	93.998
0.0484172	94.2083
0.0486968	94.4186
0.0489779	94.6289
0.0492606	94.8391
0.049545	95.0493
0.049831	95.2596
0.0501187	95.4699
0.0504081	95.6802
0.0506991	95.8905
0.0509918	96.101
0.0512861	96.3115
0.0515822	96.522
0.05188	96.7327
0.0521795	96.9435
0.0524807	97.1545
0.0527837	97.3656
0.0530884	97.5769
0.0533949	97.7883
0.0537032	97.9998
0.0540132	98.2115
0.054325	98.4232
0.0546387	98.635
0.0549541	98.847
0.0552713	99.059
0.0555904	99.271
0.0559114	99.4832
0.0562341	99.6954
0.0565588	99.9076
0.0568853	100.12
0.0572137	100.332
0.057544	100.544
0.0578762	100.757
0.0582103	100.969
0.0585464	101.181
0.0588844	101.393
0.0592243	101.605
0.0595662	101.817
0.0599101	102.029
0.060256	102.241
0.0606038	102.453
0.0609537	102.665
0.0613056	102.876
0.0616595	103.088
0.0620155	103.299
0.0623735	103.511
0.0627336	103.722
0.0630957	103.933
0.06346	104.144
0.0638263	104.354
0.0641948	104.565
0.0645654	104.775
0.0649382	104.986
0.0653131	105.196
0.0656901	105.406
0.0660693	105.615
0.0664508	105.825
0.0668344	106.034
0.0672202	106.243
0.0676083	106.452
0.0679986	106.661
0.0683912	106.869
0.068786	107.078
0.0691831	107.286
0.0695825	107.493
0.0699842	107.701
0.0703882	107.908
0.0707946	108.115
0.0712033	108.321
0.0716143	108.527
0.0720278	108.733
0.0724436	108.938
0.0728618	109.143
0.0732825	109.348
0.0737055	109.552
0.074131	109.755
0.074559	109.959
0.0749894	110.161
0.0754223	110.363
0.0758578	110.565
0.0762957	110.766
0.0767361	110.967
0.0771792	111.167
0.0776247	111.367
0.0780728	111.566
0.0785236	111.764
0.0789769	111.963
0.0794328	112.16
0.0798914	112.357
0.0803526	112.554
0.0808165	112.75
0.0812831	112.946
0.0817523	113.141
0.0822243	113.336
0.082699	113.53
0.0831764	113.723
0.0836566	113.917
0.0841395	114.109
0.0846253	114.301
0.0851138	114.493
0.0856052	114.684
0.0860994	114.874
0.0865964	115.063
0.0870964	115.252
0.0875992	115.44
0.0881049	115.627
0.0886135	115.813
0.0891251	115.998
0.0896396	116.183
0.0901571	116.366
0.0906776	116.549
0.0912011	116.73
0.0917276	116.911
0.0922571	117.09
0.0927897	117.269
0.0933254	117.446
0.0938642	117.623
0.0944061	117.798
0.0949511	117.972
0.0954993	118.146
0.0960506	118.318
0.0966051	118.489
0.0971628	118.659
0.0977237	118.828
0.0982879	118.996
0.0988553	119.163
0.099426	119.329
0.1	119.493
0.100577	119.657
0.101158	119.819
0.101742	119.98
0.102329	120.14
0.10292	120.299
0.103514	120.457
0.104112	120.614
0.104713	120.77
0.105317	120.924
0.105925	121.077
0.106537	121.228
0.107152	121.379
0.107771	121.528
0.108393	121.676
0.109018	121.823
0.109648	121.968
0.110281	122.113
0.110917	122.256
0.111558	122.397
0.112202	122.538
0.11285	122.677
0.113501	122.814
0.114156	122.951
0.114815	123.085
0.115478	123.219
0.116145	123.351
0.116815	123.481
0.11749	123.61
0.118168	123.738
0.11885	123.864
0.119536	123.988
0.120226	124.111
0.120921	124.232
0.121619	124.352
0.122321	124.47
0.123027	124.587
0.123737	124.702
0.124451	124.815
0.12517	124.926
0.125893	125.036
0.126619	125.144
0.12735	125.25
0.128086	125.355
0.128825	125.457
0.129569	125.558
0.130317	125.657
0.131069	125.755
0.131826	125.85
0.132587	125.944
0.133352	126.035
0.134122	126.125
0.134896	126.213
0.135675	126.299
0.136458	126.383
0.137246	126.465
0.138038	126.545
0.138835	126.623
0.139637	126.699
0.140443	126.773
0.141254	126.845
0.142069	126.915
0.142889	126.983
0.143714	127.048
0.144544	127.112
0.145378	127.173
0.146218	127.232
0.147062	127.289
0.147911	127.344
0.148765	127.397
0.149624	127.447
0.150487	127.496
0.151356	127.542
0.15223	127.585
0.153109	127.627
0.153993	127.666
0.154882	127.703
0.155776	127.738
0.156675	127.771
0.15758	127.801
0.158489	127.83
0.159404	127.856
0.160325	127.88
0.16125	127.902
0.162181	127.922
0.163117	127.939
0.164059	127.955
0.165006	127.968
0.165959	127.98
0.166917	127.989
0.16788	127.996
0.16885	128.002
0.169824	128.005
0.170805	128.005
0.171791	128.004
0.172783	128.001
0.17378	127.995
0.174783	127.987
0.175792	127.976
0.176807	127.964
0.177828	127.949
0.178855	127.931
0.179887	127.912
0.180926	127.89
0.18197	127.865
0.183021	127.838
0.184077	127.809
0.18514	127.778
0.186209	127.744
0.187284	127.707
0.188365	127.668
0.189452	127.627
0.190546	127.584
0.191646	127.538
0.192752	127.489
0.193865	127.439
0.194984	127.386
0.19611	127.33
0.197242	127.272
0.198381	127.212
0.199526	127.149
0.200678	127.084
0.201837	127.017
0.203002	126.947
0.204174	126.875
0.205353	126.8
0.206538	126.724
0.20773	126.644
0.20893	126.563
0.210136	126.479
0.211349	126.392
0.212569	126.304
0.213796	126.213
0.21503	126.12
0.216272	126.025
0.21752	125.927
0.218776	125.828
0.220039	125.726
0.221309	125.623
0.222587	125.517
0.223872	125.409
0.225165	125.3
0.226464	125.189
0.227772	125.076
0.229087	124.961
0.230409	124.844
0.231739	124.725
0.233077	124.603
0.234423	124.48
0.235776	124.355
0.237137	124.227
0.238506	124.097
0.239883	123.965
0.241268	123.831
0.242661	123.694
0.244062	123.556
0.245471	123.415
0.246888	123.272
0.248313	123.127
0.249747	122.979
0.251189	122.83
0.252639	122.68
0.254097	122.527
0.255564	122.372
0.25704	122.216
0.258523	122.059
0.260016	121.899
0.261517	121.738
0.263027	121.576
0.264545	121.412
0.266073	121.246
0.267609	121.079
0.269153	120.911
0.270707	120.741
0.27227	120.57
0.273842	120.398
0.275423	120.224
0.277013	120.049
0.278612	119.872
0.280221	119.693
0.281838	119.513
0.283465	119.331
0.285102	119.148
0.286748	118.962
0.288403	118.775
0.290068	118.586
0.291743	118.396
0.293427	118.204
0.295121	118.011
0.296825	117.816
0.298538	117.62
0.300262	117.424
0.301995	117.226
0.303739	117.027
0.305492	116.827
0.307256	116.626
0.30903	116.423
0.310814	116.22
0.312608	116.016
0.314413	115.811
0.316228	115.605
0.318053	115.397
0.31989	115.189
0.321736	114.98
0.323594	114.77
0.325462	114.559
0.327341	114.347
0.32923	114.134
0.331131	113.921
0.333043	113.706
0.334965	113.491
0.336899	113.274
0.338844	113.057
0.3408	112.839
0.342768	112.621
0.344747	112.401
0.346737	112.181
0.348739	111.96
0.350752	111.739
0.352777	111.517
0.354813	111.294
0.356862	111.07
0.358922	110.846
0.360994	110.622
0.363078	110.396
0.365174	110.171
0.367282	109.945
0.369403	109.718
0.371535	109.491
0.37368	109.264
0.375837	109.036
0.378007	108.808
0.380189	108.58
0.382384	108.352
0.384592	108.123
0.386812	107.894
0.389045	107.665
0.391291	107.435
0.39355	107.206
0.395822	106.976
0.398107	106.745
0.400405	106.515
0.402717	106.284
0.405042	106.053
0.40738	105.822
0.409732	105.591
0.412098	105.359
0.414477	105.127
0.416869	104.895
0.419276	104.663
0.421697	104.431
0.424131	104.199
0.42658	103.967
0.429042	103.734
0.431519	103.502
0.43401	103.269
0.436516	103.036
0.439036	102.804
0.44157	102.571
0.44412	102.338
0.446684	102.105
0.449262	101.872
0.451856	101.639
0.454465	101.406
0.457088	101.173
0.459727	100.94
0.462381	100.707
0.46505	100.474
0.467735	100.242
0.470435	100.009
0.473151	99.7765
0.475883	99.544
0.47863	99.3118
0.481393	99.0796
0.484172	98.8477
0.486968	98.6159
0.489779	98.3842
0.492606	98.1528
0.49545	97.9217
0.49831	97.6907
0.501187	97.46
0.504081	97.2295
0.506991	96.9993
0.509918	96.7694
0.512861	96.5398
0.515822	96.3105
0.5188	96.0815
0.521795	95.8528
0.524807	95.6245
0.527837	95.3966
0.530884	95.169
0.533949	94.9418
0.537032	94.7149
0.540132	94.4884
0.54325	94.2623
0.546387	94.0366
0.549541	93.8112
0.552713	93.5862
0.555904	93.3616
0.559114	93.1373
0.562341	92.9134
0.565588	92.6899
0.568853	92.4668
0.572137	92.244
0.57544	92.0216
0.578762	91.7995
0.582103	91.5778
0.585464	91.3565
0.588844	91.1355
0.592243	90.9148
0.595662	90.6944
0.599101	90.4744
0.60256	90.2547
0.606038	90.0353
0.609537	89.8163
0.613056	89.5975
0.616595	89.3791
0.620155	89.1611
0.623735	88.9434
0.627336	88.726
0.630957	88.5091
0.6346	88.2924
0.638263	88.0761
0.641948	87.8602
0.645654	87.6447
0.649382	87.4295
0.653131	87.2147
0.656901	87.0002
0.660693	86.7862
0.664508	86.5725
0.668344	86.3591
0.672202	86.1462
0.676083	85.9336
0.679986	85.7214
0.683912	85.5096
0.68786	85.2982
0.691831	85.0872
0.695825	84.8766
0.699842	84.6665
0.703882	84.4567
0.707946	84.2474
0.712033	84.0385
0.716143	83.8301
0.720278	83.6221
0.724436	83.4146
0.728618	83.2076
0.732825	83.001
0.737055	82.7949
0.74131	82.5893
0.74559	82.3842
0.749894	82.1795
0.754223	81.9754
0.758578	81.7718
0.762957	81.5686
0.767361	81.3659
0.771792	81.1636
0.776247	80.9617
0.780728	80.7602
0.785236	80.559
0.789769	80.3582
0.794328	80.1578
0.798914	79.9576
0.803526	79.7577
0.808165	79.5581
0.812831	79.3587
0.817523	79.1594
0.822243	78.9604
0.82699	78.7614
0.831764	78.5626
0.836566	78.364
0.841395	78.1655
0.846253	77.9672
0.851138	77.7691
0.856052	77.5713
0.860994	77.3737
0.865964	77.1764
0.870964	76.9794
0.875992	76.7827
0.881049	76.5863
0.886135	76.3903
0.891251	76.1947
0.896396	75.9996
0.901571	75.8047
0.906776	75.6103
0.912011	75.4164
0.917276	75.2229
0.922571	75.0298
0.927897	74.8371
0.933254	74.6449
0.938642	74.4531
0.944061	74.2617
0.949511	74.0707
0.954993	73.8801
0.960506	73.6899
0.966051	73.5
0.971628	73.3106
0.977237	73.1215
0.982879	72.9328
0.988553	72.7444
0.99426	72.5563
1	72.3685
1.00577	72.1811
1.01158	71.9939
1.01742	71.807
1.02329	71.6204
1.0292	71.434
1.03514	71.2478
1.04112	71.0618
1.04713	70.876
1.05317	70.6908
1.05925	70.5058
1.06537	70.321
1.07152	70.1364
1.07771	69.952
1.08393	69.7677
1.09018	69.5836
1.09648	69.3998
1.10281	69.2161
1.10917	69.0327
1.11558	68.8495
1.12202	68.6665
1.1285	68.4838
1.13501	68.3013
1.14156	68.119
1.14815	67.937
1.15478	67.7552
1.16145	67.5737
1.16815	67.3924
1.1749	67.2115
1.18168	67.0308
1.1885	66.8503
1.19536	66.6702
1.20226	66.4902
1.20921	66.3105
1.21619	66.1311
1.22321	65.9519
1.23027	65.773
1.23737	65.5943
1.24451	65.4159
1.2517	65.2378
1.25893	65.0599
1.26619	64.8822
1.2735	64.7047
1.28086	64.5274
1.28825	64.3504
1.29569	64.1735
1.30317	63.9968
1.31069	63.8202
1.31826	63.6438
1.32587	63.4675
1.33352	63.2914
1.34122	63.1153
1.34896	62.9393
1.35675	62.7634
1.36458	62.5876
1.37246	62.412
1.38038	62.2365
1.38835	62.0613
1.39637	61.8863
1.40443	61.7116
1.41254	61.5373
1.42069	61.3634
1.42889	61.1899
1.43714	61.0169
1.44544	60.8444
1.45378	60.6725
1.46218	60.5012
1.47062	60.3306
1.47911	60.1607
1.48765	59.9915
1.49624	59.8232
1.50487	59.6558
1.51356	59.4892
1.5223	59.3235
1.53109	59.1586
1.53993	58.9945
1.54882	58.8311
1.55776	58.6684
1.56675	58.5065
1.5758	58.3451
1.58489	58.1844
1.59404	58.0243
1.60325	57.8647
1.6125	57.7056
1.62181	57.547
1.63117	57.3887
1.64059	57.2308
1.65006	57.0732
1.65959	56.9159
1.66917	56.7589
1.6788	56.6021
1.6885	56.4456
1.69824	56.2893
1.70805	56.1333
1.71791	55.9775
1.72783	55.822
1.7378	55.6666
1.74783	55.5115
1.75792	55.3566
1.76807	55.202
1.77828	55.0474
1.78855	54.8931
1.79887	54.739
1.80926	54.585
1.8197	54.4311
1.83021	54.2773
1.84077	54.1236
1.8514	53.9698
1.86209	53.8161
1.87284	53.6623
1.88365	53.5084
1.89452	53.3543
1.90546	53.2
1.91646	53.0456
1.92752	52.8908
1.93865	52.7357
1.94984	52.5802
1.9611	52.4243
1.97242	52.268
1.98381	52.1113
1.99526	51.9544
2.00678	51.7971
2.01837	51.6396
2.03002	51.4818
2.04174	51.3238
2.05353	51.1657
2.06538	51.0074
2.0773	50.849
2.0893	50.6906
2.10136	50.5321
2.11349	50.3736
2.12569	50.215
2.13796	50.0564
2.1503	49.8976
2.16272	49.7386
2.1752	49.5795
2.18776	49.4201
2.20039	49.2604
2.21309	49.1003
2.22587	48.9399
2.23872	48.779
2.25165	48.6177
2.26464	48.4558
2.27772	48.2935
2.29087	48.1306
2.30409	47.9672
2.31739	47.8034
2.33077	47.639
2.34423	47.4741
2.35776	47.3087
2.37137	47.1428
2.38506	46.9765
2.39883	46.8096
2.41268	46.6423
2.42661	46.4747
2.44062	46.3071
2.45471	46.1396
2.46888	45.9724
2.48313	45.8058
2.49747	45.64
2.51189	45.4751
2.52639	45.3115
2.54097	45.1494
2.55564	44.9889
2.5704	44.8302
2.58523	44.6729
2.60016	44.5169
2.61517	44.3621
2.63027	44.2083
2.64545	44.0552
2.66073	43.9027
2.67609	43.7506
2.69153	43.5986
2.70707	43.4465
2.7227	43.2944
2.73842	43.1423
2.75423	42.9903
2.77013	42.8385
2.78612	42.687
2.80221	42.536
2.81838	42.3854
2.83465	42.2354
2.85102	42.0862
2.86748	41.9377
2.88403	41.7899
2.90068	41.6427
2.91743	41.4962
2.93427	41.3502
2.95121	41.2047
2.96825	41.0596
2.98538	40.9149
3.00262	40.7704
3.01995	40.6261
3.03739	40.4821
3.05492	40.3384
3.07256	40.195
3.0903	40.0519
3.10814	39.9091
3.12608	39.7666
3.14413	39.6244
3.16228	39.4825
3.18053	39.341
3.1989	39.1997
3.21736	39.0588
3.23594	38.9182
3.25462	38.7779
3.27341	38.638
3.2923	38.4984
3.31131	38.3592
3.33043	38.2203
3.34965	38.0818
3.36899	37.9436
3.38844	37.8058
3.408	37.6683
3.42768	37.5312
3.44747	37.3945
3.46737	37.2581
3.48739	37.1221
3.50752	36.9864
3.52777	36.8511
3.54813	36.7162
3.56862	36.5817
3.58922	36.4475
3.60994	36.3137
3.63078	36.1802
3.65174	36.0472
3.67282	35.9145
3.69403	35.7821
3.71535	35.6501
3.7368	35.5185
3.75837	35.3882
3.78007	35.2585
3.80189	35.1292
3.82384	35.0002
3.84592	34.8716
3.86812	34.7434
3.89045	34.6156
3.91291	34.4881
3.9355	34.3611
3.95822	34.2344
3.98107	34.108
4.00405	33.9821
4.02717	33.8565
4.05042	33.7313
4.0738	33.6065
4.09732	33.482
4.12098	33.3579
4.14477	33.2342
4.16869	33.1109
4.19276	32.9879
4.21697	32.8653
4.24131	32.743
4.2658	32.6211
4.29042	32.4995
4.31519	32.3783
4.3401	32.2574
4.36516	32.1368
4.39036	32.0166
4.4157	31.8967
4.4412	31.7771
4.46684	31.6578
4.49262	31.5388
4.51856	31.4197
4.54465	31.3009
4.57088	31.1824
4.59727	31.0643
4.62381	30.9464
4.6505	30.8288
4.67735	30.7116
4.70435	30.5947
4.73151	30.4781
4.75883	30.3618
4.7863	30.2459
4.81393	30.1303
4.84172	30.015
4.86968	29.9001
4.89779	29.7856
4.92606	29.6714
4.9545	29.5575
4.9831	29.4441
5.01187	29.3309
5.04081	29.2182
5.06991	29.1058
5.09918	28.9938
5.12861	28.8822
5.15822	28.771
5.188	28.6601
5.21795	28.5496
5.24807	28.4396
5.27837	28.3299
5.30884	28.2206
5.33949	28.1116
5.37032	28.0031
5.40132	27.895
5.4325	27.7873
5.46387	27.6799
5.49541	27.573
5.52713	27.4664
5.55904	27.3603
5.59114	27.2545
5.62341	27.1492
5.65588	27.0442
5.68853	26.9396
5.72137	26.8354
5.7544	26.7316
5.78762	26.6282
5.82103	26.5252
5.85464	26.4225
5.88844	26.3203
5.92243	26.2183
5.95662	26.1168
5.99101	26.0261
6.0256	26.0261
6.06038	26.0261
6.09537	26.0261
6.13056	26.0261
6.16595	26.0261
6.20155	26.0261
6.23735	26.0261
6.27336	26.0261
6.30957	26.0261
6.346	26.0261
6.38263	26.0261
6.41948	26.0261
6.45654	26.0261
6.49382	26.0261
6.53131	26.0261
6.56901	26.0261
6.60693	26.0261
6.64508	26.0261
6.68344	26.0261
6.72202	26.0261
6.76083	26.0261
6.79986	26.0261
6.83912	26.0261
6.8786	26.0261
6.91831	26.0261
6.95825	26.0261
6.99842	26.0261
7.03882	26.0261
7.07946	26.0261
7.12033	26.0261
7.16143	26.0261
7.20278	26.0261
7.24436	26.0261
7.28618	26.0261
7.32825	26.0261
7.37055	26.0261
7.4131	26.0261
7.4559	26.0261
7.49894	26.0261
7.54223	26.0261
7.58578	26.0261
7.62957	26.0261
7.67361	26.0261
7.71792	26.0261
7.76247	26.0261
7.80728	26.0261
7.85236	26.0261
7.89769	26.0261
7.94328	26.0261
7.98914	26.0261
8.03526	26.0261
8.08165	26.0261
8.12831	26.0261
8.17523	26.0261
8.22243	26.0261
8.2699	26.0261
8.31764	26.0261
8.36566	26.0261
8.41395	26.0261
8.46253	26.0261
8.51138	26.0261
8.56052	26.0261
8.60994	26.0261
8.65964	26.0261
8.70964	26.0261
8.75992	26.0261
8.81049	26.0261
8.86135	26.0261
8.91251	26.0261
8.96396	26.0261
9.01571	26.0261
9.06776	26.0261
9.12011	26.0261
9.17276	26.0261
9.22571	26.0261
9.27897	26.0261
9.33254	26.0261
9.38642	26.0261
9.44061	26.0261
9.49511	26.0261
9.54993	26.0261
9.60506	26.0261
9.66051	26.0261
9.71628	26.0261
9.77237	26.0261
9.82879	26.0261
9.88553	26.0261
9.9426	26.0261
10	26.0261
10.0577	26.0261
10.1158	26.0261
10.1742	26.0261
10.2329	26.0261
10.292	26.0261
10.3514	26.0261
10.4112	26.0261
10.4713	26.0261
10.5317	26.0261
10.5925	26.0261
10.6537	26.0261
10.7152	26.0261
10.7771	26.0261
10.8393	26.0261
10.9018	26.0261
10.9648	26.0261
11.0281	26.0261
11.0917	26.0261
11.1558	26.0261
11.2202	26.0261
11.285	26.0261
11.3501	26.0261
11.4156	26.0261
11.4815	26.0261
11.5478	26.0261
11.6145	26.0261
11.6815	26.0261
11.749	26.0261
11.8168	26.0261
11.885	26.0261
11.9536	26.0261
12.0226	26.0261
12.0921	26.0261
12.1619	26.0261
12.2321	26.0261
12.3027	26.0261
12.3737	26.0261
12.4451	26.0261
12.517	26.0261
12.5893	26.0261
12.6619	26.0261
12.735	26.0261
12.8086	26.0261
12.8825	26.0261
12.9569	26.0261
13.0317	26.0261
13.1069	26.0261
13.1826	26.0261
13.2587	26.0261
13.3352	26.0261
13.4122	26.0261
13.4896	26.0261
13.5675	26.0261
13.6458	26.0261
13.7246	26.0261
13.8038	26.0261
13.8835	26.0261
13.9637	26.0261
14.0443	26.0261
14.1254	26.0261
14.2069	26.0261
14.2889	26.0261
14.3714	26.0261
14.4544	26.0261
14.5378	26.0261
14.6218	26.0261
14.7062	26.0261
14.7911	26.0261
14.8765	26.0261
14.9624	26.0261
15.0487	26.0261
15.1356	26.0261
15.223	26.0261
15.3109	26.0261
15.3993	26.0261
15.4882	26.0261
15.5776	26.0261
15.6675	26.0261
15.758	26.0261
15.8489	26.0261
15.9404	26.0261
16.0325	26.0261
16.125	26.0261
16.2181	26.0261
16.3117	26.0261
16.4059	26.0261
16.5006	26.0261
16.5959	26.0261
16.6917	26.0261
16.788	26.0261
16.885	26.0261
16.9824	26.0261
17.0805	26.0261
17.1791	26.0261
17.2783	26.0261
17.378	26.0261
17.4783	26.0261
17.5792	26.0261
17.6807	26.0261
17.7828	26.0261
17.8855	26.0261
17.9887	25.906
18.0926	25.7134
18.197	25.5225
18.3021	25.3331
18.4077	25.1454
18.514	24.9592
18.6209	24.7745
18.7284	24.5914
18.8365	24.4099
18.9452	24.2298
19.0546	24.0513
19.1646	23.8743
19.2752	23.6987
19.3865	23.5246
19.4984	23.3519
19.611	23.1807
19.7242	23.0109
19.8381	22.8426
19.9526	22.6807
20.0678	22.5151
20.1837	22.3509
20.3002	22.188
20.4174	22.0265
20.5353	21.8663
20.6538	21.7074
20.773	21.5499
20.893	21.3936
21.0136	21.2387
21.1349	21.085
21.2569	20.9326
21.3796	20.7862
21.503	20.6364
21.6272	20.4877
21.752	20.3404
21.8776	20.1942
22.0039	20.0492
22.1309	19.9506
22.2587	19.8069
22.3872	19.6643
22.5165	19.5229
22.6464	19.3827
22.7772	19.2437
22.9087	19.1058
23.0409	18.969
23.1739	18.8333
23.3077	18.6987
23.4423	18.5653
23.5776	18.4329
23.7137	18.3016
23.8506	18.1713
23.9883	18.0422
24.1268	17.9141
24.2661	17.7935
24.4062	17.6674
24.5471	17.5423
24.6888	17.4183
24.8313	17.2952
24.9747	17.1731
25.1189	17.0521
25.2639	16.932
25.4097	16.8128
25.5564	16.6947
25.704	16.5775
25.8523	16.4612
26.0016	16.3459
26.1517	16.2314
26.3027	16.1179
26.4545	16.0054
26.6073	15.8937
26.7609	15.7829
26.9153	15.673
27.0707	15.564
27.227	15.4558
27.3842	15.3485
27.5423	15.2421
27.7013	15.1365
27.8612	15.0318
28.0221	14.9279
28.1838	14.8248
28.3465	14.7225
28.5102	14.6314
28.6748	14.5307
28.8403	14.4308
29.0068	14.3317
29.1743	14.2334
29.3427	14.1359
29.5121	14.0391
29.6825	13.9431
29.8538	13.8478
30.0262	13.7533
30.1995	13.6596
30.3739	13.5666
30.5492	13.4743
30.7256	13.3828
30.903	13.2919
31.0814	13.2018
31.2608	13.1124
31.4413	13.0236
31.6228	12.9356
31.8053	12.8483
31.989	12.7616
32.1736	12.6756
32.3594	12.5903
32.5462	12.5057
32.7341	12.4217
32.923	12.3384
33.1131	12.2557
33.3043	12.1736
33.4965	12.0922
33.6899	12.0115
33.8844	11.9313
34.08	11.8518
34.2768	11.7729
34.4747	11.6945
34.6737	11.6168
34.8739	11.5397
35.0752	11.4632
35.2777	11.3873
35.4813	11.312
35.6862	11.2372
35.8922	11.163
36.0994	11.0894
36.3078	11.0164
36.5174	10.9439
36.7282	10.8719
36.9403	10.8005
37.1535	10.6674
37.368	10.5964
37.5837	10.5259
37.8007	10.456
38.0189	10.3866
38.2384	10.3178
38.4592	10.2495
38.6812	10.1817
38.9045	10.1144
39.1291	10.0476
39.355	9.98134
39.5822	9.91557
39.8107	9.85031
40.0405	9.78554
40.2717	9.72126
40.5042	9.65746
40.738	9.59415
40.9732	9.53132
41.2098	9.46896
41.4477	9.40707
41.6869	9.34565
41.9276	9.28469
42.1697	9.22418
42.4131	9.16414
42.658	9.10454
42.9042	9.04539
43.1519	8.99958
43.401	8.94114
43.6516	8.88314
43.9036	8.82557
44.157	8.76843
44.412	8.71171
44.6684	8.65542
44.9262	8.59955
45.1856	8.5441
45.4465	8.48906
45.7088	8.43442
45.9727	8.38019
46.2381	8.32637
46.505	8.27294
46.7735	8.21991
47.0435	8.16727
47.3151	8.11502
47.5883	8.06315
47.863	8.01167
48.1393	7.96057
48.4172	7.90984
48.6968	7.85949
48.9779	7.8095
49.2606	7.75989
49.545	7.71063
49.831	7.66174
50.1187	7.6132
50.4081	7.56502
50.6991	7.51719
50.9918	7.46972
51.2861	7.42258
51.5822	7.37579
51.88	7.32934
52.1795	7.28323
52.4807	7.23938
52.7837	7.19606
53.0884	7.15304
53.3949	7.11031
53.7032	7.06786
54.0132	7.02569
54.325	6.9838
54.6387	6.94219
54.9541	6.90086
55.2713	6.8598
55.5904	6.81901
55.9114	6.7785
56.2341	6.73825
56.5588	6.69828
56.8853	6.65857
57.2137	6.61912
57.544	6.57993
57.8762	6.54101
58.2103	6.50234
58.5464	6.46393
58.8844	6.42578
59.2243	6.38788
59.5662	6.35023
59.9101	6.31283
60.256	6.27568
60.6038	6.23877
60.9537	6.20211
61.3056	6.16569
61.6595	6.12952
62.0155	6.09358
62.3735	6.05788
62.7336	6.02242
63.0957	5.98719
63.46	5.9522
63.8263	5.91744
64.1948	5.88291
64.5654	5.8486
64.9382	5.81453
65.3131	5.78068
65.6901	5.74705
66.0693	5.71364
66.4508	5.68046
66.8344	5.64749
67.2202	5.61474
67.6083	5.58221
67.9986	5.54989
68.3912	5.51778
68.786	5.48589
69.1831	5.45421
69.5825	5.42273
69.9842	5.39146
70.3882	5.3604
70.7946	5.32954
71.2033	5.29889
71.6143	5.26843
72.0278	5.23818
72.4436	5.20812
72.8618	5.17826
73.2825	5.1552
73.7055	5.12564
74.131	5.09627
74.559	5.0671
74.9894	5.03811
75.4223	5.00932
75.8578	4.98071
76.2957	4.95229
76.7361	4.92406
77.1792	4.89601
77.6247	4.86814
78.0728	4.84046
78.5236	4.81295
78.9769	4.78563
79.4328	4.75848
79.8914	4.73151
80.3526	4.70471
80.8165	4.67809
81.2831	4.65165
81.7523	4.62537
82.2243	4.59926
82.699	4.57333
83.1764	4.54756
83.6566	4.52196
84.1395	4.49652
84.6253	4.47125
85.1138	4.44614
85.6052	4.4212
86.0994	4.39641
86.5964	4.37179
87.0964	4.34733
87.5992	4.32302
88.1049	4.29887
88.6135	4.27487
89.1251	4.25103
89.6396	4.22734
90.1571	4.20381
90.6776	4.18042
91.2011	4.15719
91.7276	4.1341
92.2571	4.11117
92.7897	4.08838
93.3254	4.06573
93.8642	4.04323
94.4061	4.02088
94.9511	3.99867
95.4993	3.9766
96.0506	3.95467
96.6051	3.93288
97.1628	3.91123
97.7237	3.88971
98.2879	3.86834
98.8553	3.8471
99.426	3.82599
100	3.80502
100.577	3.78418
101.158	3.76348
101.742	3.74291
102.329	3.72246
102.92	3.70215
103.514	3.68196
104.112	3.66447
104.713	3.6445
105.317	3.62465
105.925	3.60494
106.537	3.58534
107.152	3.56587
107.771	3.54653
108.393	3.5273
109.018	3.5082
109.648	3.48921
110.281	3.47035
110.917	3.4516
111.558	3.43297
112.202	3.41446
112.85	3.39606
113.501	3.37778
114.156	3.35962
114.815	3.34157
115.478	3.32363
116.145	3.3058
116.815	3.28808
117.49	3.27048
118.168	3.25298
118.85	3.2356
119.536	3.21832
120.226	3.20115
120.921	3.18408
121.619	3.16712
122.321	3.15027
123.027	3.13352
123.737	3.11688
124.451	3.10034
125.17	3.0839
125.893	3.06756
126.619	3.05133
127.35	3.03519
128.086	3.01916
128.825	3.00322
129.569	2.98738
130.317	2.97164
131.069	2.956
131.826	2.94045
132.587	2.925
133.352	2.90964
134.122	2.89438
134.896	2.87921
135.675	2.86413
136.458	2.84915
137.246	2.83426
138.038	2.81946
138.835	2.80475
139.637	2.79013
140.443	2.7756
141.254	2.76116
142.069	2.74681
142.889	2.73254
143.714	2.71836
144.544	2.70427
145.378	2.69027
146.218	2.67635
147.062	2.66251
147.911	2.64876
148.765	2.63509
149.624	2.6215
150.487	2.608
151.356	2.59458
152.23	2.58234
153.109	2.56909
153.993	2.55591
154.882	2.54281
155.776	2.52979
156.675	2.51685
157.58	2.50399
158.489	2.4912
159.404	2.47849
160.325	2.46586
161.25	2.4533
162.181	2.44082
163.117	2.42842
164.059	2.41608
165.006	2.40383
165.959	2.39164
166.917	2.37953
167.88	2.36749
168.85	2.35552
169.824	2.34363
170.805	2.3318
171.791	2.32005
172.783	2.30836
173.78	2.29675
174.783	2.2852
175.792	2.27372
176.807	2.26231
177.828	2.25097
178.855	2.2397
179.887	2.22849
180.926	2.21735
181.97	2.20628
183.021	2.19527
184.077	2.18433
185.14	2.17345
186.209	2.16263
187.284	2.15188
188.365	2.1412
189.452	2.13057
190.546	2.12001
191.646	2.10951
192.752	2.09907
193.865	2.0887
194.984	2.07839
196.11	2.06813
197.242	2.05794
198.381	2.04781
199.526	2.03773
200.678	2.02772
201.837	2.01776
203.002	2.00786
204.174	1.99803
205.353	1.98824
206.538	1.97852
207.73	1.96885
208.93	1.95924
210.136	1.94969
211.349	1.94019
212.569	1.93075
213.796	1.92136
215.03	1.91203
216.272	1.90275
217.52	1.89352
218.776	1.88435
220.039	1.87523
221.309	1.86617
222.587	1.85716
223.872	1.8482
225.165	1.83929
226.464	1.83044
227.772	1.82164
229.087	1.81288
230.409	1.80418
231.739	1.79553
233.077	1.78693
234.423	1.77838
235.776	1.76988
237.137	1.76143
238.506	1.75302
239.883	1.74467
241.268	1.73636
242.661	1.72811
244.062	1.7199
245.471	1.71173
246.888	1.70362
248.313	1.69555
249.747	1.68753
251.189	1.67955
252.639	1.67162
254.097	1.66374
255.564	1.6559
257.04	1.64811
258.523	1.64036
260.016	1.63266
261.517	1.625
263.027	1.61738
264.545	1.60981
266.073	1.60228
267.609	1.5948
269.153	1.58735
270.707	1.57996
272.27	1.5726
273.842	1.56528
275.423	1.55801
277.013	1.55078
278.612	1.54359
280.221	1.53644
281.838	1.52934
283.465	1.52227
285.102	1.51525
286.748	1.50826
288.403	1.50131
290.068	1.49441
291.743	1.48754
293.427	1.48071
295.121	1.47393
296.825	1.46718
298.538	1.46047
300.262	1.45379
301.995	1.44716
303.739	1.44056
305.492	1.434
307.256	1.42748
309.03	1.421
310.814	1.41455
312.608	1.40814
314.413	1.40177
316.228	1.39543
318.053	1.38913
319.89	1.38286
321.736	1.37663
323.594	1.37044
325.462	1.36428
327.341	1.35816
329.23	1.35207
331.131	1.34601
333.043	1.33999
334.965	1.33401
336.899	1.32805
338.844	1.32214
340.8	1.31625
342.768	1.3104
344.747	1.30458
346.737	1.2988
348.739	1.29305
350.752	1.28733
352.777	1.28164
354.813	1.27599
356.862	1.27036
358.922	1.26477
360.994	1.25921
363.078	1.25369
365.174	1.24819
367.282	1.24273
369.403	1.23729
371.535	1.23189
373.68	1.22652
375.837	1.22117
378.007	1.21586
380.189	1.21058
382.384	1.20533
384.592	1.20011
386.812	1.19491
389.045	1.18975
391.291	1.18462
393.55	1.17951
395.822	1.17444
398.107	1.16939
400.405	1.16437
402.717	1.15938
405.042	1.15442
407.38	1.14949
409.732	1.14458
412.098	1.1397
414.477	1.13485
416.869	1.13003
419.276	1.12523
421.697	1.12046
424.131	1.11572
426.58	1.11101
429.042	1.10632
431.519	1.10166
434.01	1.09702
436.516	1.09241
439.036	1.08783
441.57	1.08327
444.12	1.07874
446.684	1.07424
449.262	1.06976
451.856	1.0653
454.465	1.06087
457.088	1.05647
459.727	1.05209
462.381	1.04773
465.05	1.0434
467.735	1.0391
470.435	1.03482
473.151	1.03056
475.883	1.02632
478.63	1.02212
481.393	1.01793
484.172	1.01377
486.968	1.00963
489.779	1.00552
492.606	1.00142
495.45	0.997356
498.31	0.993311
501.187	0.989289
504.081	0.98529
506.991	0.981313
509.918	0.977358
512.861	0.973427
515.822	0.969517
518.8	0.965629
521.795	0.961764
524.807	0.95792
527.837	0.954099
530.884	0.950299
533.949	0.94652
537.032	0.942763
540.132	0.939027
543.25	0.935313
546.387	0.931619
549.541	0.927946
552.713	0.924295
555.904	0.920664
559.114	0.917053
562.341	0.913464
565.588	0.909894
568.853	0.906345
572.137	0.902816
575.44	0.899307
578.762	0.895818
582.103	0.892349
585.464	0.888899
588.844	0.885469
592.243	0.882059
595.662	0.878668
599.101	0.875297
602.56	0.871944
606.038	0.868611
609.537	0.865297
613.056	0.862001
616.595	0.858725
620.155	0.855467
623.735	0.852228
627.336	0.849007
630.957	0.845804
634.6	0.84262
638.263	0.839454
641.948	0.836306
645.654	0.833177
649.382	0.830065
653.131	0.82697
656.901	0.823894
660.693	0.820835
664.508	0.817794
668.344	0.81477
672.202	0.811763
676.083	0.808774
679.986	0.805802
683.912	0.802847
687.86	0.799909
691.831	0.796987
695.825	0.794083
699.842	0.791195
703.882	0.788324
707.946	0.785469
712.033	0.782631
716.143	0.779809
720.278	0.777003
724.436	0.774214
728.618	0.77144
732.825	0.768683
737.055	0.765941
741.31	0.763216
745.59	0.760506
749.894	0.757812
754.223	0.755133
758.578	0.75247
762.957	0.749822
767.361	0.74719
771.792	0.744572
776.247	0.74197
780.728	0.739384
785.236	0.736812
789.769	0.734255
794.328	0.731713
798.914	0.729185
803.526	0.726673
808.165	0.724175
812.831	0.721692
817.523	0.719223
822.243	0.716768
826.99	0.714328
831.764	0.711902
836.566	0.70949
841.395	0.707093
846.253	0.704709
851.138	0.702339
856.052	0.699984
860.994	0.697642
865.964	0.695313
870.964	0.692999
875.992	0.690698
881.049	0.688411
886.135	0.686137
891.251	0.683876
896.396	0.681629
901.571	0.679395
906.776	0.677174
912.011	0.674967
917.276	0.672772
922.571	0.67059
927.897	0.668422
933.254	0.666266
938.642	0.664123
944.061	0.661992
949.511	0.659875
954.993	0.65777
960.506	0.655677
966.051	0.653597
971.628	0.651529
977.237	0.649474
982.879	0.647431
988.553	0.6454
994.26	0.643381
1000	0.641374
1005.77	0.63938
1011.58	0.637397
1017.42	0.635426
1023.29	0.633467
1029.2	0.63152
1035.14	0.629585
1041.12	0.627661
1047.13	0.625749
1053.17	0.623848
1059.25	0.621959
1065.37	0.620081
1071.52	0.618215
1077.71	0.61636
1083.93	0.614516
1090.18	0.612684
1096.48	0.610862
1102.81	0.609052
1109.17	0.607252
1115.58	0.605464
1122.02	0.603687
1128.5	0.60192
1135.01	0.600164
1141.56	0.598419
1148.15	0.596685
1154.78	0.594962
1161.45	0.593249
1168.15	0.591546
1174.9	0.589854
1181.68	0.588173
1188.5	0.586501
1195.36	0.584841
1202.26	0.58319
1209.21	0.58155
1216.19	0.579919
1223.21	0.578299
1230.27	0.57669
1237.37	0.57509
1244.51	0.5735
1251.7	0.57192
1258.93	0.57035
1266.19	0.568789
1273.5	0.567239
1280.86	0.565698
1288.25	0.564167
1295.69	0.562646
1303.17	0.561134
1310.69	0.559631
1318.26	0.558139
1325.87	0.556655
1333.52	0.555181
1341.22	0.553717
1348.96	0.552261
1356.75	0.550815
1364.58	0.549379
1372.46	0.547951
1380.38	0.546532
1388.35	0.545123
1396.37	0.543723
1404.43	0.542331
1412.54	0.540949
1420.69	0.539575
1428.89	0.53821
1437.14	0.536855
1445.44	0.535508
1453.78	0.534169
1462.18	0.532839
1470.62	0.531518
1479.11	0.530206
1487.65	0.528902
1496.24	0.527607
1504.87	0.52632
1513.56	0.525041
1522.3	0.523771
1531.09	0.52251
1539.93	0.521256
1548.82	0.520011
1557.76	0.518774
1566.75	0.517546
1575.8	0.516325
1584.89	0.515113
1594.04	0.513908
1603.25	0.512712
1612.5	0.511524
1621.81	0.510343
1631.17	0.509171
1640.59	0.508006
1650.06	0.50685
1659.59	0.505701
1669.17	0.504559
1678.8	0.503426
1688.5	0.5023
1698.24	0.501182
1708.05	0.500072
1717.91	0.498969
1727.83	0.497873
1737.8	0.496785
1747.83	0.495705
1757.92	0.494632
1768.07	0.493566
1778.28	0.492508
1788.55	0.491457
1798.87	0.490413
1809.26	0.489377
1819.7	0.488348
1830.21	0.487326
1840.77	0.486311
1851.4	0.485303
1862.09	0.484302
1872.84	0.483309
1883.65	0.482322
1894.52	0.481342
1905.46	0.48037
1916.46	0.479404
1927.52	0.478445
1938.65	0.477493
1949.84	0.476547
1961.1	0.475609
1972.42	0.474677
1983.81	0.473752
1995.26	0.472834
2006.78	0.471922
2018.37	0.471017
2030.02	0.470118
2041.74	0.469226
2053.53	0.46834
2065.38	0.467461
2077.3	0.466589
2089.3	0.465722
2101.36	0.464862
2113.49	0.464009
2125.69	0.463162
2137.96	0.462321
2150.3	0.461486
2162.72	0.460658
2175.2	0.459836
2187.76	0.45902
2200.39	0.45821
2213.09	0.457406
2225.87	0.456608
2238.72	0.455817
2251.65	0.455031
2264.64	0.454251
2277.72	0.453478
2290.87	0.45271
2304.09	0.451948
2317.39	0.451192
2330.77	0.450442
2344.23	0.449698
2357.76	0.448959
2371.37	0.448226
2385.06	0.447499
2398.83	0.446778
2412.68	0.446062
2426.61	0.445352
2440.62	0.444648
2454.71	0.443949
2468.88	0.443265
2483.13	0.442597
2497.47	0.441935
2511.89	0.441278
2526.39	0.440626
2540.97	0.439979
2555.64	0.439338
2570.4	0.438702
2585.23	0.438071
2600.16	0.437446
2615.17	0.436825
2630.27	0.43621
2645.45	0.4356
2660.73	0.434995
2676.09	0.434395
2691.53	0.4338
2707.07	0.433211
2722.7	0.432626
2738.42	0.432046
2754.23	0.431471
2770.13	0.430902
2786.12	0.430337
2802.21	0.429777
2818.38	0.429222
2834.65	0.428672
2851.02	0.428126
2867.48	0.427586
2884.03	0.42705
2900.68	0.426519
2917.43	0.425993
2934.27	0.425471
2951.21	0.424955
2968.25	0.424443
2985.38	0.423935
3002.62	0.423432
3019.95	0.422934
3037.39	0.422441
3054.92	0.421952
3072.56	0.421467
3090.3	0.420987
3108.14	0.420512
3126.08	0.420041
3144.13	0.419575
3162.28	0.419113
3180.53	0.418655
3198.9	0.418202
3217.36	0.417753
3235.94	0.417309
3254.62	0.416869
3273.41	0.416433
3292.3	0.416001
3311.31	0.415574
3330.43	0.415151
3349.65	0.414733
3368.99	0.414318
3388.44	0.413908
3408	0.413502
3427.68	0.4131
3447.47	0.412702
3467.37	0.412309
3487.39	0.411919
3507.52	0.411534
3527.77	0.411152
3548.13	0.410775
3568.62	0.410402
3589.22	0.410032
3609.94	0.409667
3630.78	0.409306
3651.74	0.408948
3672.82	0.408595
3694.03	0.408245
3715.35	0.4079
3736.8	0.407558
3758.37	0.40722
3780.07	0.406886
3801.89	0.406555
3823.84	0.406229
3845.92	0.405906
3868.12	0.405587
3890.45	0.405272
3912.91	0.40496
3935.5	0.404652
3958.22	0.404348
3981.07	0.404048
4004.05	0.403751
4027.17	0.403457
4050.42	0.403168
4073.8	0.402882
4097.32	0.402599
4120.98	0.40232
4144.77	0.402045
4168.69	0.401773
4192.76	0.401505
4216.97	0.40124
4241.31	0.400979
4265.8	0.400721
4290.42	0.400466
4315.19	0.400215
4340.1	0.399968
4365.16	0.399723
4390.36	0.399482
4415.7	0.399245
4441.2	0.399011
4466.84	0.39878
4492.62	0.398552
4518.56	0.398328
4544.65	0.398107
4570.88	0.397889
4597.27	0.397674
4623.81	0.397463
4650.5	0.397255
4677.35	0.39705
4704.35	0.396848
4731.51	0.396649
4758.83	0.396454
4786.3	0.396261
4813.93	0.396072
4841.72	0.395886
4869.68	0.395702
4897.79	0.395522
4926.06	0.395345
4954.5	0.395171
4983.1	0.395
5011.87	0.394832
5040.81	0.394667
5069.91	0.394505
5099.18	0.394345
5128.61	0.394189
5158.22	0.394036
5188	0.393885
5217.95	0.393738
5248.07	0.393593
5278.37	0.393451
5308.84	0.393312
5339.49	0.393176
5370.32	0.393042
5401.32	0.392911
5432.5	0.392784
5463.87	0.392658
5495.41	0.392536
5527.13	0.392416
5559.04	0.392299
5591.14	0.392185
5623.41	0.392074
5655.88	0.391965
5688.53	0.391858
5721.37	0.391755
5754.4	0.391654
5787.62	0.391555
5821.03	0.39146
5854.64	0.391366
5888.44	0.391276
5922.43	0.391188
5956.62	0.391102
5991.01	0.391019
6025.6	0.390939
6060.38	0.390861
6095.37	0.390785
6130.56	0.390712
6165.95	0.390641
6201.55	0.390573
6237.35	0.390507
6273.36	0.390444
6309.57	0.390383
6346	0.390325
6382.63	0.390268
6419.48	0.390215
6456.54	0.390163
6493.82	0.390114
6531.31	0.390067
6569.01	0.390022
6606.93	0.38998
6645.08	0.38994
6683.44	0.389903
6722.02	0.389867
6760.83	0.389834
6799.86	0.389803
6839.12	0.389774
6878.6	0.389747
6918.31	0.389723
6958.25	0.389701
6998.42	0.389681
7038.82	0.389663
7079.46	0.389647
7120.33	0.389633
7161.43	0.389622
7202.78	0.389612
7244.36	0.389605
7286.18	0.389599
7328.25	0.389596
7370.55	0.389595
7413.1	0.389596
7455.9	0.389598
7498.94	0.389603
7542.23	0.38961
7585.78	0.389619
7629.57	0.38963
7673.61	0.389642
7717.92	0.389657
7762.47	0.389674
7807.28	0.389692
7852.36	0.389713
7897.69	0.389735
7943.28	0.389759
7989.14	0.389785
8035.26	0.389813
8081.65	0.389843
8128.31	0.389875
8175.23	0.389908
8222.43	0.389943
8269.9	0.38998
8317.64	0.390019
8365.66	0.39006
8413.95	0.390102
8462.53	0.390147
8511.38	0.390192
8560.52	0.39024
8609.94	0.39029
8659.64	0.390341
8709.64	0.390393
8759.92	0.390448
8810.49	0.390504
8861.35	0.390562
8912.51	0.390621
8963.96	0.390682
9015.71	0.390745
9067.76	0.39081
9120.11	0.390876
9172.76	0.390943
9225.71	0.391012
9278.97	0.391083
9332.54	0.391156
9386.42	0.391229
9440.61	0.391305
9495.11	0.391382
9549.93	0.39146
9605.06	0.391541
9660.51	0.391622
9716.28	0.391705
9772.37	0.39179
9828.79	0.391876
9885.53	0.391963
9942.6	0.392052
10000	0.392142
10057.7	0.392234
10115.8	0.392327
10174.2	0.392422
10232.9	0.392518
10292	0.392616
10351.4	0.392714
10411.2	0.392815
10471.3	0.392916
10531.7	0.393019
10592.5	0.393123
10653.7	0.393229
10715.2	0.393336
10777.1	0.393444
10839.3	0.393554
10901.8	0.393665
10964.8	0.393777
11028.1	0.39389
11091.7	0.394005
11155.8	0.394121
11220.2	0.394238
11285	0.394357
11350.1	0.394476
11415.6	0.394597
11481.5	0.394719
11547.8	0.394843
11614.5	0.394967
11681.5	0.395093
11749	0.39522
11816.8	0.395348
11885	0.395477
11953.6	0.395608
12022.6	0.395739
12092.1	0.395872
12161.9	0.396005
12232.1	0.39614
12302.7	0.396276
12373.7	0.396414
12445.1	0.396552
12517	0.396691
12589.3	0.396831
12661.9	0.396973
12735	0.397115
12808.6	0.397259
12882.5	0.397403
12956.9	0.397549
13031.7	0.397696
13106.9	0.397843
13182.6	0.397992
13258.7	0.398142
13335.2	0.398292
13412.2	0.398444
13489.6	0.398597
13567.5	0.39875
13645.8	0.398905
13724.6	0.39906
13803.8	0.399217
13883.5	0.399374
13963.7	0.399532
14044.3	0.399692
14125.4	0.399852
14206.9	0.400013
14288.9	0.400175
14371.4	0.400338
14454.4	0.400501
14537.8	0.400666
14621.8	0.400831
14706.2	0.400998
14791.1	0.401165
14876.5	0.401333
14962.4	0.401502
15048.7	0.401672
15135.6	0.401842
15223	0.402013
15310.9	0.402186
15399.3	0.402359
15488.2	0.402532
15577.6	0.402707
15667.5	0.402882
15758	0.403058
15848.9	0.403235
15940.4	0.403413
16032.5	0.403591
16125	0.40377
16218.1	0.40395
16311.7	0.404131
16405.9	0.404312
16500.6	0.404494
16595.9	0.404677
16691.7	0.404861
16788	0.405045
16885	0.40523
16982.4	0.405416
17080.5	0.405602
17179.1	0.405789
17278.3	0.405976
17378	0.406165
17478.3	0.406354
17579.2	0.406543
17680.7	0.406734
17782.8	0.406924
17885.5	0.407116
17988.7	0.407308
18092.6	0.407501
18197	0.407694
18302.1	0.407888
18407.7	0.408083
18514	0.408278
18620.9	0.408474
18728.4	0.40867
18836.5	0.408867
18945.2	0.409065
19054.6	0.409263
19164.6	0.409462
19275.2	0.409661
19386.5	0.409861
19498.4	0.410061
19611	0.410262
19724.2	0.410463
19838.1	0.410665
19952.6	0.410868
20067.8	0.411071
20183.7	0.411274
20300.2	0.411478
20417.4	0.411683
20535.3	0.411888
20653.8	0.412094
20773	0.4123
20893	0.412506
21013.6	0.412713
21134.9	0.412921
21256.9	0.413128
21379.6	0.413337
21503	0.413546
21627.2	0.413755
21752	0.413965
21877.6	0.414175
22003.9	0.414385
22130.9	0.414597
22258.7	0.414808
22387.2	0.41502
22516.5	0.415232
22646.4	0.415445
22777.2	0.415658
22908.7	0.415872
23040.9	0.416086
23173.9	0.4163
23307.7	0.416515
23442.3	0.41673
23577.6	0.416945
23713.7	0.417161
23850.6	0.417378
23988.3	0.417594
24126.8	0.417811
24266.1	0.418029
24406.2	0.418246
24547.1	0.418464
24688.8	0.418683
24831.3	0.418902
24974.7	0.419121
25118.9	0.41934
25263.9	0.41956
25409.7	0.41978
25556.4	0.42
25704	0.420221
25852.3	0.420442
26001.6	0.420664
26151.7	0.420885
26302.7	0.421107
26454.5	0.42133
26607.3	0.421552
26760.9	0.421775
26915.3	0.421998
27070.7	0.422222
27227	0.422445
27384.2	0.422669
27542.3	0.422894
27701.3	0.423118
27861.2	0.423343
28022.1	0.423568
28183.8	0.423793
28346.5	0.424019
28510.2	0.424245
28674.8	0.424471
28840.3	0.424697
29006.8	0.424924
29174.3	0.425151
29342.7	0.425378
29512.1	0.425605
29682.5	0.425832
29853.8	0.42606
30026.2	0.426288
30199.5	0.426516
30373.9	0.426745
30549.2	0.426973
30725.6	0.427202
30903	0.427431
31081.4	0.42766
31260.8	0.427889
31441.3	0.428119
31622.8	0.428349
31805.3	0.428579
31989	0.428809
32173.6	0.429039
32359.4	0.42927
32546.2	0.4295
32734.1	0.429731
32923	0.429962
33113.1	0.430194
33304.3	0.430425
33496.5	0.430656
33689.9	0.430888
33884.4	0.43112
34080	0.431352
34276.8	0.431584
34474.7	0.431816
34673.7	0.432049
34873.9	0.432281
35075.2	0.432514
35277.7	0.432747
35481.3	0.43298
35686.2	0.433213
35892.2	0.433446
36099.4	0.43368
36307.8	0.433913
36517.4	0.434147
36728.2	0.434381
36940.3	0.434614
37153.5	0.434848
37368	0.435082
37583.7	0.435317
37800.7	0.435551
38018.9	0.435785
38238.4	0.43602
38459.2	0.436255
38681.2	0.436489
38904.5	0.436724
39129.1	0.436959
39355	0.437194
39582.2	0.437429
39810.7	0.437664
40040.5	0.437899
40271.7	0.438135
40504.2	0.43837
40738	0.438606
40973.2	0.438841
41209.8	0.439077
41447.7	0.439312
41686.9	0.439548
41927.6	0.439784
42169.7	0.44002
42413.1	0.440256
42658	0.440492
42904.2	0.440728
43151.9	0.440964
43401	0.4412
43651.6	0.441437
43903.6	0.441673
44157	0.441909
44412	0.442146
44668.4	0.442382
44926.2	0.442618
45185.6	0.442855
45446.5	0.443091
45708.8	0.443328
45972.7	0.443565
46238.1	0.443801
46505	0.444038
46773.5	0.444275
47043.5	0.444512
47315.1	0.444748
47588.3	0.444985
47863	0.445222
48139.3	0.445459
48417.2	0.445696
48696.8	0.445932
48977.9	0.446169
49260.6	0.446406
49545	0.446643
49831	0.44688
50118.7	0.447117
50408.1	0.447354
50699.1	0.447591
50991.8	0.447828
51286.1	0.448065
51582.2	0.448302
51880	0.448539
52179.5	0.448776
52480.7	0.449013
52783.7	0.44925
53088.4	0.449487
53394.9	0.449724
53703.2	0.449961
54013.2	0.450198
54325	0.450435
54638.7	0.450671
54954.1	0.450908
55271.3	0.451145
55590.4	0.451382
55911.4	0.451619
56234.1	0.451856
56558.8	0.452093
56885.3	0.452329
57213.7	0.452566
57544	0.452803
57876.2	0.45304
58210.3	0.453276
58546.4	0.453513
58884.4	0.45375
59224.3	0.453986
59566.2	0.454223
59910.1	0.454459
60256	0.454696
60603.8	0.454932
60953.7	0.455169
61305.6	0.455405
61659.5	0.455642
62015.5	0.455878
62373.5	0.456114
62733.6	0.45635
63095.7	0.456587
63460	0.456823
63826.3	0.457059
64194.8	0.457295
64565.4	0.457531
64938.2	0.457767
65313.1	0.458003
65690.1	0.458239
66069.3	0.458475
66450.8	0.45871
66834.4	0.458946
67220.2	0.459182
67608.3	0.459417
67998.6	0.459653
68391.2	0.459889
68786	0.460124
69183.1	0.460359
69582.5	0.460595
69984.2	0.46083
70388.2	0.461065
70794.6	0.4613
71203.3	0.461535
71614.3	0.46177
72027.8	0.462005
72443.6	0.46224
72861.8	0.462475
73282.5	0.46271
73705.5	0.462945
74131	0.463179
74559	0.463414
74989.4	0.463648
75422.3	0.463883
75857.8	0.464117
76295.7	0.464351
76736.1	0.464585
77179.2	0.464819
77624.7	0.465053
78072.8	0.465287
78523.6	0.465521
78976.9	0.465755
79432.8	0.465989
79891.4	0.466223
80352.6	0.466456
80816.5	0.46669
81283.1	0.466923
81752.3	0.467156
82224.3	0.46739
82699	0.467623
83176.4	0.467856
83656.6	0.468089
84139.5	0.468322
84625.3	0.468555
85113.8	0.468787
85605.2	0.46902
86099.4	0.469253
86596.4	0.469485
87096.4	0.469718
87599.2	0.46995
88104.9	0.470182
88613.5	0.470414
89125.1	0.470646
89639.6	0.470878
90157.1	0.47111
90677.6	0.471342
91201.1	0.471573
91727.6	0.471805
92257.1	0.472037
92789.7	0.472268
93325.4	0.472499
93864.2	0.47273
94406.1	0.472962
94951.1	0.473193
95499.3	0.473423
96050.6	0.473654
96605.1	0.473885
97162.8	0.474116
97723.7	0.474346
98287.9	0.474577
98855.3	0.474807
99426	0.475037
100000	0.475267
100577	0.475497
101158	0.475727
101742	0.475957
102329	0.476187
102920	0.476416
103514	0.476646
104112	0.476875
104713	0.477105
105317	0.477334
105925	0.477563
106537	0.477792
107152	0.478021
107771	0.478249
108393	0.478478
109018	0.478707
109648	0.478935
110281	0.479164
110917	0.479392
111558	0.47962
112202	0.479848
112850	0.480076
113501	0.480304
114156	0.480531
114815	0.480759
115478	0.480986
116145	0.481214
116815	0.481441
117490	0.481668
118168	0.481895
118850	0.482122
119536	0.482349
120226	0.482576
120921	0.482802
121619	0.483029
122321	0.483255
123027	0.483481
123737	0.483707
124451	0.483933
125170	0.484159
125893	0.484385
126619	0.484611
127350	0.484836
128086	0.485062
128825	0.485287
129569	0.485512
130317	0.485738
131069	0.485963
131826	0.486187
132587	0.486412
133352	0.486637
134122	0.486861
134896	0.487086
135675	0.48731
136458	0.487534
137246	0.487758
138038	0.487982
138835	0.488206
139637	0.48843
140443	0.488653
141254	0.488877
142069	0.4891
142889	0.489323
143714	0.489546
144544	0.489769
145378	0.489992
146218	0.490215
147062	0.490438
147911	0.49066
148765	0.490882
149624	0.491105
150487	0.491327
151356	0.491549
152230	0.491771
153109	0.491992
153993	0.492214
154882	0.492436
155776	0.492657
156675	0.492878
157580	0.493099
158489	0.493321
159404	0.493541
160325	0.493762
161250	0.493983
162181	0.494203
163117	0.494424
164059	0.494644
165006	0.494864
165959	0.495084
166917	0.495304
167880	0.495524
168850	0.495744
169824	0.495963
170805	0.496183
171791	0.496402
172783	0.496621
173780	0.49684
174783	0.497059
175792	0.497278
176807	0.497497
177828	0.497715
178855	0.497934
179887	0.498152
180926	0.49837
181970	0.498588
183021	0.498806
184077	0.499024
185140	0.499242
186209	0.499459
187284	0.499677
188365	0.499894
189452	0.500111
190546	0.500328
191646	0.500545
192752	0.500762
193865	0.500979
194984	0.501195
196110	0.501412
197242	0.501628
198381	0.501844
199526	0.50206
200678	0.502276
201837	0.502492
203002	0.502708
204174	0.502923
205353	0.503139
206538	0.503354
207730	0.503569
208930	0.503784
210136	0.503999
211349	0.504214
212569	0.504429
213796	0.504643
215030	0.504858
216272	0.505072
217520	0.505286
218776	0.5055
220039	0.505714
221309	0.505928
222587	0.506141
223872	0.506355
225165	0.506568
226464	0.506782
227772	0.506995
229087	0.507208
230409	0.507421
231739	0.507633
233077	0.507846
234423	0.508058
235776	0.508271
237137	0.508483
238506	0.508695
239883	0.508907
241268	0.509119
242661	0.509331
244062	0.509542
245471	0.509754
246888	0.509965
248313	0.510176
249747	0.510387
251189	0.510598
252639	0.510809
254097	0.51102
255564	0.511231
257040	0.511441
258523	0.511651
260016	0.511862
261517	0.512072
263027	0.512282
264545	0.512491
266073	0.512701
267609	0.512911
269153	0.51312
270707	0.513329
272270	0.513538
273842	0.513748
275423	0.513956
277013	0.514165
278612	0.514374
280221	0.514582
281838	0.514791
283465	0.514999
285102	0.515207
286748	0.515415
288403	0.515623
290068	0.515831
291743	0.516039
293427	0.516246
295121	0.516453
296825	0.516661
298538	0.516868
300262	0.517075
301995	0.517282
303739	0.517488
305492	0.517695
307256	0.517901
309030	0.518108
310814	0.518314
312608	0.51852
314413	0.518726
316228	0.518932
318053	0.519138
319890	0.519343
321736	0.519549
323594	0.519754
325462	0.519959
327341	0.520164
329230	0.520369
331131	0.520574
333043	0.520779
334965	0.520983
336899	0.521188
338844	0.521392
340800	0.521596
342768	0.5218
344747	0.522004
346737	0.522208
348739	0.522412
350752	0.522615
352777	0.522819
354813	0.523022
356862	0.523225
358922	0.523428
360994	0.523631
363078	0.523834
365174	0.524036
367282	0.524239
369403	0.524441
371535	0.524643
373680	0.524846
375837	0.525048
378007	0.525249
380189	0.525451
382384	0.525653
384592	0.525854
386812	0.526056
389045	0.526257
391291	0.526458
393550	0.526659
395822	0.52686
398107	0.527061
400405	0.527261
402717	0.527462
405042	0.527662
407380	0.527862
409732	0.528062
412098	0.528262
414477	0.528462
416869	0.528662
419276	0.528861
421697	0.529061
424131	0.52926
426580	0.529459
429042	0.529658
431519	0.529857
434010	0.530056
436516	0.530255
439036	0.530453
441570	0.530652
444120	0.53085
446684	0.531048
449262	0.531246
451856	0.531444
454465	0.531642
457088	0.53184
459727	0.532037
462381	0.532235
465050	0.532432
467735	0.532629
470435	0.532826
473151	0.533023
475883	0.53322
478630	0.533416
481393	0.533613
484172	0.533809
486968	0.534006
489779	0.534202
492606	0.534398
495450	0.534594
498310	0.534789
501187	0.534985
504081	0.53518
506991	0.535376
509918	0.535571
512861	0.535766
515822	0.535961
518800	0.536156
521795	0.536351
524807	0.536545
527837	0.53674
530884	0.536934
533949	0.537128
537032	0.537323
540132	0.537517
543250	0.53771
546387	0.537904
549541	0.538098
552713	0.538291
555904	0.538485
559114	0.538678
562341	0.538871
565588	0.539064
568853	0.539257
572137	0.539449
575440	0.539642
578762	0.539834
582103	0.540027
585464	0.540219
588844	0.540411
592243	0.540603
595662	0.540795
599101	0.540987
602560	0.541178
606038	0.54137
609537	0.541561
613056	0.541752
616595	0.541943
620155	0.542134
623735	0.542325
627336	0.542516
630957	0.542706
634600	0.542897
638263	0.543087
641948	0.543277
645654	0.543467
649382	0.543657
653131	0.543847
656901	0.544037
660693	0.544226
664508	0.544416
668344	0.544605
672202	0.544794
676083	0.544983
679986	0.545172
683912	0.545361
687860	0.54555
691831	0.545738
695825	0.545927
699842	0.546115
703882	0.546303
707946	0.546491
712033	0.546679
716143	0.546867
720278	0.547054
724436	0.547242
728618	0.547429
732825	0.547617
737055	0.547804
741310	0.547991
745590	0.548178
749894	0.548365
754223	0.548551
758578	0.548738
762957	0.548924
767361	0.549111
771792	0.549297
776247	0.549483
780728	0.549669
785236	0.549854
789769	0.55004
794328	0.550226
798914	0.550411
803526	0.550596
808165	0.550782
812831	0.550967
817523	0.551151
822243	0.551336
826990	0.551521
831764	0.551705
836566	0.55189
841395	0.552074
846253	0.552258
851138	0.552442
856052	0.552626
860994	0.55281
865964	0.552994
870964	0.553177
875992	0.553361
881049	0.553544
886135	0.553727
891251	0.55391
896396	0.554093
901571	0.554276
906776	0.554459
912011	0.554641
917276	0.554824
922571	0.555006
927897	0.555188
933254	0.55537
938642	0.555552
944061	0.555734
949511	0.555915
954993	0.556097
960506	0.556278
966051	0.55646
971628	0.556641
977237	0.556822
982879	0.557003
988553	0.557184
994260	0.557364
1e+06	0.557545
1.00577e+06	0.557725
1.01158e+06	0.557905
1.01742e+06	0.558086
1.02329e+06	0.558266
1.0292e+06	0.558446
1.03514e+06	0.558625
1.04112e+06	0.558805
1.04713e+06	0.558985
1.05317e+06	0.559164
1.05925e+06	0.559343
1.06537e+06	0.559523
1.07152e+06	0.559702
1.07771e+06	0.559881
1.08393e+06	0.560059
1.09018e+06	0.560238
1.09648e+06	0.560417
1.10281e+06	0.560595
1.10917e+06	0.560773
1.11558e+06	0.560952
1.12202e+06	0.56113
1.1285e+06	0.561308
1.13501e+06	0.561485
1.14156e+06	0.561663
1.14815e+06	0.561841
1.15478e+06	0.562018
1.16145e+06	0.562195
1.16815e+06	0.562373
1.1749e+06	0.56255
1.18168e+06	0.562727
1.1885e+06	0.562903
1.19536e+06	0.56308
1.20226e+06	0.563257
1.20921e+06	0.563433
1.21619e+06	0.56361
1.22321e+06	0.563786
1.23027e+06	0.563962
1.23737e+06	0.564138
1.24451e+06	0.564314
1.2517e+06	0.564489
1.25893e+06	0.564665
1.26619e+06	0.56484
1.2735e+06	0.565016
1.28086e+06	0.565191
1.28825e+06	0.565366
1.29569e+06	0.565541
1.30317e+06	0.565716
1.31069e+06	0.565891
1.31826e+06	0.566065
1.32587e+06	0.56624
1.33352e+06	0.566414
1.34122e+06	0.566588
1.34896e+06	0.566762
1.35675e+06	0.566936
1.36458e+06	0.56711
1.37246e+06	0.567284
1.38038e+06	0.567458
1.38835e+06	0.567631
1.39637e+06	0.567805
1.40443e+06	0.567978
1.41254e+06	0.568151
1.42069e+06	0.568324
1.42889e+06	0.568497
1.43714e+06	0.56867
1.44544e+06	0.568842
1.45378e+06	0.569015
1.46218e+06	0.569187
1.47062e+06	0.569359
1.47911e+06	0.569532
1.48765e+06	0.569704
1.49624e+06	0.569876
1.50487e+06	0.570047
1.51356e+06	0.570219
1.5223e+06	0.57039
1.53109e+06	0.570562
1.53993e+06	0.570733
1.54882e+06	0.570904
1.55776e+06	0.571075
1.56675e+06	0.571246
1.5758e+06	0.571417
1.58489e+06	0.571588
1.59404e+06	0.571758
1.60325e+06	0.571929
1.6125e+06	0.572099
1.62181e+06	0.572269
1.63117e+06	0.572439
1.64059e+06	0.572609
1.65006e+06	0.572779
1.65959e+06	0.572949
1.66917e+06	0.573118
1.6788e+06	0.573288
1.6885e+06	0.573457
1.69824e+06	0.573626
1.70805e+06	0.573795
1.71791e+06	0.573964
1.72783e+06	0.574133
1.7378e+06	0.574302
1.74783e+06	0.574471
1.75792e+06	0.574639
1.76807e+06	0.574807
1.77828e+06	0.574976
1.78855e+06	0.575144
1.79887e+06	0.575312
1.80926e+06	0.57548
1.8197e+06	0.575647
1.83021e+06	0.575815
1.84077e+06	0.575982
1.8514e+06	0.57615
1.86209e+06	0.576317
1.87284e+06	0.576484
1.88365e+06	0.576651
1.89452e+06	0.576818
1.90546e+06	0.576985
1.91646e+06	0.577152
1.92752e+06	0.577318
1.93865e+06	0.577484
1.94984e+06	0.577651
1.9611e+06	0.577817
1.97242e+06	0.577983
1.98381e+06	0.578149
1.99526e+06	0.578315
2.00678e+06	0.57848
2.01837e+06	0.578646
2.03002e+06	0.578811
2.04174e+06	0.578977
2.05353e+06	0.579142
2.06538e+06	0.579307
2.0773e+06	0.579472
2.0893e+06	0.579637
2.10136e+06	0.579801
2.11349e+06	0.579966
2.12569e+06	0.58013
2.13796e+06	0.580295
2.1503e+06	0.580459
2.16272e+06	0.580623
2.1752e+06	0.580787
2.18776e+06	0.580951
2.20039e+06	0.581114
2.21309e+06	0.581278
2.22587e+06	0.581441
2.23872e+06	0.581605
2.25165e+06	0.581768
2.26464e+06	0.581931
2.27772e+06	0.582094
2.29087e+06	0.582257
2.30409e+06	0.582419
2.31739e+06	0.582582
2.33077e+06	0.582744
2.34423e+06	0.582907
2.35776e+06	0.583069
2.37137e+06	0.583231
2.38506e+06	0.583393
2.39883e+06	0.583555
2.41268e+06	0.583716
2.42661e+06	0.583878
2.44062e+06	0.584039
2.45471e+06	0.584201
2.46888e+06	0.584362
2.48313e+06	0.584523
2.49747e+06	0.584684
2.51189e+06	0.584845
2.52639e+06	0.585005
2.54097e+06	0.585166
2.55564e+06	0.585326
2.5704e+06	0.585487
2.58523e+06	0.585647
2.60016e+06	0.585807
2.61517e+06	0.585967
2.63027e+06	0.586127
2.64545e+06	0.586286
2.66073e+06	0.586446
2.67609e+06	0.586605
2.69153e+06	0.586765
2.70707e+06	0.586924
2.7227e+06	0.587083
2.73842e+06	0.587242
2.75423e+06	0.5874
2.77013e+06	0.587559
2.78612e+06	0.587717
2.80221e+06	0.587876
2.81838e+06	0.588034
2.83465e+06	0.588192
2.85102e+06	0.58835
2.86748e+06	0.588508
2.88403e+06	0.588666
2.90068e+06	0.588823
2.91743e+06	0.588981
2.93427e+06	0.589138
2.95121e+06	0.589295
2.96825e+06	0.589452
2.98538e+06	0.589609
3.00262e+06	0.589766
3.01995e+06	0.589923
3.03739e+06	0.590079
3.05492e+06	0.590236
3.07256e+06	0.590392
3.0903e+06	0.590548
3.10814e+06	0.590704
3.12608e+06	0.59086
3.14413e+06	0.591016
3.16228e+06	0.591172
3.18053e+06	0.591327
3.1989e+06	0.591483
3.21736e+06	0.591638
3.23594e+06	0.591793
3.25462e+06	0.591948
3.27341e+06	0.592103
3.2923e+06	0.592257
3.31131e+06	0.592412
3.33043e+06	0.592566
3.34965e+06	0.592721
3.36899e+06	0.592875
3.38844e+06	0.593029
3.408e+06	0.593183
3.42768e+06	0.593337
3.44747e+06	0.59349
3.46737e+06	0.593644
3.48739e+06	0.593797
3.50752e+06	0.593951
3.52777e+06	0.594104
3.54813e+06	0.594257
3.56862e+06	0.59441
3.58922e+06	0.594562
3.60994e+06	0.594715
3.63078e+06	0.594868
3.65174e+06	0.59502
3.67282e+06	0.595172
3.69403e+06	0.595324
3.71535e+06	0.595476
3.7368e+06	0.595628
3.75837e+06	0.59578
3.78007e+06	0.595931
3.80189e+06	0.596083
3.82384e+06	0.596234
3.84592e+06	0.596385
3.86812e+06	0.596536
3.89045e+06	0.596687
3.91291e+06	0.596838
3.9355e+06	0.596988
3.95822e+06	0.597139
3.98107e+06	0.597289
4.00405e+06	0.597439
4.02717e+06	0.59759
4.05042e+06	0.59774
4.0738e+06	0.597889
4.09732e+06	0.598039
4.12098e+06	0.598189
4.14477e+06	0.598338
4.16869e+06	0.598487
4.19276e+06	0.598637
4.21697e+06	0.598786
4.24131e+06	0.598934
4.2658e+06	0.599083
4.29042e+06	0.599232
4.31519e+06	0.59938
4.3401e+06	0.599529
4.36516e+06	0.599677
4.39036e+06	0.599825
4.4157e+06	0.599973
4.4412e+06	0.600121
4.46684e+06	0.600269
4.49262e+06	0.600416
4.51856e+06	0.600564
4.54465e+06	0.600711
4.57088e+06	0.600858
4.59727e+06	0.601005
4.62381e+06	0.601152
4.6505e+06	0.601299
4.67735e+06	0.601446
4.70435e+06	0.601592
4.73151e+06	0.601739
4.75883e+06	0.601885
4.7863e+06	0.602031
4.81393e+06	0.602177
4.84172e+06	0.602323
4.86968e+06	0.602469
4.89779e+06	0.602614
4.92606e+06	0.60276
4.9545e+06	0.602905
4.9831e+06	0.60305
5.01187e+06	0.603195
5.04081e+06	0.60334
5.06991e+06	0.603485
5.09918e+06	0.60363
5.12861e+06	0.603774
5.15822e+06	0.603919
5.188e+06	0.604063
5.21795e+06	0.604207
5.24807e+06	0.604351
5.27837e+06	0.604495
5.30884e+06	0.604639
5.33949e+06	0.604783
5.37032e+06	0.604926
5.40132e+06	0.60507
5.4325e+06	0.605213
5.46387e+06	0.605356
5.49541e+06	0.605499
5.52713e+06	0.605642
5.55904e+06	0.605785
5.59114e+06	0.605927
5.62341e+06	0.60607
5.65588e+06	0.606212
5.68853e+06	0.606354
5.72137e+06	0.606496
5.7544e+06	0.606638
5.78762e+06	0.60678
5.82103e+06	0.606922
5.85464e+06	0.607063
5.88844e+06	0.607205
5.92243e+06	0.607346
5.95662e+06	0.607487
5.99101e+06	0.607462
6.0256e+06	0.607438
6.06038e+06	0.607413
6.09537e+06	0.607389
6.13056e+06	0.607365
6.16595e+06	0.607342
6.20155e+06	0.607319
6.23735e+06	0.607296
6.27336e+06	0.607273
6.30957e+06	0.607251
6.346e+06	0.607229
6.38263e+06	0.607207
6.41948e+06	0.607185
6.45654e+06	0.607164
6.49382e+06	0.607142
6.53131e+06	0.607122
6.56901e+06	0.607101
6.60693e+06	0.60708
6.64508e+06	0.60706
6.68344e+06	0.60704
6.72202e+06	0.60702
6.76083e+06	0.607001
6.79986e+06	0.606982
6.83912e+06	0.606963
6.8786e+06	0.606944
6.91831e+06	0.606925
6.95825e+06	0.606907
6.99842e+06	0.606888
7.03882e+06	0.60687
7.07946e+06	0.606853
7.12033e+06	0.606835
7.16143e+06	0.606818
7.20278e+06	0.6068
7.24436e+06	0.606783
7.28618e+06	0.606766
7.32825e+06	0.60675
7.37055e+06	0.606733
7.4131e+06	0.606717
7.4559e+06	0.606701
7.49894e+06	0.606685
7.54223e+06	0.60667
7.58578e+06	0.606654
7.62957e+06	0.606639
7.67361e+06	0.606624
7.71792e+06	0.606609
7.76247e+06	0.606594
7.80728e+06	0.606579
7.85236e+06	0.606565
7.89769e+06	0.60655
7.94328e+06	0.606536
7.98914e+06	0.606522
8.03526e+06	0.606508
8.08165e+06	0.606495
8.12831e+06	0.606481
8.17523e+06	0.606468
8.22243e+06	0.606455
8.2699e+06	0.606442
8.31764e+06	0.606429
8.36566e+06	0.606416
8.41395e+06	0.606403
8.46253e+06	0.606391
8.51138e+06	0.606378
8.56052e+06	0.606366
8.60994e+06	0.606354
8.65964e+06	0.606342
8.70964e+06	0.606331
8.75992e+06	0.606319
8.81049e+06	0.606307
8.86135e+06	0.606296
8.91251e+06	0.606285
8.96396e+06	0.606274
9.01571e+06	0.606263
9.06776e+06	0.606252
9.12011e+06	0.606241
9.17276e+06	0.60623
9.22571e+06	0.60622
9.27897e+06	0.60621
9.33254e+06	0.606199
9.38642e+06	0.606189
9.44061e+06	0.606179
9.49511e+06	0.606169
9.54993e+06	0.60616
9.60506e+06	0.60615
9.66051e+06	0.60614
9.71628e+06	0.606131
9.77237e+06	0.606121
9.82879e+06	0.606112
9.88553e+06	0.606103
9.9426e+06	0.606094
1e+07	0.606085
