Stopping power dEdx from Ionisation for triton Z = 1 in G4_TISSUE_SOFT_ICRP, process name: hIoni
E [MeV]	dEdx [MeV/mm]
0.001	9.98455
0.00100577	10.0133
0.00101158	10.0422
0.00101742	10.0711
0.00102329	10.1002
0.0010292	10.1293
0.00103514	10.1585
0.00104112	10.1878
0.00104713	10.2171
0.00105317	10.2466
0.00105925	10.2761
0.00106537	10.3057
0.00107152	10.3354
0.00107771	10.3652
0.00108393	10.3951
0.00109018	10.4251
0.00109648	10.4551
0.00110281	10.4852
0.00110917	10.5155
0.00111558	10.5458
0.00112202	10.5762
0.0011285	10.6067
0.00113501	10.6372
0.00114156	10.6679
0.00114815	10.6986
0.00115478	10.7295
0.00116145	10.7604
0.00116815	10.7914
0.0011749	10.8225
0.00118168	10.8537
0.0011885	10.885
0.00119536	10.9164
0.00120226	10.9478
0.00120921	10.9794
0.00121619	11.011
0.00122321	11.0428
0.00123027	11.0746
0.00123737	11.1065
0.00124451	11.1385
0.0012517	11.1707
0.00125893	11.2029
0.00126619	11.2351
0.0012735	11.2675
0.00128086	11.3
0.00128825	11.3326
0.00129569	11.3652
0.00130317	11.398
0.00131069	11.4309
0.00131826	11.4638
0.00132587	11.4968
0.00133352	11.53
0.00134122	11.5632
0.00134896	11.5965
0.00135675	11.63
0.00136458	11.6635
0.00137246	11.6971
0.00138038	11.7308
0.00138835	11.7646
0.00139637	11.7986
0.00140443	11.8326
0.00141254	11.8667
0.00142069	11.9009
0.00142889	11.9352
0.00143714	11.9696
0.00144544	12.0041
0.00145378	12.0387
0.00146218	12.0734
0.00147062	12.1082
0.00147911	12.1431
0.00148765	12.1781
0.00149624	12.2132
0.00150487	12.2484
0.00151356	12.2837
0.0015223	12.3191
0.00153109	12.3546
0.00153993	12.3902
0.00154882	12.4259
0.00155776	12.4617
0.00156675	12.4977
0.0015758	12.5337
0.00158489	12.5698
0.00159404	12.606
0.00160325	12.6424
0.0016125	12.6788
0.00162181	12.7154
0.00163117	12.752
0.00164059	12.7888
0.00165006	12.8256
0.00165959	12.8626
0.00166917	12.8997
0.0016788	12.9369
0.0016885	12.9741
0.00169824	13.0115
0.00170805	13.049
0.00171791	13.0867
0.00172783	13.1244
0.0017378	13.1622
0.00174783	13.2001
0.00175792	13.2382
0.00176807	13.2763
0.00177828	13.3146
0.00178855	13.353
0.00179887	13.3915
0.00180926	13.4301
0.0018197	13.4688
0.00183021	13.5076
0.00184077	13.5465
0.0018514	13.5856
0.00186209	13.6248
0.00187284	13.664
0.00188365	13.7034
0.00189452	13.7429
0.00190546	13.7825
0.00191646	13.8222
0.00192752	13.8621
0.00193865	13.902
0.00194984	13.9421
0.0019611	13.9823
0.00197242	14.0226
0.00198381	14.063
0.00199526	14.1036
0.00200678	14.1442
0.00201837	14.185
0.00203002	14.2259
0.00204174	14.2669
0.00205353	14.308
0.00206538	14.3492
0.0020773	14.3906
0.0020893	14.4321
0.00210136	14.4737
0.00211349	14.5154
0.00212569	14.5572
0.00213796	14.5992
0.0021503	14.6413
0.00216272	14.6835
0.0021752	14.7258
0.00218776	14.7682
0.00220039	14.8108
0.00221309	14.8535
0.00222587	14.8963
0.00223872	14.9392
0.00225165	14.9823
0.00226464	15.0255
0.00227772	15.0688
0.00229087	15.1122
0.00230409	15.1558
0.00231739	15.1995
0.00233077	15.2433
0.00234423	15.2872
0.00235776	15.3313
0.00237137	15.3755
0.00238506	15.4198
0.00239883	15.4642
0.00241268	15.5088
0.00242661	15.5535
0.00244062	15.5983
0.00245471	15.6433
0.00246888	15.6884
0.00248313	15.7336
0.00249747	15.779
0.00251189	15.8245
0.00252639	15.8701
0.00254097	15.9158
0.00255564	15.9617
0.0025704	16.0077
0.00258523	16.0538
0.00260016	16.1001
0.00261517	16.1465
0.00263027	16.1931
0.00264545	16.2397
0.00266073	16.2865
0.00267609	16.3335
0.00269153	16.3806
0.00270707	16.4278
0.0027227	16.4751
0.00273842	16.5226
0.00275423	16.5702
0.00277013	16.618
0.00278612	16.6659
0.00280221	16.7139
0.00281838	16.7621
0.00283465	16.8104
0.00285102	16.8589
0.00286748	16.9075
0.00288403	16.9562
0.00290068	17.0051
0.00291743	17.0541
0.00293427	17.1033
0.00295121	17.1525
0.00296825	17.202
0.00298538	17.2516
0.00300262	17.3013
0.00301995	17.3512
0.00303739	17.4012
0.00305492	17.4513
0.00307256	17.5016
0.0030903	17.5521
0.00310814	17.6027
0.00312608	17.6534
0.00314413	17.7043
0.00316228	17.7553
0.00318053	17.8065
0.0031989	17.8578
0.00321736	17.9093
0.00323594	17.9609
0.00325462	18.0127
0.00327341	18.0646
0.0032923	18.1167
0.00331131	18.1689
0.00333043	18.2213
0.00334965	18.2738
0.00336899	18.3265
0.00338844	18.3793
0.003408	18.4323
0.00342768	18.4854
0.00344747	18.5387
0.00346737	18.5921
0.00348739	18.6457
0.00350752	18.6994
0.00352777	18.7533
0.00354813	18.8074
0.00356862	18.8616
0.00358922	18.916
0.00360994	18.9705
0.00363078	19.0252
0.00365174	19.08
0.00367282	19.135
0.00369403	19.1902
0.00371535	19.2455
0.0037368	19.3009
0.00375837	19.3566
0.00378007	19.4124
0.00380189	19.4683
0.00382384	19.5244
0.00384592	19.5807
0.00386812	19.6372
0.00389045	19.6938
0.00391291	19.7505
0.0039355	19.8075
0.00395822	19.8645
0.00398107	19.9218
0.00400405	19.9792
0.00402717	20.0368
0.00405042	20.0946
0.0040738	20.1525
0.00409732	20.2106
0.00412098	20.2688
0.00414477	20.3273
0.00416869	20.3858
0.00419276	20.4446
0.00421697	20.5035
0.00424131	20.5626
0.0042658	20.6219
0.00429042	20.6813
0.00431519	20.741
0.0043401	20.8007
0.00436516	20.8607
0.00439036	20.9208
0.0044157	20.9811
0.0044412	21.0416
0.00446684	21.1022
0.00449262	21.1631
0.00451856	21.2241
0.00454465	21.2852
0.00457088	21.3466
0.00459727	21.4081
0.00462381	21.4698
0.0046505	21.5317
0.00467735	21.5938
0.00470435	21.656
0.00473151	21.7184
0.00475883	21.781
0.0047863	21.8438
0.00481393	21.9068
0.00484172	21.9699
0.00486968	22.0333
0.00489779	22.0968
0.00492606	22.1605
0.0049545	22.2243
0.0049831	22.2884
0.00501187	22.3526
0.00504081	22.4171
0.00506991	22.4817
0.00509918	22.5465
0.00512861	22.6115
0.00515822	22.6766
0.005188	22.742
0.00521795	22.8076
0.00524807	22.8733
0.00527837	22.9392
0.00530884	23.0053
0.00533949	23.0717
0.00537032	23.1382
0.00540132	23.2048
0.0054325	23.2717
0.00546387	23.3388
0.00549541	23.4061
0.00552713	23.4735
0.00555904	23.5412
0.00559114	23.6091
0.00562341	23.6771
0.00565588	23.7454
0.00568853	23.8138
0.00572137	23.8824
0.0057544	23.9513
0.00578762	24.0203
0.00582103	24.0895
0.00585464	24.159
0.00588844	24.2286
0.00592243	24.2985
0.00595662	24.3685
0.00599101	24.4387
0.0060256	24.5092
0.00606038	24.5798
0.00609537	24.6507
0.00613056	24.7217
0.00616595	24.793
0.00620155	24.8644
0.00623735	24.9361
0.00627336	25.008
0.00630957	25.0801
0.006346	25.1524
0.00638263	25.2249
0.00641948	25.2976
0.00645654	25.3705
0.00649382	25.4436
0.00653131	25.5169
0.00656901	25.5905
0.00660693	25.6643
0.00664508	25.7382
0.00668344	25.8124
0.00672202	25.8868
0.00676083	25.9614
0.00679986	26.0363
0.00683912	26.1113
0.0068786	26.1866
0.00691831	26.2621
0.00695825	26.3377
0.00699842	26.4137
0.00703882	26.4898
0.00707946	26.5662
0.00712033	26.6427
0.00716143	26.7195
0.00720278	26.7965
0.00724436	26.8738
0.00728618	26.9512
0.00732825	27.0289
0.00737055	27.1068
0.0074131	27.185
0.0074559	27.2633
0.00749894	27.3419
0.00754223	27.4207
0.00758578	27.4997
0.00762957	27.579
0.00767361	27.6585
0.00771792	27.7382
0.00776247	27.8182
0.00780728	27.8984
0.00785236	27.9788
0.00789769	28.0594
0.00794328	28.1403
0.00798914	28.2214
0.00803526	28.3028
0.00808165	28.3843
0.00812831	28.4661
0.00817523	28.5482
0.00822243	28.6305
0.0082699	28.713
0.00831764	28.7958
0.00836566	28.8788
0.00841395	28.962
0.00846253	29.0455
0.00851138	29.1292
0.00856052	29.2132
0.00860994	29.2974
0.00865964	29.3818
0.00870964	29.4665
0.00875992	29.5514
0.00881049	29.6366
0.00886135	29.722
0.00891251	29.8077
0.00896396	29.8936
0.00901571	29.9798
0.00906776	30.0662
0.00912011	30.1529
0.00917276	30.2398
0.00922571	30.3269
0.00927897	30.4144
0.00933254	30.502
0.00938642	30.5899
0.00944061	30.6781
0.00949511	30.7665
0.00954993	30.8552
0.00960506	30.9442
0.00966051	31.0333
0.00971628	31.1228
0.00977237	31.2125
0.00982879	31.3025
0.00988553	31.3927
0.0099426	31.4832
0.01	31.5739
0.0100577	31.6649
0.0101158	31.7562
0.0101742	31.8477
0.0102329	31.9395
0.010292	32.0316
0.0103514	32.1239
0.0104112	32.2165
0.0104713	32.3094
0.0105317	32.4025
0.0105925	32.4959
0.0106537	32.5896
0.0107152	32.6835
0.0107771	32.7777
0.0108393	32.8722
0.0109018	32.9669
0.0109648	33.062
0.0110281	33.1573
0.0110917	33.2528
0.0111558	33.3487
0.0112202	33.4448
0.011285	33.5412
0.0113501	33.6379
0.0114156	33.7348
0.0114815	33.8321
0.0115478	33.9296
0.0116145	34.0274
0.0116815	34.1255
0.011749	34.2238
0.0118168	34.3225
0.011885	34.4214
0.0119536	34.5206
0.0120226	34.6201
0.0120921	34.7199
0.0121619	34.82
0.0122321	34.9204
0.0123027	35.021
0.0123737	35.122
0.0124451	35.2232
0.012517	35.3247
0.0125893	35.4265
0.0126619	35.5286
0.012735	35.6311
0.0128086	35.7338
0.0128825	35.8368
0.0129569	35.94
0.0130317	36.0436
0.0131069	36.1475
0.0131826	36.2517
0.0132587	36.3562
0.0133352	36.461
0.0134122	36.5661
0.0134896	36.6715
0.0135675	36.7772
0.0136458	36.8832
0.0137246	36.9895
0.0138038	37.0961
0.0138835	37.2031
0.0139637	37.3103
0.0140443	37.4178
0.0141254	37.5257
0.0142069	37.6339
0.0142889	37.7423
0.0143714	37.8511
0.0144544	37.9602
0.0145378	38.0696
0.0146218	38.1794
0.0147062	38.2894
0.0147911	38.3998
0.0148765	38.5105
0.0149624	38.6215
0.0150487	38.7328
0.0151356	38.8444
0.015223	38.9564
0.0153109	39.0687
0.0153993	39.1813
0.0154882	39.2942
0.0155776	39.4075
0.0156675	39.5211
0.015758	39.635
0.0158489	39.7492
0.0159404	39.8638
0.0160325	39.9787
0.016125	40.0939
0.0162181	40.2095
0.0163117	40.3254
0.0164059	40.4416
0.0165006	40.5582
0.0165959	40.6751
0.0166917	40.7923
0.016788	40.9099
0.016885	41.0278
0.0169824	41.1461
0.0170805	41.2647
0.0171791	41.3836
0.0172783	41.5029
0.017378	41.6225
0.0174783	41.7425
0.0175792	41.8628
0.0176807	41.9835
0.0177828	42.1045
0.0178855	42.2259
0.0179887	42.3476
0.0180926	42.4696
0.018197	42.5921
0.0183021	42.7148
0.0184077	42.8379
0.018514	42.9614
0.0186209	43.0853
0.0187284	43.2094
0.0188365	43.334
0.0189452	43.4589
0.0190546	43.5842
0.0191646	43.7098
0.0192752	43.8358
0.0193865	43.9621
0.0194984	44.0888
0.019611	44.2159
0.0197242	44.3434
0.0198381	44.4712
0.0199526	44.5994
0.0200678	44.7279
0.0201837	44.8568
0.0203002	44.9861
0.0204174	45.1158
0.0205353	45.2458
0.0206538	45.3763
0.020773	45.507
0.020893	45.6382
0.0210136	45.7698
0.0211349	45.9017
0.0212569	46.034
0.0213796	46.1667
0.021503	46.2998
0.0216272	46.4332
0.021752	46.567
0.0218776	46.7013
0.0220039	46.8359
0.0221309	46.9709
0.0222587	47.1063
0.0223872	47.242
0.0225165	47.3782
0.0226464	47.5148
0.0227772	47.6517
0.0229087	47.7891
0.0230409	47.9268
0.0231739	48.065
0.0233077	48.2035
0.0234423	48.3425
0.0235776	48.4818
0.0237137	48.6215
0.0238506	48.7617
0.0239883	48.9022
0.0241268	49.0432
0.0242661	49.1845
0.0244062	49.3263
0.0245471	49.4685
0.0246888	49.6111
0.0248313	49.7541
0.0249747	49.8975
0.0251189	50.0413
0.0252639	50.1855
0.0254097	50.3302
0.0255564	50.4753
0.025704	50.6208
0.0258523	50.7667
0.0260016	50.913
0.0261517	51.0597
0.0263027	51.2069
0.0264545	51.3545
0.0266073	51.5025
0.0267609	51.651
0.0269153	51.7999
0.0270707	51.9492
0.027227	52.0989
0.0273842	52.2491
0.0275423	52.3997
0.0277013	52.5507
0.0278612	52.7022
0.0280221	52.8541
0.0281838	53.0064
0.0283465	53.1592
0.0285102	53.3125
0.0286748	53.4661
0.0288403	53.6202
0.0290068	53.7748
0.0291743	53.9298
0.0293427	54.0852
0.0295121	54.2411
0.0296825	54.3975
0.0298538	54.5543
0.0300262	54.7115
0.0301995	54.864
0.0303739	55.0015
0.0305492	55.1394
0.0307256	55.2775
0.030903	55.4159
0.0310814	55.5546
0.0312608	55.6936
0.0314413	55.8329
0.0316228	55.9724
0.0318053	56.1122
0.031989	56.2523
0.0321736	56.3927
0.0323594	56.5333
0.0325462	56.6743
0.0327341	56.8155
0.032923	56.957
0.0331131	57.0987
0.0333043	57.2408
0.0334965	57.3831
0.0336899	57.5257
0.0338844	57.6686
0.03408	57.8117
0.0342768	57.9551
0.0344747	58.0988
0.0346737	58.2428
0.0348739	58.387
0.0350752	58.5315
0.0352777	58.6763
0.0354813	58.8214
0.0356862	58.9667
0.0358922	59.1123
0.0360994	59.2582
0.0363078	59.4044
0.0365174	59.5508
0.0367282	59.6975
0.0369403	59.8444
0.0371535	59.9916
0.037368	60.1391
0.0375837	60.2869
0.0378007	60.4349
0.0380189	60.5832
0.0382384	60.7317
0.0384592	60.8806
0.0386812	61.0296
0.0389045	61.179
0.0391291	61.3286
0.039355	61.4784
0.0395822	61.6285
0.0398107	61.7789
0.0400405	61.9296
0.0402717	62.0805
0.0405042	62.2316
0.040738	62.383
0.0409732	62.5347
0.0412098	62.6866
0.0414477	62.8388
0.0416869	62.9912
0.0419276	63.1439
0.0421697	63.2968
0.0424131	63.45
0.042658	63.6034
0.0429042	63.757
0.0431519	63.9109
0.043401	64.0651
0.0436516	64.2195
0.0439036	64.3741
0.044157	64.529
0.044412	64.6841
0.0446684	64.8395
0.0449262	64.9951
0.0451856	65.1509
0.0454465	65.307
0.0457088	65.4633
0.0459727	65.6198
0.0462381	65.7766
0.046505	65.9336
0.0467735	66.0908
0.0470435	66.2483
0.0473151	66.406
0.0475883	66.5638
0.047863	66.722
0.0481393	66.8803
0.0484172	67.0389
0.0486968	67.1977
0.0489779	67.3566
0.0492606	67.5159
0.049545	67.6753
0.049831	67.8349
0.0501187	67.9948
0.0504081	68.1548
0.0506991	68.3151
0.0509918	68.4755
0.0512861	68.6362
0.0515822	68.7971
0.05188	68.9581
0.0521795	69.1194
0.0524807	69.2808
0.0527837	69.4425
0.0530884	69.6043
0.0533949	69.7663
0.0537032	69.9286
0.0540132	70.091
0.054325	70.2535
0.0546387	70.4163
0.0549541	70.5793
0.0552713	70.7424
0.0555904	70.9057
0.0559114	71.0691
0.0562341	71.2328
0.0565588	71.3966
0.0568853	71.5605
0.0572137	71.7247
0.057544	71.889
0.0578762	72.0534
0.0582103	72.218
0.0585464	72.3828
0.0588844	72.5477
0.0592243	72.7128
0.0595662	72.878
0.0599101	73.0433
0.060256	73.2088
0.0606038	73.3744
0.0609537	73.5402
0.0613056	73.7061
0.0616595	73.8721
0.0620155	74.0382
0.0623735	74.2045
0.0627336	74.3709
0.0630957	74.5374
0.06346	74.704
0.0638263	74.8708
0.0641948	75.0376
0.0645654	75.2046
0.0649382	75.3716
0.0653131	75.5388
0.0656901	75.7061
0.0660693	75.8734
0.0664508	76.0408
0.0668344	76.2084
0.0672202	76.376
0.0676083	76.5437
0.0679986	76.7114
0.0683912	76.8793
0.068786	77.0472
0.0691831	77.2151
0.0695825	77.3832
0.0699842	77.5513
0.0703882	77.7194
0.0707946	77.8876
0.0712033	78.0559
0.0716143	78.2242
0.0720278	78.3925
0.0724436	78.5609
0.0728618	78.7293
0.0732825	78.8977
0.0737055	79.0662
0.074131	79.2347
0.074559	79.4032
0.0749894	79.5717
0.0754223	79.7402
0.0758578	79.9087
0.0762957	80.0772
0.0767361	80.2458
0.0771792	80.4143
0.0776247	80.5828
0.0780728	80.7513
0.0785236	80.9197
0.0789769	81.0882
0.0794328	81.2566
0.0798914	81.425
0.0803526	81.5933
0.0808165	81.7616
0.0812831	81.9298
0.0817523	82.098
0.0822243	82.2662
0.082699	82.4342
0.0831764	82.6022
0.0836566	82.7702
0.0841395	82.938
0.0846253	83.1058
0.0851138	83.2735
0.0856052	83.4411
0.0860994	83.6086
0.0865964	83.776
0.0870964	83.9433
0.0875992	84.1105
0.0881049	84.2775
0.0886135	84.4445
0.0891251	84.6113
0.0896396	84.7779
0.0901571	84.9445
0.0906776	85.1109
0.0912011	85.2771
0.0917276	85.4432
0.0922571	85.6091
0.0927897	85.7749
0.0933254	85.9404
0.0938642	86.1058
0.0944061	86.2711
0.0949511	86.4361
0.0954993	86.6009
0.0960506	86.7656
0.0966051	86.93
0.0971628	87.0942
0.0977237	87.2582
0.0982879	87.422
0.0988553	87.5855
0.099426	87.7488
0.1	87.9118
0.100577	88.0746
0.101158	88.2372
0.101742	88.3995
0.102329	88.5615
0.10292	88.7232
0.103514	88.8847
0.104112	89.0458
0.104713	89.2067
0.105317	89.3673
0.105925	89.5275
0.106537	89.6875
0.107152	89.8471
0.107771	90.0064
0.108393	90.1654
0.109018	90.324
0.109648	90.4822
0.110281	90.6402
0.110917	90.7977
0.111558	90.9549
0.112202	91.1117
0.11285	91.2681
0.113501	91.4242
0.114156	91.5798
0.114815	91.735
0.115478	91.8898
0.116145	92.0442
0.116815	92.1982
0.11749	92.3518
0.118168	92.5049
0.11885	92.6575
0.119536	92.8097
0.120226	92.9614
0.120921	93.1047
0.121619	93.2368
0.122321	93.3682
0.123027	93.4989
0.123737	93.6289
0.124451	93.7582
0.12517	93.8867
0.125893	94.0145
0.126619	94.1415
0.12735	94.2677
0.128086	94.3932
0.128825	94.5179
0.129569	94.6418
0.130317	94.7649
0.131069	94.8871
0.131826	95.0086
0.132587	95.1292
0.133352	95.2489
0.134122	95.3678
0.134896	95.4859
0.135675	95.6031
0.136458	95.7193
0.137246	95.8347
0.138038	95.9492
0.138835	96.0628
0.139637	96.1754
0.140443	96.2871
0.141254	96.3978
0.142069	96.5076
0.142889	96.6165
0.143714	96.7243
0.144544	96.8312
0.145378	96.937
0.146218	97.0419
0.147062	97.1457
0.147911	97.2485
0.148765	97.3503
0.149624	97.451
0.150487	97.5507
0.151356	97.6492
0.15223	97.7467
0.153109	97.8432
0.153993	97.9385
0.154882	98.0327
0.155776	98.1257
0.156675	98.2177
0.15758	98.3085
0.158489	98.3981
0.159404	98.4866
0.160325	98.5739
0.16125	98.66
0.162181	98.7449
0.163117	98.8286
0.164059	98.9111
0.165006	98.9924
0.165959	99.0724
0.166917	99.1512
0.16788	99.2287
0.16885	99.305
0.169824	99.38
0.170805	99.4537
0.171791	99.5261
0.172783	99.5972
0.17378	99.667
0.174783	99.7354
0.175792	99.8025
0.176807	99.8683
0.177828	99.9327
0.178855	99.9957
0.179887	100.057
0.180926	100.118
0.18197	100.177
0.183021	100.234
0.184077	100.29
0.18514	100.345
0.186209	100.398
0.187284	100.45
0.188365	100.5
0.189452	100.549
0.190546	100.596
0.191646	100.642
0.192752	100.686
0.193865	100.729
0.194984	100.771
0.19611	100.811
0.197242	100.849
0.198381	100.886
0.199526	100.921
0.200678	100.955
0.201837	100.987
0.203002	101.017
0.204174	101.046
0.205353	101.074
0.206538	101.1
0.20773	101.124
0.20893	101.146
0.210136	101.167
0.211349	101.187
0.212569	101.205
0.213796	101.221
0.21503	101.235
0.216272	101.248
0.21752	101.259
0.218776	101.269
0.220039	101.276
0.221309	101.282
0.222587	101.287
0.223872	101.29
0.225165	101.291
0.226464	101.29
0.227772	101.288
0.229087	101.283
0.230409	101.278
0.231739	101.27
0.233077	101.261
0.234423	101.25
0.235776	101.237
0.237137	101.222
0.238506	101.206
0.239883	101.188
0.241268	101.168
0.242661	101.146
0.244062	101.123
0.245471	101.098
0.246888	101.071
0.248313	101.042
0.249747	101.012
0.251189	100.979
0.252639	100.945
0.254097	100.909
0.255564	100.871
0.25704	100.832
0.258523	100.79
0.260016	100.747
0.261517	100.702
0.263027	100.655
0.264545	100.607
0.266073	100.556
0.267609	100.504
0.269153	100.45
0.270707	100.394
0.27227	100.336
0.273842	100.276
0.275423	100.215
0.277013	100.152
0.278612	100.087
0.280221	100.02
0.281838	99.951
0.283465	99.8804
0.285102	99.808
0.286748	99.7337
0.288403	99.6576
0.290068	99.5797
0.291743	99.5
0.293427	99.4184
0.295121	99.335
0.296825	99.2498
0.298538	99.1628
0.300262	99.074
0.301995	98.9833
0.303739	98.8908
0.305492	98.7966
0.307256	98.7005
0.30903	98.6026
0.310814	98.5029
0.312608	98.4014
0.314413	98.2982
0.316228	98.1931
0.318053	98.0863
0.31989	97.9776
0.321736	97.8673
0.323594	97.7551
0.325462	97.6412
0.327341	97.5255
0.32923	97.4081
0.331131	97.2889
0.333043	97.168
0.334965	97.0454
0.336899	96.921
0.338844	96.7949
0.3408	96.6671
0.342768	96.5376
0.344747	96.4064
0.346737	96.2735
0.348739	96.1389
0.350752	96.0027
0.352777	95.8648
0.354813	95.7252
0.356862	95.584
0.358922	95.4411
0.360994	95.2966
0.363078	95.1505
0.365174	95.0028
0.367282	94.8534
0.369403	94.7025
0.371535	94.55
0.37368	94.3959
0.375837	94.2403
0.378007	94.0831
0.380189	93.9244
0.382384	93.7641
0.384592	93.6023
0.386812	93.4391
0.389045	93.2743
0.391291	93.108
0.39355	92.9403
0.395822	92.7711
0.398107	92.6004
0.400405	92.4284
0.402717	92.2549
0.405042	92.0799
0.40738	91.9036
0.409732	91.7259
0.412098	91.5469
0.414477	91.3665
0.416869	91.1847
0.419276	91.0016
0.421697	90.8172
0.424131	90.6315
0.42658	90.4445
0.429042	90.2562
0.431519	90.0667
0.43401	89.8759
0.436516	89.6839
0.439036	89.4907
0.44157	89.2963
0.44412	89.1007
0.446684	88.9039
0.449262	88.706
0.451856	88.507
0.454465	88.3068
0.457088	88.1055
0.459727	87.9031
0.462381	87.6996
0.46505	87.4951
0.467735	87.2896
0.470435	87.083
0.473151	86.8754
0.475883	86.6668
0.47863	86.4572
0.481393	86.2466
0.484172	86.0351
0.486968	85.8227
0.489779	85.6094
0.492606	85.3952
0.49545	85.1801
0.49831	84.9641
0.501187	84.7473
0.504081	84.5296
0.506991	84.3112
0.509918	84.0919
0.512861	83.8719
0.515822	83.6511
0.5188	83.4295
0.521795	83.2073
0.524807	82.9843
0.527837	82.7606
0.530884	82.5363
0.533949	82.3112
0.537032	82.0856
0.540132	81.8593
0.54325	81.6324
0.546387	81.405
0.549541	81.1769
0.552713	80.9483
0.555904	80.7191
0.559114	80.4895
0.562341	80.2593
0.565588	80.0286
0.568853	79.7975
0.572137	79.5659
0.57544	79.3338
0.578762	79.1014
0.582103	78.8685
0.585464	78.6353
0.588844	78.4016
0.592243	78.1676
0.595662	77.9333
0.599101	77.6987
0.60256	77.4637
0.606038	77.2285
0.609537	76.993
0.613056	76.7572
0.616595	76.5212
0.620155	76.2849
0.623735	76.0484
0.627336	75.8118
0.630957	75.575
0.6346	75.338
0.638263	75.1008
0.641948	74.8635
0.645654	74.6261
0.649382	74.3886
0.653131	74.151
0.656901	73.9134
0.660693	73.6756
0.664508	73.4379
0.668344	73.2001
0.672202	72.9622
0.676083	72.7244
0.679986	72.4866
0.683912	72.2488
0.68786	72.0111
0.691831	71.7734
0.695825	71.5358
0.699842	71.2983
0.703882	71.0608
0.707946	70.8235
0.712033	70.5863
0.716143	70.3492
0.720278	70.1123
0.724436	69.8755
0.728618	69.6389
0.732825	69.4025
0.737055	69.1663
0.74131	68.9303
0.74559	68.6945
0.749894	68.4589
0.754223	68.2236
0.758578	67.9885
0.762957	67.7537
0.767361	67.5192
0.771792	67.285
0.776247	67.051
0.780728	66.8174
0.785236	66.5841
0.789769	66.3511
0.794328	66.1184
0.798914	65.8861
0.803526	65.6542
0.808165	65.4226
0.812831	65.1914
0.817523	64.9606
0.822243	64.7302
0.82699	64.5001
0.831764	64.2705
0.836566	64.0414
0.841395	63.8126
0.846253	63.5843
0.851138	63.3564
0.856052	63.129
0.860994	62.9021
0.865964	62.6756
0.870964	62.4496
0.875992	62.224
0.881049	61.999
0.886135	61.7745
0.891251	61.5504
0.896396	61.3269
0.901571	61.1039
0.906776	60.8814
0.912011	60.6595
0.917276	60.4381
0.922571	60.2172
0.927897	59.9969
0.933254	59.7771
0.938642	59.5579
0.944061	59.3392
0.949511	59.1211
0.954993	58.9036
0.960506	58.6867
0.966051	58.4703
0.971628	58.2546
0.977237	58.0394
0.982879	57.8248
0.988553	57.6108
0.99426	57.3975
1	57.1847
1.00577	56.9725
1.01158	56.761
1.01742	56.5501
1.02329	56.3398
1.0292	56.1301
1.03514	55.921
1.04112	55.7126
1.04713	55.5048
1.05317	55.2976
1.05925	55.0911
1.06537	54.8852
1.07152	54.68
1.07771	54.4754
1.08393	54.2714
1.09018	54.0681
1.09648	53.8655
1.10281	53.6635
1.10917	53.4621
1.11558	53.2614
1.12202	53.0614
1.1285	52.862
1.13501	52.6632
1.14156	52.4652
1.14815	52.2677
1.15478	52.071
1.16145	51.8749
1.16815	51.6795
1.1749	51.4847
1.18168	51.2906
1.1885	51.0971
1.19536	50.9044
1.20226	50.7122
1.20921	50.5208
1.21619	50.33
1.22321	50.1399
1.23027	49.9504
1.23737	49.7616
1.24451	49.5734
1.2517	49.386
1.25893	49.1991
1.26619	49.013
1.2735	48.8275
1.28086	48.6426
1.28825	48.4585
1.29569	48.2749
1.30317	48.0921
1.31069	47.9099
1.31826	47.7283
1.32587	47.5474
1.33352	47.3671
1.34122	47.1876
1.34896	47.0086
1.35675	46.8303
1.36458	46.6527
1.37246	46.4757
1.38038	46.2993
1.38835	46.1236
1.39637	45.9485
1.40443	45.7741
1.41254	45.6003
1.42069	45.4271
1.42889	45.2546
1.43714	45.0827
1.44544	44.9115
1.45378	44.7408
1.46218	44.5708
1.47062	44.4015
1.47911	44.2327
1.48765	44.0646
1.49624	43.8971
1.50487	43.7302
1.51356	43.564
1.5223	43.3983
1.53109	43.2333
1.53993	43.0688
1.54882	42.905
1.55776	42.7418
1.56675	42.5792
1.5758	42.4172
1.58489	42.2558
1.59404	42.095
1.60325	41.9348
1.6125	41.7751
1.62181	41.6161
1.63117	41.4577
1.64059	41.2998
1.65006	41.1426
1.65959	40.9859
1.66917	40.8298
1.6788	40.6742
1.6885	40.5193
1.69824	40.3649
1.70805	40.2111
1.71791	40.0578
1.72783	39.9052
1.7378	39.753
1.74783	39.6015
1.75792	39.4505
1.76807	39.3001
1.77828	39.1502
1.78855	39.0008
1.79887	38.8521
1.80926	38.7038
1.8197	38.5561
1.83021	38.409
1.84077	38.2624
1.8514	38.1163
1.86209	37.9708
1.87284	37.8257
1.88365	37.6813
1.89452	37.5373
1.90546	37.3939
1.91646	37.251
1.92752	37.1086
1.93865	36.9668
1.94984	36.8254
1.9611	36.6846
1.97242	36.5443
1.98381	36.4045
1.99526	36.2652
2.00678	36.1264
2.01837	35.9881
2.03002	35.8503
2.04174	35.713
2.05353	35.5762
2.06538	35.4399
2.0773	35.3041
2.0893	35.1687
2.10136	35.0339
2.11349	34.8995
2.12569	34.7657
2.13796	34.6323
2.1503	34.4994
2.16272	34.3669
2.1752	34.235
2.18776	34.1035
2.20039	33.9724
2.21309	33.8419
2.22587	33.7118
2.23872	33.5822
2.25165	33.453
2.26464	33.3243
2.27772	33.196
2.29087	33.0683
2.30409	32.9409
2.31739	32.814
2.33077	32.6876
2.34423	32.5616
2.35776	32.436
2.37137	32.3109
2.38506	32.1863
2.39883	32.0621
2.41268	31.9383
2.42661	31.8149
2.44062	31.692
2.45471	31.5695
2.46888	31.4475
2.48313	31.3258
2.49747	31.2046
2.51189	31.0839
2.52639	30.9635
2.54097	30.8436
2.55564	30.7241
2.5704	30.605
2.58523	30.4863
2.60016	30.368
2.61517	30.2502
2.63027	30.1327
2.64545	30.0157
2.66073	29.8991
2.67609	29.7828
2.69153	29.667
2.70707	29.5516
2.7227	29.4366
2.73842	29.322
2.75423	29.2078
2.77013	29.0939
2.78612	28.9805
2.80221	28.8675
2.81838	28.7548
2.83465	28.6426
2.85102	28.5307
2.86748	28.4192
2.88403	28.3081
2.90068	28.1974
2.91743	28.0871
2.93427	27.9772
2.95121	27.8676
2.96825	27.7584
2.98538	27.6496
3.00262	27.5411
3.01995	27.4331
3.03739	27.3254
3.05492	27.2181
3.07256	27.1111
3.0903	27.0045
3.10814	26.8983
3.12608	26.7924
3.14413	26.687
3.16228	26.5818
3.18053	26.4771
3.1989	26.3727
3.21736	26.2686
3.23594	26.1649
3.25462	26.0616
3.27341	25.9586
3.2923	25.856
3.31131	25.7537
3.33043	25.6518
3.34965	25.5502
3.36899	25.449
3.38844	25.3481
3.408	25.2476
3.42768	25.1474
3.44747	25.0476
3.46737	24.9481
3.48739	24.8489
3.50752	24.7501
3.52777	24.6517
3.54813	24.5535
3.56862	24.4557
3.58922	24.3583
3.60994	24.2611
3.63078	24.1644
3.65174	24.0679
3.67282	23.9718
3.69403	23.876
3.71535	23.7805
3.7368	23.6854
3.75837	23.5906
3.78007	23.4961
3.80189	23.4019
3.82384	23.3081
3.84592	23.2146
3.86812	23.1214
3.89045	23.0286
3.91291	22.936
3.9355	22.8438
3.95822	22.7519
3.98107	22.6603
4.00405	22.569
4.02717	22.4781
4.05042	22.3874
4.0738	22.2971
4.09732	22.2071
4.12098	22.1174
4.14477	22.028
4.16869	21.9389
4.19276	21.8502
4.21697	21.7617
4.24131	21.6735
4.2658	21.5857
4.29042	21.4981
4.31519	21.4109
4.3401	21.324
4.36516	21.2373
4.39036	21.151
4.4157	21.065
4.4412	20.9793
4.46684	20.8938
4.49262	20.8087
4.51856	20.7239
4.54465	20.6393
4.57088	20.5551
4.59727	20.4711
4.62381	20.3875
4.6505	20.3041
4.67735	20.2211
4.70435	20.1383
4.73151	20.0558
4.75883	19.9736
4.7863	19.8917
4.81393	19.8101
4.84172	19.7288
4.86968	19.6477
4.89779	19.567
4.92606	19.4865
4.9545	19.4063
4.9831	19.3264
5.01187	19.2468
5.04081	19.1674
5.06991	19.0884
5.09918	19.0096
5.12861	18.9311
5.15822	18.8529
5.188	18.775
5.21795	18.6973
5.24807	18.6199
5.27837	18.5428
5.30884	18.466
5.33949	18.3894
5.37032	18.3131
5.40132	18.2371
5.4325	18.1614
5.46387	18.0859
5.49541	18.0107
5.52713	17.9358
5.55904	17.8611
5.59114	17.7867
5.62341	17.7126
5.65588	17.6387
5.68853	17.5651
5.72137	17.4918
5.7544	17.4187
5.78762	17.3459
5.82103	17.2734
5.85464	17.2011
5.88844	17.1291
5.92243	17.0574
5.95662	16.9859
5.99101	16.9146
6.0256	16.8437
6.06038	16.7729
6.09537	16.7025
6.13056	16.6323
6.16595	16.5623
6.20155	16.4927
6.23735	16.4232
6.27336	16.354
6.30957	16.2851
6.346	16.2164
6.38263	16.148
6.41948	16.0798
6.45654	16.0119
6.49382	15.9442
6.53131	15.8768
6.56901	15.8096
6.60693	15.7427
6.64508	15.676
6.68344	15.6096
6.72202	15.5434
6.76083	15.4775
6.79986	15.4118
6.83912	15.3463
6.8786	15.2811
6.91831	15.2161
6.95825	15.1514
6.99842	15.0869
7.03882	15.0226
7.07946	14.9586
7.12033	14.8948
7.16143	14.8313
7.20278	14.768
7.24436	14.705
7.28618	14.6421
7.32825	14.5795
7.37055	14.5172
7.4131	14.4551
7.4559	14.3932
7.49894	14.3315
7.54223	14.2701
7.58578	14.2089
7.62957	14.148
7.67361	14.0872
7.71792	14.0267
7.76247	13.9664
7.80728	13.9064
7.85236	13.8466
7.89769	13.787
7.94328	13.7276
7.98914	13.6685
8.03526	13.6096
8.08165	13.5509
8.12831	13.4924
8.17523	13.4342
8.22243	13.3762
8.2699	13.3184
8.31764	13.2608
8.36566	13.2034
8.41395	13.1463
8.46253	13.0894
8.51138	13.0327
8.56052	12.9762
8.60994	12.9199
8.65964	12.8639
8.70964	12.808
8.75992	12.7524
8.81049	12.697
8.86135	12.6418
8.91251	12.5868
8.96396	12.5321
9.01571	12.4775
9.06776	12.4232
9.12011	12.369
9.17276	12.3151
9.22571	12.2614
9.27897	12.2079
9.33254	12.1546
9.38642	12.1015
9.44061	12.0486
9.49511	11.9959
9.54993	11.9435
9.60506	11.8912
9.66051	11.8391
9.71628	11.7873
9.77237	11.7356
9.82879	11.6842
9.88553	11.6329
9.9426	11.5819
10	11.531
10.0577	11.4804
10.1158	11.4299
10.1742	11.3797
10.2329	11.3296
10.292	11.2798
10.3514	11.2301
10.4112	11.1807
10.4713	11.1314
10.5317	11.0823
10.5925	11.0334
10.6537	10.9848
10.7152	10.9363
10.7771	10.888
10.8393	10.8399
10.9018	10.792
10.9648	10.7442
11.0281	10.6967
11.0917	10.6494
11.1558	10.6022
11.2202	10.5552
11.285	10.5085
11.3501	10.4619
11.4156	10.4155
11.4815	10.3692
11.5478	10.3232
11.6145	10.2774
11.6815	10.2317
11.749	10.1862
11.8168	10.1409
11.885	10.0958
11.9536	10.0509
12.0226	10.0061
12.0921	9.96155
12.1619	9.91716
12.2321	9.87295
12.3027	9.82892
12.3737	9.78506
12.4451	9.74138
12.517	9.69788
12.5893	9.65456
12.6619	9.61141
12.735	9.56844
12.8086	9.52564
12.8825	9.48302
12.9569	9.44057
13.0317	9.39829
13.1069	9.35619
13.1826	9.31425
13.2587	9.27249
13.3352	9.2309
13.4122	9.18948
13.4896	9.14823
13.5675	9.10715
13.6458	9.06623
13.7246	9.02549
13.8038	8.98491
13.8835	8.9445
13.9637	8.90425
14.0443	8.86417
14.1254	8.82425
14.2069	8.7845
14.2889	8.74492
14.3714	8.70549
14.4544	8.66623
14.5378	8.62713
14.6218	8.5882
14.7062	8.54942
14.7911	8.51081
14.8765	8.47235
14.9624	8.43405
15.0487	8.39592
15.1356	8.35794
15.223	8.32012
15.3109	8.28245
15.3993	8.24495
15.4882	8.20759
15.5776	8.1704
15.6675	8.13336
15.758	8.09647
15.8489	8.05974
15.9404	8.02316
16.0325	7.98674
16.125	7.95046
16.2181	7.91434
16.3117	7.87837
16.4059	7.84255
16.5006	7.80688
16.5959	7.77136
16.6917	7.73599
16.788	7.70077
16.885	7.66569
16.9824	7.63077
17.0805	7.59599
17.1791	7.56136
17.2783	7.52687
17.378	7.49253
17.4783	7.45833
17.5792	7.42428
17.6807	7.39037
17.7828	7.3566
17.8855	7.32298
17.9887	7.28888
18.0926	7.25456
18.197	7.2204
18.3021	7.18639
18.4077	7.15254
18.514	7.11885
18.6209	7.08531
18.7284	7.05194
18.8365	7.01871
18.9452	6.98564
19.0546	6.95273
19.1646	6.91997
19.2752	6.88736
19.3865	6.8549
19.4984	6.82259
19.611	6.79043
19.7242	6.75843
19.8381	6.72657
19.9526	6.69486
20.0678	6.6633
20.1837	6.63189
20.3002	6.60062
20.4174	6.56949
20.5353	6.53852
20.6538	6.50768
20.773	6.47699
20.893	6.44645
21.0136	6.41605
21.1349	6.38578
21.2569	6.35567
21.3796	6.32569
21.503	6.29585
21.6272	6.26615
21.752	6.23659
21.8776	6.20716
22.0039	6.17788
22.1309	6.14873
22.2587	6.11972
22.3872	6.09084
22.5165	6.06405
22.6464	6.03541
22.7772	6.0069
22.9087	5.97852
23.0409	5.95028
23.1739	5.92216
23.3077	5.89418
23.4423	5.86634
23.5776	5.83862
23.7137	5.81103
23.8506	5.78366
23.9883	5.75632
24.1268	5.72912
24.2661	5.70204
24.4062	5.67509
24.5471	5.64826
24.6888	5.62157
24.8313	5.595
24.9747	5.56856
25.1189	5.54224
25.2639	5.51604
25.4097	5.48997
25.5564	5.46402
25.704	5.43819
25.8523	5.41248
26.0016	5.38689
26.1517	5.36143
26.3027	5.33608
26.4545	5.31085
26.6073	5.28574
26.7609	5.26074
26.9153	5.23587
27.0707	5.21111
27.227	5.18646
27.3842	5.16193
27.5423	5.13752
27.7013	5.11322
27.8612	5.08903
28.0221	5.06496
28.1838	5.041
28.3465	5.01716
28.5102	4.99342
28.6748	4.9698
28.8403	4.94629
29.0068	4.92289
29.1743	4.89959
29.3427	4.87641
29.5121	4.85334
29.6825	4.83037
29.8538	4.80752
30.0262	4.78477
30.1995	4.76213
30.3739	4.73959
30.5492	4.71716
30.7256	4.69483
30.903	4.67262
31.0814	4.6505
31.2608	4.62849
31.4413	4.60658
31.6228	4.58594
31.8053	4.56422
31.989	4.5426
32.1736	4.52109
32.3594	4.49968
32.5462	4.47836
32.7341	4.45715
32.923	4.43604
33.1131	4.41503
33.3043	4.39411
33.4965	4.3733
33.6899	4.35258
33.8844	4.33196
34.08	4.31144
34.2768	4.29101
34.4747	4.27068
34.6737	4.25045
34.8739	4.23031
35.0752	4.21027
35.2777	4.19033
35.4813	4.17047
35.6862	4.15071
35.8922	4.13105
36.0994	4.11148
36.3078	4.092
36.5174	4.07261
36.7282	4.05331
36.9403	4.03411
37.1535	4.01499
37.368	3.99597
37.5837	3.97704
37.8007	3.9582
38.0189	3.93944
38.2384	3.92078
38.4592	3.9022
38.6812	3.88371
38.9045	3.86531
39.1291	3.847
39.355	3.82877
39.5822	3.81063
39.8107	3.79257
40.0405	3.7746
40.2717	3.75672
40.5042	3.73892
40.738	3.72121
40.9732	3.70357
41.2098	3.68603
41.4477	3.66856
41.6869	3.65118
41.9276	3.63389
42.1697	3.61667
42.4131	3.59954
42.658	3.58248
42.9042	3.56551
43.1519	3.54862
43.401	3.53181
43.6516	3.51508
43.9036	3.49843
44.157	3.48186
44.412	3.46537
44.6684	3.44895
44.9262	3.43261
45.1856	3.41635
45.4465	3.40017
45.7088	3.38407
45.9727	3.36805
46.2381	3.3521
46.505	3.33623
46.7735	3.32043
47.0435	3.30471
47.3151	3.28907
47.5883	3.2735
47.863	3.258
48.1393	3.24258
48.4172	3.22723
48.6968	3.21195
48.9779	3.19674
49.2606	3.18161
49.545	3.16655
49.831	3.15157
50.1187	3.13665
50.4081	3.12181
50.6991	3.10703
50.9918	3.09233
51.2861	3.07769
51.5822	3.06313
51.88	3.04863
52.1795	3.03421
52.4807	3.01985
52.7837	3.00556
53.0884	2.99134
53.3949	2.97719
53.7032	2.96311
54.0132	2.94909
54.325	2.93514
54.6387	2.92125
54.9541	2.90744
55.2713	2.89369
55.5904	2.88
55.9114	2.86638
56.2341	2.85282
56.5588	2.83933
56.8853	2.82591
57.2137	2.81255
57.544	2.79925
57.8762	2.78601
58.2103	2.77284
58.5464	2.75974
58.8844	2.74669
59.2243	2.73371
59.5662	2.72079
59.9101	2.70793
60.256	2.69513
60.6038	2.68239
60.9537	2.66972
61.3056	2.65711
61.6595	2.64455
62.0155	2.63206
62.3735	2.61963
62.7336	2.60725
63.0957	2.59494
63.46	2.58268
63.8263	2.57049
64.1948	2.55835
64.5654	2.54627
64.9382	2.53425
65.3131	2.52228
65.6901	2.51038
66.0693	2.49853
66.4508	2.48674
66.8344	2.475
67.2202	2.46332
67.6083	2.4517
67.9986	2.44013
68.3912	2.42862
68.786	2.41716
69.1831	2.40576
69.5825	2.39441
69.9842	2.38312
70.3882	2.37189
70.7946	2.3607
71.2033	2.34957
71.6143	2.3385
72.0278	2.32747
72.4436	2.31651
72.8618	2.30559
73.2825	2.29472
73.7055	2.28391
74.131	2.27315
74.559	2.26245
74.9894	2.25179
75.4223	2.24119
75.8578	2.23063
76.2957	2.22013
76.7361	2.20968
77.1792	2.19927
77.6247	2.18892
78.0728	2.17862
78.5236	2.16837
78.9769	2.15817
79.4328	2.14802
79.8914	2.13791
80.3526	2.12786
80.8165	2.11785
81.2831	2.1079
81.7523	2.09799
82.2243	2.08813
82.699	2.07831
83.1764	2.06855
83.6566	2.05883
84.1395	2.04916
84.6253	2.03953
85.1138	2.02996
85.6052	2.02042
86.0994	2.01094
86.5964	2.0015
87.0964	1.9921
87.5992	1.98275
88.1049	1.97345
88.6135	1.96419
89.1251	1.95498
89.6396	1.94581
90.1571	1.93669
90.6776	1.92761
91.2011	1.91857
91.7276	1.90958
92.2571	1.90063
92.7897	1.89173
93.3254	1.88287
93.8642	1.87405
94.4061	1.86527
94.9511	1.85654
95.4993	1.84785
96.0506	1.8392
96.6051	1.8306
97.1628	1.82203
97.7237	1.81351
98.2879	1.80503
98.8553	1.79659
99.426	1.78819
100	1.77983
100.577	1.77152
101.158	1.76324
101.742	1.755
102.329	1.74681
102.92	1.73865
103.514	1.73053
104.112	1.72246
104.713	1.71442
105.317	1.70642
105.925	1.69846
106.537	1.69054
107.152	1.68266
107.771	1.67482
108.393	1.66701
109.018	1.65925
109.648	1.65152
110.281	1.64383
110.917	1.63617
111.558	1.62856
112.202	1.62098
112.85	1.61344
113.501	1.60593
114.156	1.59846
114.815	1.59103
115.478	1.58364
116.145	1.57628
116.815	1.56896
117.49	1.56167
118.168	1.55442
118.85	1.5472
119.536	1.54002
120.226	1.53288
120.921	1.52576
121.619	1.51869
122.321	1.51165
123.027	1.50464
123.737	1.49767
124.451	1.49073
125.17	1.48383
125.893	1.47696
126.619	1.47012
127.35	1.46332
128.086	1.45655
128.825	1.44981
129.569	1.44311
130.317	1.43644
131.069	1.42981
131.826	1.4232
132.587	1.41663
133.352	1.41009
134.122	1.40358
134.896	1.39711
135.675	1.39066
136.458	1.38425
137.246	1.37787
138.038	1.37152
138.835	1.36521
139.637	1.35892
140.443	1.35266
141.254	1.34644
142.069	1.34024
142.889	1.33408
143.714	1.32795
144.544	1.32185
145.378	1.31577
146.218	1.30973
147.062	1.30372
147.911	1.29773
148.765	1.29178
149.624	1.28586
150.487	1.27996
151.356	1.2741
152.23	1.26826
153.109	1.26245
153.993	1.25667
154.882	1.25092
155.776	1.2452
156.675	1.23951
157.58	1.23384
158.489	1.2282
159.404	1.22259
160.325	1.21701
161.25	1.21146
162.181	1.20593
163.117	1.20043
164.059	1.19496
165.006	1.18951
165.959	1.1841
166.917	1.17871
167.88	1.17334
168.85	1.168
169.824	1.16269
170.805	1.15741
171.791	1.15215
172.783	1.14692
173.78	1.14171
174.783	1.13653
175.792	1.13137
176.807	1.12625
177.828	1.12114
178.855	1.11606
179.887	1.11101
180.926	1.10598
181.97	1.10098
183.021	1.096
184.077	1.09105
185.14	1.08612
186.209	1.08122
187.284	1.07634
188.365	1.07148
189.452	1.06665
190.546	1.06185
191.646	1.05706
192.752	1.0523
193.865	1.04757
194.984	1.04286
196.11	1.03817
197.242	1.0335
198.381	1.02886
199.526	1.02425
200.678	1.01965
201.837	1.01508
203.002	1.01053
204.174	1.006
205.353	1.0015
206.538	0.997018
207.73	0.992559
208.93	0.988123
210.136	0.983709
211.349	0.979317
212.569	0.974947
213.796	0.970599
215.03	0.966273
216.272	0.961968
217.52	0.957685
218.776	0.953424
220.039	0.949184
221.309	0.944965
222.587	0.940767
223.872	0.936591
225.165	0.932435
226.464	0.928301
227.772	0.924187
229.087	0.920094
230.409	0.916021
231.739	0.911969
233.077	0.907937
234.423	0.903926
235.776	0.899935
237.137	0.895964
238.506	0.892013
239.883	0.888082
241.268	0.884171
242.661	0.880279
244.062	0.876407
245.471	0.872555
246.888	0.868722
248.313	0.864908
249.747	0.861114
251.189	0.857339
252.639	0.853583
254.097	0.849846
255.564	0.846128
257.04	0.842428
258.523	0.838748
260.016	0.835086
261.517	0.831442
263.027	0.827817
264.545	0.824211
266.073	0.820622
267.609	0.817052
269.153	0.8135
270.707	0.809966
272.27	0.80645
273.842	0.802952
275.423	0.799471
277.013	0.796008
278.612	0.792563
280.221	0.789135
281.838	0.785725
283.465	0.782332
285.102	0.778956
286.748	0.775598
288.403	0.772256
290.068	0.768932
291.743	0.765624
293.427	0.762334
295.121	0.75906
296.825	0.755803
298.538	0.752562
300.262	0.749338
301.995	0.746131
303.739	0.742939
305.492	0.739764
307.256	0.736606
309.03	0.733463
310.814	0.730337
312.608	0.727226
314.413	0.724132
316.228	0.721053
318.053	0.71799
319.89	0.714943
321.736	0.711911
323.594	0.708895
325.462	0.705894
327.341	0.702909
329.23	0.699939
331.131	0.696984
333.043	0.694044
334.965	0.69112
336.899	0.68821
338.844	0.685316
340.8	0.682436
342.768	0.679571
344.747	0.676721
346.737	0.673886
348.739	0.671065
350.752	0.668258
352.777	0.665467
354.813	0.662689
356.862	0.659926
358.922	0.657177
360.994	0.654442
363.078	0.651722
365.174	0.649015
367.282	0.646323
369.403	0.643644
371.535	0.640979
373.68	0.638328
375.837	0.635691
378.007	0.633067
380.189	0.630457
382.384	0.62786
384.592	0.625277
386.812	0.622708
389.045	0.620151
391.291	0.617608
393.55	0.615078
395.822	0.612561
398.107	0.610058
400.405	0.607567
402.717	0.605089
405.042	0.602624
407.38	0.600172
409.732	0.597733
412.098	0.595307
414.477	0.592893
416.869	0.590491
419.276	0.588102
421.697	0.585726
424.131	0.583362
426.58	0.581011
429.042	0.578671
431.519	0.576344
434.01	0.574029
436.516	0.571726
439.036	0.569436
441.57	0.567157
444.12	0.56489
446.684	0.562635
449.262	0.560392
451.856	0.558161
454.465	0.555941
457.088	0.553733
459.727	0.551537
462.381	0.549352
465.05	0.547179
467.735	0.545017
470.435	0.542866
473.151	0.540727
475.883	0.538599
478.63	0.536482
481.393	0.534377
484.172	0.532282
486.968	0.530199
489.779	0.528127
492.606	0.526065
495.45	0.524015
498.31	0.521975
501.187	0.519946
504.081	0.517928
506.991	0.51592
509.918	0.513924
512.861	0.511937
515.822	0.509962
518.8	0.507997
521.795	0.506042
524.807	0.504098
527.837	0.502164
530.884	0.50024
533.949	0.498326
537.032	0.496423
540.132	0.49453
543.25	0.492647
546.387	0.490774
549.541	0.488911
552.713	0.487058
555.904	0.485215
559.114	0.483382
562.341	0.481558
565.588	0.479745
568.853	0.477941
572.137	0.476147
575.44	0.474362
578.762	0.472587
582.103	0.470821
585.464	0.469065
588.844	0.467319
592.243	0.465582
595.662	0.463854
599.101	0.462135
602.56	0.460426
606.038	0.458726
609.537	0.457035
613.056	0.455353
616.595	0.453681
620.155	0.452017
623.735	0.450363
627.336	0.448717
630.957	0.44708
634.6	0.445453
638.263	0.443834
641.948	0.442224
645.654	0.440622
649.382	0.439029
653.131	0.437445
656.901	0.43587
660.693	0.434303
664.508	0.432745
668.344	0.431195
672.202	0.429654
676.083	0.428121
679.986	0.426597
683.912	0.42508
687.86	0.423573
691.831	0.422073
695.825	0.420582
699.842	0.419099
703.882	0.417624
707.946	0.416157
712.033	0.414698
716.143	0.413247
720.278	0.411804
724.436	0.41037
728.618	0.408943
732.825	0.407524
737.055	0.406113
741.31	0.404709
745.59	0.403314
749.894	0.401926
754.223	0.400546
758.578	0.399173
762.957	0.397809
767.361	0.396451
771.792	0.395102
776.247	0.39376
780.728	0.392425
785.236	0.391098
789.769	0.389778
794.328	0.388465
798.914	0.38716
803.526	0.385863
808.165	0.384572
812.831	0.383289
817.523	0.382013
822.243	0.380744
826.99	0.379482
831.764	0.378228
836.566	0.37698
841.395	0.375739
846.253	0.374506
851.138	0.373279
856.052	0.37206
860.994	0.370847
865.964	0.369641
870.964	0.368442
875.992	0.36725
881.049	0.366065
886.135	0.364886
891.251	0.363714
896.396	0.362549
901.571	0.36139
906.776	0.360239
912.011	0.359093
917.276	0.357954
922.571	0.356822
927.897	0.355696
933.254	0.354577
938.642	0.353464
944.061	0.352358
949.511	0.351258
954.993	0.350164
960.506	0.349077
966.051	0.347995
971.628	0.346921
977.237	0.345852
982.879	0.344789
988.553	0.343733
994.26	0.342683
1000	0.341639
1005.77	0.340601
1011.58	0.339569
1017.42	0.338544
1023.29	0.337524
1029.2	0.33651
1035.14	0.335502
1041.12	0.3345
1047.13	0.333504
1053.17	0.332514
1059.25	0.331529
1065.37	0.330551
1071.52	0.329578
1077.71	0.328611
1083.93	0.32765
1090.18	0.326694
1096.48	0.325744
1102.81	0.3248
1109.17	0.323861
1115.58	0.322928
1122.02	0.322
1128.5	0.321078
1135.01	0.320162
1141.56	0.319251
1148.15	0.318346
1154.78	0.317446
1161.45	0.316551
1168.15	0.315662
1174.9	0.314778
1181.68	0.313899
1188.5	0.313026
1195.36	0.312158
1202.26	0.311296
1209.21	0.310438
1216.19	0.309586
1223.21	0.308739
1230.27	0.307897
1237.37	0.307061
1244.51	0.306229
1251.7	0.305403
1258.93	0.304581
1266.19	0.303765
1273.5	0.302954
1280.86	0.302148
1288.25	0.301346
1295.69	0.30055
1303.17	0.299759
1310.69	0.298972
1318.26	0.298191
1325.87	0.297414
1333.52	0.296642
1341.22	0.295875
1348.96	0.295113
1356.75	0.294356
1364.58	0.293603
1372.46	0.292855
1380.38	0.292112
1388.35	0.291373
1396.37	0.290639
1404.43	0.28991
1412.54	0.289186
1420.69	0.288466
1428.89	0.28775
1437.14	0.28704
1445.44	0.286333
1453.78	0.285632
1462.18	0.284934
1470.62	0.284242
1479.11	0.283553
1487.65	0.28287
1496.24	0.28219
1504.87	0.281515
1513.56	0.280845
1522.3	0.280178
1531.09	0.279516
1539.93	0.278859
1548.82	0.278206
1557.76	0.277557
1566.75	0.276912
1575.8	0.276271
1584.89	0.275635
1594.04	0.275003
1603.25	0.274375
1612.5	0.273752
1621.81	0.273132
1631.17	0.272517
1640.59	0.271905
1650.06	0.271298
1659.59	0.270695
1669.17	0.270096
1678.8	0.269501
1688.5	0.26891
1698.24	0.268323
1708.05	0.26774
1717.91	0.267161
1727.83	0.266586
1737.8	0.266015
1747.83	0.265447
1757.92	0.264884
1768.07	0.264324
1778.28	0.263769
1788.55	0.263217
1798.87	0.262669
1809.26	0.262125
1819.7	0.261584
1830.21	0.261048
1840.77	0.260515
1851.4	0.259986
1862.09	0.25946
1872.84	0.258939
1883.65	0.258421
1894.52	0.257906
1905.46	0.257396
1916.46	0.256889
1927.52	0.256385
1938.65	0.255885
1949.84	0.255389
1961.1	0.254896
1972.42	0.254407
1983.81	0.253922
1995.26	0.25344
2006.78	0.252961
2018.37	0.252486
2030.02	0.252015
2041.74	0.251547
2053.53	0.251082
2065.38	0.250621
2077.3	0.250163
2089.3	0.249708
2101.36	0.249257
2113.49	0.24881
2125.69	0.248365
2137.96	0.247925
2150.3	0.247487
2162.72	0.247053
2175.2	0.246621
2187.76	0.246194
2200.39	0.245769
2213.09	0.245348
2225.87	0.24493
2238.72	0.244515
2251.65	0.244104
2264.64	0.243695
2277.72	0.24329
2290.87	0.242888
2304.09	0.242489
2317.39	0.242093
2330.77	0.241701
2344.23	0.241311
2357.76	0.240925
2371.37	0.240541
2385.06	0.240161
2398.83	0.239784
2412.68	0.239409
2426.61	0.239038
2440.62	0.23867
2454.71	0.238305
2468.88	0.237942
2483.13	0.237583
2497.47	0.237227
2511.89	0.236874
2526.39	0.236523
2540.97	0.236176
2555.64	0.235831
2570.4	0.235489
2585.23	0.23515
2600.16	0.234814
2615.17	0.234481
2630.27	0.234151
2645.45	0.233824
2660.73	0.233499
2676.09	0.233177
2691.53	0.232858
2707.07	0.232542
2722.7	0.232228
2738.42	0.231917
2754.23	0.231609
2770.13	0.231304
2786.12	0.231001
2802.21	0.230701
2818.38	0.230404
2834.65	0.23011
2851.02	0.229818
2867.48	0.229528
2884.03	0.229242
2900.68	0.228958
2917.43	0.228667
2934.27	0.228364
2951.21	0.228063
2968.25	0.227764
2985.38	0.227468
3002.62	0.227175
3019.95	0.226884
3037.39	0.226595
3054.92	0.226309
3072.56	0.226026
3090.3	0.225745
3108.14	0.225466
3126.08	0.22519
3144.13	0.224916
3162.28	0.224645
3180.53	0.224376
3198.9	0.224109
3217.36	0.223845
3235.94	0.223583
3254.62	0.223324
3273.41	0.223067
3292.3	0.222812
3311.31	0.222559
3330.43	0.222309
3349.65	0.222061
3368.99	0.221816
3388.44	0.221572
3408	0.221331
3427.68	0.221092
3447.47	0.220856
3467.37	0.220622
3487.39	0.220389
3507.52	0.22016
3527.77	0.219932
3548.13	0.219706
3568.62	0.219483
3589.22	0.219262
3609.94	0.219043
3630.78	0.218826
3651.74	0.218611
3672.82	0.218398
3694.03	0.218188
3715.35	0.217979
3736.8	0.217773
3758.37	0.217569
3780.07	0.217367
3801.89	0.217167
3823.84	0.216968
3845.92	0.216772
3868.12	0.216578
3890.45	0.216386
3912.91	0.216196
3935.5	0.216008
3958.22	0.215822
3981.07	0.215638
4004.05	0.215456
4027.17	0.215276
4050.42	0.215098
4073.8	0.214922
4097.32	0.214748
4120.98	0.214575
4144.77	0.214405
4168.69	0.214236
4192.76	0.21407
4216.97	0.213905
4241.31	0.213742
4265.8	0.213581
4290.42	0.213422
4315.19	0.213264
4340.1	0.213109
4365.16	0.212955
4390.36	0.212803
4415.7	0.212653
4441.2	0.212505
4466.84	0.212358
4492.62	0.212213
4518.56	0.21207
4544.65	0.211929
4570.88	0.21179
4597.27	0.211652
4623.81	0.211516
4650.5	0.211382
4677.35	0.211249
4704.35	0.211118
4731.51	0.210989
4758.83	0.210862
4786.3	0.210736
4813.93	0.210612
4841.72	0.210489
4869.68	0.210368
4897.79	0.210249
4926.06	0.210131
4954.5	0.210015
4983.1	0.209901
5011.87	0.209788
5040.81	0.209677
5069.91	0.209568
5099.18	0.20946
5128.61	0.209353
5158.22	0.209248
5188	0.209145
5217.95	0.209043
5248.07	0.208943
5278.37	0.208844
5308.84	0.208747
5339.49	0.208651
5370.32	0.208557
5401.32	0.208465
5432.5	0.208373
5463.87	0.208284
5495.41	0.208196
5527.13	0.208109
5559.04	0.208023
5591.14	0.20794
5623.41	0.207857
5655.88	0.207776
5688.53	0.207697
5721.37	0.207618
5754.4	0.207542
5787.62	0.207466
5821.03	0.207392
5854.64	0.20732
5888.44	0.207248
5922.43	0.207179
5956.62	0.20711
5991.01	0.207043
6025.6	0.206977
6060.38	0.206913
6095.37	0.206849
6130.56	0.206788
6165.95	0.206727
6201.55	0.206668
6237.35	0.20661
6273.36	0.206553
6309.57	0.206498
6346	0.206444
6382.63	0.206391
6419.48	0.20634
6456.54	0.206289
6493.82	0.20624
6531.31	0.206192
6569.01	0.206146
6606.93	0.2061
6645.08	0.206056
6683.44	0.206013
6722.02	0.205972
6760.83	0.205931
6799.86	0.205892
6839.12	0.205854
6878.6	0.205817
6918.31	0.205781
6958.25	0.205746
6998.42	0.205713
7038.82	0.20568
7079.46	0.205649
7120.33	0.205619
7161.43	0.20559
7202.78	0.205562
7244.36	0.205535
7286.18	0.20551
7328.25	0.205485
7370.55	0.205462
7413.1	0.205439
7455.9	0.205418
7498.94	0.205398
7542.23	0.205378
7585.78	0.20536
7629.57	0.205343
7673.61	0.205327
7717.92	0.205312
7762.47	0.205298
7807.28	0.205285
7852.36	0.205273
7897.69	0.205263
7943.28	0.205253
7989.14	0.205244
8035.26	0.205236
8081.65	0.205229
8128.31	0.205223
8175.23	0.205218
8222.43	0.205214
8269.9	0.205211
8317.64	0.205209
8365.66	0.205208
8413.95	0.205208
8462.53	0.205208
8511.38	0.20521
8560.52	0.205213
8609.94	0.205216
8659.64	0.20522
8709.64	0.205226
8759.92	0.205232
8810.49	0.205239
8861.35	0.205247
8912.51	0.205256
8963.96	0.205266
9015.71	0.205276
9067.76	0.205288
9120.11	0.2053
9172.76	0.205313
9225.71	0.205327
9278.97	0.205342
9332.54	0.205358
9386.42	0.205375
9440.61	0.205392
9495.11	0.20541
9549.93	0.205429
9605.06	0.205449
9660.51	0.20547
9716.28	0.205491
9772.37	0.205513
9828.79	0.205536
9885.53	0.20556
9942.6	0.205585
10000	0.20561
10057.7	0.205636
10115.8	0.205663
10174.2	0.20569
10232.9	0.205719
10292	0.205748
10351.4	0.205778
10411.2	0.205808
10471.3	0.20584
10531.7	0.205872
10592.5	0.205904
10653.7	0.205938
10715.2	0.205972
10777.1	0.206007
10839.3	0.206042
10901.8	0.206078
10964.8	0.206115
11028.1	0.206153
11091.7	0.206191
11155.8	0.20623
11220.2	0.20627
11285	0.20631
11350.1	0.206351
11415.6	0.206392
11481.5	0.206435
11547.8	0.206478
11614.5	0.206521
11681.5	0.206565
11749	0.20661
11816.8	0.206655
11885	0.206701
11953.6	0.206748
12022.6	0.206795
12092.1	0.206843
12161.9	0.206891
12232.1	0.20694
12302.7	0.20699
12373.7	0.20704
12445.1	0.207091
12517	0.207142
12589.3	0.207194
12661.9	0.207247
12735	0.2073
12808.6	0.207353
12882.5	0.207408
12956.9	0.207462
13031.7	0.207518
13106.9	0.207573
13182.6	0.20763
13258.7	0.207687
13335.2	0.207744
13412.2	0.207802
13489.6	0.207861
13567.5	0.20792
13645.8	0.207979
13724.6	0.208039
13803.8	0.2081
13883.5	0.208161
13963.7	0.208222
14044.3	0.208284
14125.4	0.208347
14206.9	0.20841
14288.9	0.208473
14371.4	0.208537
14454.4	0.208601
14537.8	0.208666
14621.8	0.208732
14706.2	0.208797
14791.1	0.208864
14876.5	0.20893
14962.4	0.208998
15048.7	0.209065
15135.6	0.209133
15223	0.209202
15310.9	0.209271
15399.3	0.20934
15488.2	0.20941
15577.6	0.20948
15667.5	0.209551
15758	0.209622
15848.9	0.209693
15940.4	0.209765
16032.5	0.209837
16125	0.20991
16218.1	0.209983
16311.7	0.210057
16405.9	0.210131
16500.6	0.210205
16595.9	0.210279
16691.7	0.210354
16788	0.21043
16885	0.210506
16982.4	0.210582
17080.5	0.210658
17179.1	0.210735
17278.3	0.210813
17378	0.21089
17478.3	0.210968
17579.2	0.211046
17680.7	0.211125
17782.8	0.211204
17885.5	0.211283
17988.7	0.211363
18092.6	0.211443
18197	0.211524
18302.1	0.211604
18407.7	0.211685
18514	0.211767
18620.9	0.211848
18728.4	0.21193
18836.5	0.212013
18945.2	0.212095
19054.6	0.212178
19164.6	0.212262
19275.2	0.212345
19386.5	0.212429
19498.4	0.212513
19611	0.212598
19724.2	0.212682
19838.1	0.212767
19952.6	0.212853
20067.8	0.212938
20183.7	0.213024
20300.2	0.21311
20417.4	0.213197
20535.3	0.213283
20653.8	0.21337
20773	0.213458
20893	0.213545
21013.6	0.213633
21134.9	0.213721
21256.9	0.213809
21379.6	0.213898
21503	0.213987
21627.2	0.214076
21752	0.214165
21877.6	0.214255
22003.9	0.214344
22130.9	0.214434
22258.7	0.214525
22387.2	0.214615
22516.5	0.214706
22646.4	0.214797
22777.2	0.214888
22908.7	0.21498
23040.9	0.215071
23173.9	0.215163
23307.7	0.215255
23442.3	0.215347
23577.6	0.21544
23713.7	0.215533
23850.6	0.215626
23988.3	0.215719
24126.8	0.215812
24266.1	0.215906
24406.2	0.216
24547.1	0.216093
24688.8	0.216188
24831.3	0.216282
24974.7	0.216377
25118.9	0.216471
25263.9	0.216566
25409.7	0.216661
25556.4	0.216757
25704	0.216852
25852.3	0.216948
26001.6	0.217044
26151.7	0.21714
26302.7	0.217236
26454.5	0.217332
26607.3	0.217429
26760.9	0.217525
26915.3	0.217622
27070.7	0.217719
27227	0.217816
27384.2	0.217914
27542.3	0.218011
27701.3	0.218109
27861.2	0.218207
28022.1	0.218305
28183.8	0.218403
28346.5	0.218501
28510.2	0.218599
28674.8	0.218698
28840.3	0.218797
29006.8	0.218896
29174.3	0.218995
29342.7	0.219094
29512.1	0.219193
29682.5	0.219292
29853.8	0.219392
30026.2	0.219491
30199.5	0.219591
30373.9	0.219691
30549.2	0.219791
30725.6	0.219891
30903	0.219992
31081.4	0.220092
31260.8	0.220193
31441.3	0.220293
31622.8	0.220394
31805.3	0.220495
31989	0.220596
32173.6	0.220697
32359.4	0.220798
32546.2	0.2209
32734.1	0.221001
32923	0.221103
33113.1	0.221204
33304.3	0.221306
33496.5	0.221408
33689.9	0.22151
33884.4	0.221612
34080	0.221714
34276.8	0.221816
34474.7	0.221919
34673.7	0.222021
34873.9	0.222124
35075.2	0.222226
35277.7	0.222329
35481.3	0.222432
35686.2	0.222535
35892.2	0.222638
36099.4	0.222741
36307.8	0.222844
36517.4	0.222947
36728.2	0.223051
36940.3	0.223154
37153.5	0.223258
37368	0.223361
37583.7	0.223465
37800.7	0.223568
38018.9	0.223672
38238.4	0.223776
38459.2	0.22388
38681.2	0.223984
38904.5	0.224088
39129.1	0.224192
39355	0.224296
39582.2	0.224401
39810.7	0.224505
40040.5	0.224609
40271.7	0.224714
40504.2	0.224818
40738	0.224923
40973.2	0.225028
41209.8	0.225132
41447.7	0.225237
41686.9	0.225342
41927.6	0.225447
42169.7	0.225552
42413.1	0.225657
42658	0.225762
42904.2	0.225867
43151.9	0.225972
43401	0.226077
43651.6	0.226182
43903.6	0.226287
44157	0.226393
44412	0.226498
44668.4	0.226603
44926.2	0.226709
45185.6	0.226814
45446.5	0.22692
45708.8	0.227025
45972.7	0.227131
46238.1	0.227237
46505	0.227342
46773.5	0.227448
47043.5	0.227554
47315.1	0.22766
47588.3	0.227765
47863	0.227871
48139.3	0.227977
48417.2	0.228083
48696.8	0.228189
48977.9	0.228295
49260.6	0.228401
49545	0.228507
49831	0.228613
50118.7	0.228719
50408.1	0.228825
50699.1	0.228931
50991.8	0.229038
51286.1	0.229144
51582.2	0.22925
51880	0.229356
52179.5	0.229462
52480.7	0.229569
52783.7	0.229675
53088.4	0.229781
53394.9	0.229888
53703.2	0.229994
54013.2	0.2301
54325	0.230207
54638.7	0.230313
54954.1	0.23042
55271.3	0.230526
55590.4	0.230632
55911.4	0.230739
56234.1	0.230845
56558.8	0.230952
56885.3	0.231058
57213.7	0.231165
57544	0.231271
57876.2	0.231378
58210.3	0.231484
58546.4	0.231591
58884.4	0.231698
59224.3	0.231804
59566.2	0.231911
59910.1	0.232017
60256	0.232124
60603.8	0.23223
60953.7	0.232337
61305.6	0.232444
61659.5	0.23255
62015.5	0.232657
62373.5	0.232763
62733.6	0.23287
63095.7	0.232977
63460	0.233083
63826.3	0.23319
64194.8	0.233296
64565.4	0.233403
64938.2	0.233509
65313.1	0.233616
65690.1	0.233723
66069.3	0.233829
66450.8	0.233936
66834.4	0.234042
67220.2	0.234149
67608.3	0.234256
67998.6	0.234362
68391.2	0.234469
68786	0.234575
69183.1	0.234682
69582.5	0.234788
69984.2	0.234895
70388.2	0.235001
70794.6	0.235108
71203.3	0.235214
71614.3	0.235321
72027.8	0.235427
72443.6	0.235534
72861.8	0.23564
73282.5	0.235747
73705.5	0.235853
74131	0.235959
74559	0.236066
74989.4	0.236172
75422.3	0.236279
75857.8	0.236385
76295.7	0.236491
76736.1	0.236598
77179.2	0.236704
77624.7	0.23681
78072.8	0.236917
78523.6	0.237023
78976.9	0.237129
79432.8	0.237235
79891.4	0.237342
80352.6	0.237448
80816.5	0.237554
81283.1	0.23766
81752.3	0.237766
82224.3	0.237873
82699	0.237979
83176.4	0.238085
83656.6	0.238191
84139.5	0.238297
84625.3	0.238403
85113.8	0.238509
85605.2	0.238615
86099.4	0.238721
86596.4	0.238827
87096.4	0.238933
87599.2	0.239039
88104.9	0.239145
88613.5	0.239251
89125.1	0.239356
89639.6	0.239462
90157.1	0.239568
90677.6	0.239674
91201.1	0.23978
91727.6	0.239885
92257.1	0.239991
92789.7	0.240097
93325.4	0.240202
93864.2	0.240308
94406.1	0.240414
94951.1	0.240519
95499.3	0.240625
96050.6	0.24073
96605.1	0.240836
97162.8	0.240941
97723.7	0.241047
98287.9	0.241152
98855.3	0.241257
99426	0.241363
100000	0.241468
100577	0.241573
101158	0.241679
101742	0.241784
102329	0.241889
102920	0.241994
103514	0.242099
104112	0.242205
104713	0.24231
105317	0.242415
105925	0.24252
106537	0.242625
107152	0.24273
107771	0.242835
108393	0.24294
109018	0.243045
109648	0.243149
110281	0.243254
110917	0.243359
111558	0.243464
112202	0.243569
112850	0.243673
113501	0.243778
114156	0.243883
114815	0.243987
115478	0.244092
116145	0.244196
116815	0.244301
117490	0.244405
118168	0.24451
118850	0.244614
119536	0.244718
120226	0.244823
120921	0.244927
121619	0.245031
122321	0.245136
123027	0.24524
123737	0.245344
124451	0.245448
125170	0.245552
125893	0.245656
126619	0.24576
127350	0.245864
128086	0.245968
128825	0.246072
129569	0.246176
130317	0.24628
131069	0.246384
131826	0.246487
132587	0.246591
133352	0.246695
134122	0.246798
134896	0.246902
135675	0.247006
136458	0.247109
137246	0.247213
138038	0.247316
138835	0.24742
139637	0.247523
140443	0.247626
141254	0.24773
142069	0.247833
142889	0.247936
143714	0.24804
144544	0.248143
145378	0.248246
146218	0.248349
147062	0.248452
147911	0.248555
148765	0.248658
149624	0.248761
150487	0.248864
151356	0.248967
152230	0.24907
153109	0.249172
153993	0.249275
154882	0.249378
155776	0.249481
156675	0.249583
157580	0.249686
158489	0.249788
159404	0.249891
160325	0.249993
161250	0.250096
162181	0.250198
163117	0.250301
164059	0.250403
165006	0.250505
165959	0.250607
166917	0.25071
167880	0.250812
168850	0.250914
169824	0.251016
170805	0.251118
171791	0.25122
172783	0.251322
173780	0.251424
174783	0.251526
175792	0.251627
176807	0.251729
177828	0.251831
178855	0.251933
179887	0.252034
180926	0.252136
181970	0.252238
183021	0.252339
184077	0.252441
185140	0.252542
186209	0.252644
187284	0.252745
188365	0.252846
189452	0.252948
190546	0.253049
191646	0.25315
192752	0.253251
193865	0.253352
194984	0.253453
196110	0.253554
197242	0.253655
198381	0.253756
199526	0.253857
200678	0.253958
201837	0.254059
203002	0.25416
204174	0.254261
205353	0.254361
206538	0.254462
207730	0.254563
208930	0.254663
210136	0.254764
211349	0.254864
212569	0.254965
213796	0.255065
215030	0.255165
216272	0.255266
217520	0.255366
218776	0.255466
220039	0.255566
221309	0.255667
222587	0.255767
223872	0.255867
225165	0.255967
226464	0.256067
227772	0.256167
229087	0.256267
230409	0.256366
231739	0.256466
233077	0.256566
234423	0.256666
235776	0.256765
237137	0.256865
238506	0.256965
239883	0.257064
241268	0.257164
242661	0.257263
244062	0.257363
245471	0.257462
246888	0.257561
248313	0.257661
249747	0.25776
251189	0.257859
252639	0.257958
254097	0.258057
255564	0.258156
257040	0.258255
258523	0.258354
260016	0.258453
261517	0.258552
263027	0.258651
264545	0.25875
266073	0.258848
267609	0.258947
269153	0.259046
270707	0.259144
272270	0.259243
273842	0.259342
275423	0.25944
277013	0.259539
278612	0.259637
280221	0.259735
281838	0.259834
283465	0.259932
285102	0.26003
286748	0.260128
288403	0.260226
290068	0.260324
291743	0.260422
293427	0.26052
295121	0.260618
296825	0.260716
298538	0.260814
300262	0.260912
301995	0.26101
303739	0.261108
305492	0.261205
307256	0.261303
309030	0.2614
310814	0.261498
312608	0.261595
314413	0.261693
316228	0.26179
318053	0.261888
319890	0.261985
321736	0.262082
323594	0.26218
325462	0.262277
327341	0.262374
329230	0.262471
331131	0.262568
333043	0.262665
334965	0.262762
336899	0.262859
338844	0.262956
340800	0.263053
342768	0.263149
344747	0.263246
346737	0.263343
348739	0.263439
350752	0.263536
352777	0.263633
354813	0.263729
356862	0.263826
358922	0.263922
360994	0.264018
363078	0.264115
365174	0.264211
367282	0.264307
369403	0.264403
371535	0.264499
373680	0.264596
375837	0.264692
378007	0.264788
380189	0.264883
382384	0.264979
384592	0.265075
386812	0.265171
389045	0.265267
391291	0.265363
393550	0.265458
395822	0.265554
398107	0.265649
400405	0.265745
402717	0.26584
405042	0.265936
407380	0.266031
409732	0.266127
412098	0.266222
414477	0.266317
416869	0.266412
419276	0.266508
421697	0.266603
424131	0.266698
426580	0.266793
429042	0.266888
431519	0.266983
434010	0.267078
436516	0.267172
439036	0.267267
441570	0.267362
444120	0.267457
446684	0.267551
449262	0.267646
451856	0.26774
454465	0.267835
457088	0.267929
459727	0.268024
462381	0.268118
465050	0.268213
467735	0.268307
470435	0.268401
473151	0.268495
475883	0.268589
478630	0.268683
481393	0.268777
484172	0.268871
486968	0.268965
489779	0.269059
492606	0.269153
495450	0.269247
498310	0.269341
501187	0.269434
504081	0.269528
506991	0.269622
509918	0.269715
512861	0.269809
515822	0.269902
518800	0.269996
521795	0.270089
524807	0.270182
527837	0.270276
530884	0.270369
533949	0.270462
537032	0.270555
540132	0.270648
543250	0.270741
546387	0.270834
549541	0.270927
552713	0.27102
555904	0.271113
559114	0.271206
562341	0.271298
565588	0.271391
568853	0.271484
572137	0.271576
575440	0.271669
578762	0.271761
582103	0.271854
585464	0.271946
588844	0.272039
592243	0.272131
595662	0.272223
599101	0.272316
602560	0.272408
606038	0.2725
609537	0.272592
613056	0.272684
616595	0.272776
620155	0.272868
623735	0.27296
627336	0.273051
630957	0.273143
634600	0.273235
638263	0.273327
641948	0.273418
645654	0.27351
649382	0.273601
653131	0.273693
656901	0.273784
660693	0.273876
664508	0.273967
668344	0.274058
672202	0.27415
676083	0.274241
679986	0.274332
683912	0.274423
687860	0.274514
691831	0.274605
695825	0.274696
699842	0.274787
703882	0.274878
707946	0.274968
712033	0.275059
716143	0.27515
720278	0.275241
724436	0.275331
728618	0.275422
732825	0.275512
737055	0.275603
741310	0.275693
745590	0.275783
749894	0.275874
754223	0.275964
758578	0.276054
762957	0.276144
767361	0.276234
771792	0.276324
776247	0.276414
780728	0.276504
785236	0.276594
789769	0.276684
794328	0.276774
798914	0.276864
803526	0.276953
808165	0.277043
812831	0.277132
817523	0.277222
822243	0.277311
826990	0.277401
831764	0.27749
836566	0.27758
841395	0.277669
846253	0.277758
851138	0.277847
856052	0.277936
860994	0.278026
865964	0.278115
870964	0.278204
875992	0.278292
881049	0.278381
886135	0.27847
891251	0.278559
896396	0.278648
901571	0.278736
906776	0.278825
912011	0.278913
917276	0.279002
922571	0.27909
927897	0.279179
933254	0.279267
938642	0.279356
944061	0.279444
949511	0.279532
954993	0.27962
960506	0.279708
966051	0.279796
971628	0.279884
977237	0.279972
982879	0.28006
988553	0.280148
994260	0.280236
1e+06	0.280323
1.00577e+06	0.280411
1.01158e+06	0.280499
1.01742e+06	0.280586
1.02329e+06	0.280674
1.0292e+06	0.280761
1.03514e+06	0.280849
1.04112e+06	0.280936
1.04713e+06	0.281024
1.05317e+06	0.281111
1.05925e+06	0.281198
1.06537e+06	0.281285
1.07152e+06	0.281372
1.07771e+06	0.281459
1.08393e+06	0.281546
1.09018e+06	0.281633
1.09648e+06	0.28172
1.10281e+06	0.281807
1.10917e+06	0.281894
1.11558e+06	0.281981
1.12202e+06	0.282067
1.1285e+06	0.282154
1.13501e+06	0.28224
1.14156e+06	0.282327
1.14815e+06	0.282413
1.15478e+06	0.2825
1.16145e+06	0.282586
1.16815e+06	0.282672
1.1749e+06	0.282759
1.18168e+06	0.282845
1.1885e+06	0.282931
1.19536e+06	0.283017
1.20226e+06	0.283103
1.20921e+06	0.283189
1.21619e+06	0.283275
1.22321e+06	0.283361
1.23027e+06	0.283447
1.23737e+06	0.283533
1.24451e+06	0.283618
1.2517e+06	0.283704
1.25893e+06	0.28379
1.26619e+06	0.283875
1.2735e+06	0.283961
1.28086e+06	0.284046
1.28825e+06	0.284132
1.29569e+06	0.284217
1.30317e+06	0.284302
1.31069e+06	0.284387
1.31826e+06	0.284473
1.32587e+06	0.284558
1.33352e+06	0.284643
1.34122e+06	0.284728
1.34896e+06	0.284813
1.35675e+06	0.284898
1.36458e+06	0.284982
1.37246e+06	0.285067
1.38038e+06	0.285152
1.38835e+06	0.285237
1.39637e+06	0.285321
1.40443e+06	0.285406
1.41254e+06	0.28549
1.42069e+06	0.285575
1.42889e+06	0.285659
1.43714e+06	0.285744
1.44544e+06	0.285828
1.45378e+06	0.285912
1.46218e+06	0.285996
1.47062e+06	0.28608
1.47911e+06	0.286165
1.48765e+06	0.286249
1.49624e+06	0.286332
1.50487e+06	0.286416
1.51356e+06	0.2865
1.5223e+06	0.286584
1.53109e+06	0.286668
1.53993e+06	0.286751
1.54882e+06	0.286835
1.55776e+06	0.286919
1.56675e+06	0.287002
1.5758e+06	0.287086
1.58489e+06	0.287169
1.59404e+06	0.287252
1.60325e+06	0.287336
1.6125e+06	0.287419
1.62181e+06	0.287502
1.63117e+06	0.287585
1.64059e+06	0.287668
1.65006e+06	0.287751
1.65959e+06	0.287834
1.66917e+06	0.287917
1.6788e+06	0.288
1.6885e+06	0.288083
1.69824e+06	0.288165
1.70805e+06	0.288248
1.71791e+06	0.288331
1.72783e+06	0.288413
1.7378e+06	0.288496
1.74783e+06	0.288578
1.75792e+06	0.288661
1.76807e+06	0.288743
1.77828e+06	0.288825
1.78855e+06	0.288907
1.79887e+06	0.288989
1.80926e+06	0.289072
1.8197e+06	0.289154
1.83021e+06	0.289236
1.84077e+06	0.289317
1.8514e+06	0.289399
1.86209e+06	0.289481
1.87284e+06	0.289563
1.88365e+06	0.289645
1.89452e+06	0.289726
1.90546e+06	0.289808
1.91646e+06	0.289889
1.92752e+06	0.289971
1.93865e+06	0.290052
1.94984e+06	0.290133
1.9611e+06	0.290215
1.97242e+06	0.290296
1.98381e+06	0.290377
1.99526e+06	0.290458
2.00678e+06	0.290539
2.01837e+06	0.29062
2.03002e+06	0.290701
2.04174e+06	0.290782
2.05353e+06	0.290863
2.06538e+06	0.290943
2.0773e+06	0.291024
2.0893e+06	0.291105
2.10136e+06	0.291185
2.11349e+06	0.291266
2.12569e+06	0.291346
2.13796e+06	0.291426
2.1503e+06	0.291507
2.16272e+06	0.291587
2.1752e+06	0.291667
2.18776e+06	0.291747
2.20039e+06	0.291827
2.21309e+06	0.291907
2.22587e+06	0.291987
2.23872e+06	0.292067
2.25165e+06	0.292147
2.26464e+06	0.292227
2.27772e+06	0.292307
2.29087e+06	0.292386
2.30409e+06	0.292466
2.31739e+06	0.292545
2.33077e+06	0.292625
2.34423e+06	0.292704
2.35776e+06	0.292783
2.37137e+06	0.292863
2.38506e+06	0.292942
2.39883e+06	0.293021
2.41268e+06	0.2931
2.42661e+06	0.293179
2.44062e+06	0.293258
2.45471e+06	0.293337
2.46888e+06	0.293416
2.48313e+06	0.293495
2.49747e+06	0.293573
2.51189e+06	0.293652
2.52639e+06	0.293731
2.54097e+06	0.293809
2.55564e+06	0.293888
2.5704e+06	0.293966
2.58523e+06	0.294044
2.60016e+06	0.294123
2.61517e+06	0.294201
2.63027e+06	0.294279
2.64545e+06	0.294357
2.66073e+06	0.294435
2.67609e+06	0.294513
2.69153e+06	0.294591
2.70707e+06	0.294669
2.7227e+06	0.294747
2.73842e+06	0.294824
2.75423e+06	0.294902
2.77013e+06	0.29498
2.78612e+06	0.295057
2.80221e+06	0.295135
2.81838e+06	0.295212
2.83465e+06	0.295289
2.85102e+06	0.295367
2.86748e+06	0.295444
2.88403e+06	0.295521
2.90068e+06	0.295598
2.91743e+06	0.295675
2.93427e+06	0.295752
2.95121e+06	0.295829
2.96825e+06	0.295906
2.98538e+06	0.295982
3.00262e+06	0.296059
3.01995e+06	0.296136
3.03739e+06	0.296212
3.05492e+06	0.296289
3.07256e+06	0.296365
3.0903e+06	0.296442
3.10814e+06	0.296518
3.12608e+06	0.296594
3.14413e+06	0.29667
3.16228e+06	0.296746
3.18053e+06	0.296823
3.1989e+06	0.296899
3.21736e+06	0.296974
3.23594e+06	0.29705
3.25462e+06	0.297126
3.27341e+06	0.297202
3.2923e+06	0.297278
3.31131e+06	0.297353
3.33043e+06	0.297429
3.34965e+06	0.297504
3.36899e+06	0.29758
3.38844e+06	0.297655
3.408e+06	0.29773
3.42768e+06	0.297805
3.44747e+06	0.297881
3.46737e+06	0.297956
3.48739e+06	0.298031
3.50752e+06	0.298106
3.52777e+06	0.298181
3.54813e+06	0.298255
3.56862e+06	0.29833
3.58922e+06	0.298405
3.60994e+06	0.29848
3.63078e+06	0.298554
3.65174e+06	0.298629
3.67282e+06	0.298703
3.69403e+06	0.298777
3.71535e+06	0.298852
3.7368e+06	0.298926
3.75837e+06	0.299
3.78007e+06	0.299074
3.80189e+06	0.299148
3.82384e+06	0.299222
3.84592e+06	0.299296
3.86812e+06	0.29937
3.89045e+06	0.299444
3.91291e+06	0.299518
3.9355e+06	0.299591
3.95822e+06	0.299665
3.98107e+06	0.299739
4.00405e+06	0.299812
4.02717e+06	0.299885
4.05042e+06	0.299959
4.0738e+06	0.300032
4.09732e+06	0.300105
4.12098e+06	0.300178
4.14477e+06	0.300251
4.16869e+06	0.300324
4.19276e+06	0.300397
4.21697e+06	0.30047
4.24131e+06	0.300543
4.2658e+06	0.300616
4.29042e+06	0.300689
4.31519e+06	0.300761
4.3401e+06	0.300834
4.36516e+06	0.300906
4.39036e+06	0.300979
4.4157e+06	0.301051
4.4412e+06	0.301123
4.46684e+06	0.301196
4.49262e+06	0.301268
4.51856e+06	0.30134
4.54465e+06	0.301412
4.57088e+06	0.301484
4.59727e+06	0.301556
4.62381e+06	0.301628
4.6505e+06	0.3017
4.67735e+06	0.301771
4.70435e+06	0.301843
4.73151e+06	0.301915
4.75883e+06	0.301986
4.7863e+06	0.302058
4.81393e+06	0.302129
4.84172e+06	0.3022
4.86968e+06	0.302272
4.89779e+06	0.302343
4.92606e+06	0.302414
4.9545e+06	0.302485
4.9831e+06	0.302556
5.01187e+06	0.302627
5.04081e+06	0.302698
5.06991e+06	0.302769
5.09918e+06	0.30284
5.12861e+06	0.30291
5.15822e+06	0.302981
5.188e+06	0.303051
5.21795e+06	0.303122
5.24807e+06	0.303192
5.27837e+06	0.303263
5.30884e+06	0.303333
5.33949e+06	0.303403
5.37032e+06	0.303474
5.40132e+06	0.303544
5.4325e+06	0.303614
5.46387e+06	0.303684
5.49541e+06	0.303754
5.52713e+06	0.303824
5.55904e+06	0.303893
5.59114e+06	0.303963
5.62341e+06	0.304033
5.65588e+06	0.304102
5.68853e+06	0.304172
5.72137e+06	0.304241
5.7544e+06	0.304311
5.78762e+06	0.30438
5.82103e+06	0.30445
5.85464e+06	0.304519
5.88844e+06	0.304588
5.92243e+06	0.304657
5.95662e+06	0.304726
5.99101e+06	0.304714
6.0256e+06	0.304702
6.06038e+06	0.30469
6.09537e+06	0.304678
6.13056e+06	0.304667
6.16595e+06	0.304655
6.20155e+06	0.304644
6.23735e+06	0.304633
6.27336e+06	0.304621
6.30957e+06	0.30461
6.346e+06	0.3046
6.38263e+06	0.304589
6.41948e+06	0.304578
6.45654e+06	0.304568
6.49382e+06	0.304558
6.53131e+06	0.304547
6.56901e+06	0.304537
6.60693e+06	0.304527
6.64508e+06	0.304517
6.68344e+06	0.304508
6.72202e+06	0.304498
6.76083e+06	0.304488
6.79986e+06	0.304479
6.83912e+06	0.30447
6.8786e+06	0.30446
6.91831e+06	0.304451
6.95825e+06	0.304442
6.99842e+06	0.304433
7.03882e+06	0.304425
7.07946e+06	0.304416
7.12033e+06	0.304407
7.16143e+06	0.304399
7.20278e+06	0.30439
7.24436e+06	0.304382
7.28618e+06	0.304374
7.32825e+06	0.304366
7.37055e+06	0.304358
7.4131e+06	0.30435
7.4559e+06	0.304342
7.49894e+06	0.304334
7.54223e+06	0.304326
7.58578e+06	0.304319
7.62957e+06	0.304311
7.67361e+06	0.304304
7.71792e+06	0.304297
7.76247e+06	0.304289
7.80728e+06	0.304282
7.85236e+06	0.304275
7.89769e+06	0.304268
7.94328e+06	0.304261
7.98914e+06	0.304254
8.03526e+06	0.304248
8.08165e+06	0.304241
8.12831e+06	0.304234
8.17523e+06	0.304228
8.22243e+06	0.304221
8.2699e+06	0.304215
8.31764e+06	0.304209
8.36566e+06	0.304202
8.41395e+06	0.304196
8.46253e+06	0.30419
8.51138e+06	0.304184
8.56052e+06	0.304178
8.60994e+06	0.304172
8.65964e+06	0.304167
8.70964e+06	0.304161
8.75992e+06	0.304155
8.81049e+06	0.304149
8.86135e+06	0.304144
8.91251e+06	0.304138
8.96396e+06	0.304133
9.01571e+06	0.304128
9.06776e+06	0.304122
9.12011e+06	0.304117
9.17276e+06	0.304112
9.22571e+06	0.304107
9.27897e+06	0.304102
9.33254e+06	0.304097
9.38642e+06	0.304092
9.44061e+06	0.304087
9.49511e+06	0.304082
9.54993e+06	0.304077
9.60506e+06	0.304072
9.66051e+06	0.304068
9.71628e+06	0.304063
9.77237e+06	0.304059
9.82879e+06	0.304054
9.88553e+06	0.30405
9.9426e+06	0.304045
1e+07	0.304041
