Stopping power dEdx from Ionisation for V51[0.0] Z = 23 in G4_TISSUE_SOFT_ICRP, process name: ionIoni
E [MeV]	dEdx [MeV/mm]
0.001	65.361
0.00100577	65.5494
0.00101158	65.7384
0.00101742	65.9278
0.00102329	66.1179
0.0010292	66.3085
0.00103514	66.4996
0.00104112	66.6913
0.00104713	66.8835
0.00105317	67.0763
0.00105925	67.2696
0.00106537	67.4635
0.00107152	67.658
0.00107771	67.853
0.00108393	68.0486
0.00109018	68.2447
0.00109648	68.4414
0.00110281	68.6387
0.00110917	68.8365
0.00111558	69.0349
0.00112202	69.2339
0.0011285	69.4335
0.00113501	69.6336
0.00114156	69.8343
0.00114815	70.0356
0.00115478	70.2375
0.00116145	70.4399
0.00116815	70.643
0.0011749	70.8466
0.00118168	71.0508
0.0011885	71.2556
0.00119536	71.461
0.00120226	71.6669
0.00120921	71.8735
0.00121619	72.0807
0.00122321	72.2884
0.00123027	72.4968
0.00123737	72.7058
0.00124451	72.9153
0.0012517	73.1255
0.00125893	73.3363
0.00126619	73.5477
0.0012735	73.7597
0.00128086	73.9723
0.00128825	74.1855
0.00129569	74.3993
0.00130317	74.6138
0.00131069	74.8288
0.00131826	75.0445
0.00132587	75.2608
0.00133352	75.4777
0.00134122	75.6953
0.00134896	75.9135
0.00135675	76.1323
0.00136458	76.3517
0.00137246	76.5718
0.00138038	76.7925
0.00138835	77.0139
0.00139637	77.2358
0.00140443	77.4585
0.00141254	77.6817
0.00142069	77.9056
0.00142889	78.1302
0.00143714	78.3554
0.00144544	78.5812
0.00145378	78.8077
0.00146218	79.0349
0.00147062	79.2627
0.00147911	79.4912
0.00148765	79.7203
0.00149624	79.9501
0.00150487	80.1805
0.00151356	80.4116
0.0015223	80.6434
0.00153109	80.8759
0.00153993	81.109
0.00154882	81.3428
0.00155776	81.5772
0.00156675	81.8124
0.0015758	82.0482
0.00158489	82.2847
0.00159404	82.5218
0.00160325	82.7597
0.0016125	82.9982
0.00162181	83.2375
0.00163117	83.4774
0.00164059	83.718
0.00165006	83.9593
0.00165959	84.2013
0.00166917	84.444
0.0016788	84.6874
0.0016885	84.9315
0.00169824	85.1763
0.00170805	85.4218
0.00171791	85.6681
0.00172783	85.915
0.0017378	86.1626
0.00174783	86.411
0.00175792	86.66
0.00176807	86.9098
0.00177828	87.1603
0.00178855	87.4116
0.00179887	87.6635
0.00180926	87.9162
0.0018197	88.1696
0.00183021	88.4237
0.00184077	88.6786
0.0018514	88.9342
0.00186209	89.1906
0.00187284	89.4476
0.00188365	89.7055
0.00189452	89.964
0.00190546	90.2233
0.00191646	90.4834
0.00192752	90.7442
0.00193865	91.0058
0.00194984	91.2681
0.0019611	91.5311
0.00197242	91.795
0.00198381	92.0596
0.00199526	92.3249
0.00200678	92.591
0.00201837	92.8579
0.00203002	93.1256
0.00204174	93.394
0.00205353	93.6632
0.00206538	93.9332
0.0020773	94.2039
0.0020893	94.4754
0.00210136	94.7477
0.00211349	95.0208
0.00212569	95.2947
0.00213796	95.5694
0.0021503	95.8449
0.00216272	96.1211
0.0021752	96.3982
0.00218776	96.6761
0.00220039	96.9547
0.00221309	97.2342
0.00222587	97.5144
0.00223872	97.7955
0.00225165	98.0774
0.00226464	98.3601
0.00227772	98.6436
0.00229087	98.9279
0.00230409	99.2131
0.00231739	99.499
0.00233077	99.7858
0.00234423	100.073
0.00235776	100.362
0.00237137	100.651
0.00238506	100.941
0.00239883	101.232
0.00241268	101.524
0.00242661	101.817
0.00244062	102.11
0.00245471	102.404
0.00246888	102.7
0.00248313	102.996
0.00249747	103.293
0.00251189	103.59
0.00252639	103.889
0.00254097	104.188
0.00255564	104.489
0.0025704	104.79
0.00258523	105.092
0.00260016	105.395
0.00261517	105.699
0.00263027	106.003
0.00264545	106.309
0.00266073	106.615
0.00267609	106.922
0.00269153	107.231
0.00270707	107.54
0.0027227	107.85
0.00273842	108.161
0.00275423	108.472
0.00277013	108.785
0.00278612	109.099
0.00280221	109.413
0.00281838	109.728
0.00283465	110.045
0.00285102	110.362
0.00286748	110.68
0.00288403	110.999
0.00290068	111.319
0.00291743	111.64
0.00293427	111.962
0.00295121	112.284
0.00296825	112.608
0.00298538	112.932
0.00300262	113.258
0.00301995	113.584
0.00303739	113.912
0.00305492	114.24
0.00307256	114.569
0.0030903	114.9
0.00310814	115.231
0.00312608	115.563
0.00314413	115.896
0.00316228	116.23
0.00318053	116.565
0.0031989	116.901
0.00321736	117.238
0.00323594	117.576
0.00325462	117.915
0.00327341	118.255
0.0032923	118.596
0.00331131	118.938
0.00333043	119.28
0.00334965	119.624
0.00336899	119.969
0.00338844	120.315
0.003408	120.662
0.00342768	121.009
0.00344747	121.358
0.00346737	121.708
0.00348739	122.059
0.00350752	122.411
0.00352777	122.763
0.00354813	123.117
0.00356862	123.472
0.00358922	123.828
0.00360994	124.185
0.00363078	124.543
0.00365174	124.902
0.00367282	125.262
0.00369403	125.623
0.00371535	125.985
0.0037368	126.348
0.00375837	126.712
0.00378007	127.078
0.00380189	127.444
0.00382384	127.811
0.00384592	128.18
0.00386812	128.549
0.00389045	128.92
0.00391291	129.291
0.0039355	129.664
0.00395822	130.038
0.00398107	130.412
0.00400405	130.788
0.00402717	131.165
0.00405042	131.543
0.0040738	131.923
0.00409732	132.303
0.00412098	132.684
0.00414477	133.067
0.00416869	133.45
0.00419276	133.835
0.00421697	134.221
0.00424131	134.607
0.0042658	134.995
0.00429042	135.384
0.00431519	135.775
0.0043401	136.166
0.00436516	136.559
0.00439036	136.952
0.0044157	137.347
0.0044412	137.743
0.00446684	138.14
0.00449262	138.538
0.00451856	138.937
0.00454465	139.338
0.00457088	139.739
0.00459727	140.142
0.00462381	140.546
0.0046505	140.951
0.00467735	141.358
0.00470435	141.765
0.00473151	142.174
0.00475883	142.583
0.0047863	142.994
0.00481393	143.407
0.00484172	143.82
0.00486968	144.234
0.00489779	144.65
0.00492606	145.067
0.0049545	145.485
0.0049831	145.905
0.00501187	146.325
0.00504081	146.747
0.00506991	147.17
0.00509918	147.594
0.00512861	148.019
0.00515822	148.446
0.005188	148.874
0.00521795	149.303
0.00524807	149.733
0.00527837	150.165
0.00530884	150.598
0.00533949	151.032
0.00537032	151.467
0.00540132	151.904
0.0054325	152.342
0.00546387	152.781
0.00549541	153.221
0.00552713	153.663
0.00555904	154.106
0.00559114	154.55
0.00562341	154.995
0.00565588	155.442
0.00568853	155.89
0.00572137	156.34
0.0057544	156.79
0.00578762	157.242
0.00582103	157.695
0.00585464	158.15
0.00588844	158.606
0.00592243	159.063
0.00595662	159.521
0.00599101	159.981
0.0060256	160.442
0.00606038	160.905
0.00609537	161.369
0.00613056	161.834
0.00616595	162.3
0.00620155	162.768
0.00623735	163.237
0.00627336	163.708
0.00630957	164.179
0.006346	164.653
0.00638263	165.127
0.00641948	165.603
0.00645654	166.081
0.00649382	166.559
0.00653131	167.039
0.00656901	167.521
0.00660693	168.004
0.00664508	168.488
0.00668344	168.974
0.00672202	169.461
0.00676083	169.949
0.00679986	170.439
0.00683912	170.93
0.0068786	171.423
0.00691831	171.917
0.00695825	172.413
0.00699842	172.91
0.00703882	173.408
0.00707946	173.908
0.00712033	174.409
0.00716143	174.912
0.00720278	175.416
0.00724436	175.921
0.00728618	176.429
0.00732825	176.937
0.00737055	177.447
0.0074131	177.959
0.0074559	178.472
0.00749894	178.986
0.00754223	179.502
0.00758578	180.019
0.00762957	180.538
0.00767361	181.058
0.00771792	181.58
0.00776247	182.104
0.00780728	182.629
0.00785236	183.155
0.00789769	183.683
0.00794328	184.212
0.00798914	184.743
0.00803526	185.276
0.00808165	185.81
0.00812831	186.345
0.00817523	186.883
0.00822243	187.421
0.0082699	187.962
0.00831764	188.503
0.00836566	189.047
0.00841395	189.592
0.00846253	190.138
0.00851138	190.686
0.00856052	191.236
0.00860994	191.787
0.00865964	192.34
0.00870964	192.894
0.00875992	193.45
0.00881049	194.008
0.00886135	194.567
0.00891251	195.128
0.00896396	195.69
0.00901571	196.254
0.00906776	196.82
0.00912011	197.387
0.00917276	197.956
0.00922571	198.527
0.00927897	199.099
0.00933254	199.673
0.00938642	200.248
0.00944061	200.826
0.00949511	201.404
0.00954993	201.985
0.00960506	202.567
0.00966051	203.151
0.00971628	203.737
0.00977237	204.324
0.00982879	204.913
0.00988553	205.503
0.0099426	206.096
0.01	206.69
0.0100577	207.285
0.0101158	207.883
0.0101742	208.482
0.0102329	209.083
0.010292	209.686
0.0103514	210.29
0.0104112	210.896
0.0104713	211.504
0.0105317	212.114
0.0105925	212.725
0.0106537	213.338
0.0107152	213.953
0.0107771	214.57
0.0108393	215.188
0.0109018	215.809
0.0109648	216.431
0.0110281	217.055
0.0110917	217.68
0.0111558	218.308
0.0112202	218.937
0.011285	219.568
0.0113501	220.201
0.0114156	220.836
0.0114815	221.472
0.0115478	222.11
0.0116145	222.751
0.0116815	223.393
0.011749	224.037
0.0118168	224.682
0.011885	225.33
0.0119536	225.979
0.0120226	226.631
0.0120921	227.284
0.0121619	227.939
0.0122321	228.596
0.0123027	229.255
0.0123737	229.916
0.0124451	230.579
0.012517	231.243
0.0125893	231.91
0.0126619	232.578
0.012735	233.247
0.0128086	233.903
0.0128825	234.561
0.0129569	235.221
0.0130317	235.882
0.0131069	236.546
0.0131826	237.212
0.0132587	237.879
0.0133352	238.548
0.0134122	239.22
0.0134896	239.893
0.0135675	240.568
0.0136458	241.245
0.0137246	241.924
0.0138038	242.605
0.0138835	243.288
0.0139637	243.973
0.0140443	244.66
0.0141254	245.349
0.0142069	246.04
0.0142889	246.733
0.0143714	247.428
0.0144544	248.125
0.0145378	248.823
0.0146218	249.524
0.0147062	250.227
0.0147911	250.932
0.0148765	251.639
0.0149624	252.348
0.0150487	253.059
0.0151356	253.772
0.015223	254.487
0.0153109	255.205
0.0153993	255.924
0.0154882	256.645
0.0155776	257.369
0.0156675	258.094
0.015758	258.822
0.0158489	259.552
0.0159404	260.283
0.0160325	261.017
0.016125	261.753
0.0162181	262.492
0.0163117	263.232
0.0164059	263.974
0.0165006	264.719
0.0165959	265.466
0.0166917	266.215
0.016788	266.966
0.016885	267.719
0.0169824	268.474
0.0170805	269.232
0.0171791	269.992
0.0172783	270.754
0.017378	271.518
0.0174783	272.284
0.0175792	273.053
0.0176807	273.824
0.0177828	274.597
0.0178855	275.372
0.0179887	276.149
0.0180926	276.929
0.018197	277.711
0.0183021	278.495
0.0184077	279.282
0.018514	280.071
0.0186209	280.862
0.0187284	281.655
0.0188365	282.451
0.0189452	283.249
0.0190546	284.049
0.0191646	284.852
0.0192752	285.657
0.0193865	286.464
0.0194984	287.274
0.019611	288.085
0.0197242	288.9
0.0198381	289.716
0.0199526	290.535
0.0200678	291.357
0.0201837	292.18
0.0203002	293.007
0.0204174	293.835
0.0205353	294.666
0.0206538	295.499
0.020773	296.335
0.020893	297.173
0.0210136	298.014
0.0211349	298.857
0.0212569	299.702
0.0213796	300.55
0.021503	301.4
0.0216272	302.253
0.021752	303.109
0.0218776	303.966
0.0220039	304.827
0.0221309	305.689
0.0222587	306.555
0.0223872	307.422
0.0225165	308.293
0.0226464	309.165
0.0227772	310.041
0.0229087	310.919
0.0230409	311.799
0.0231739	312.682
0.0233077	313.567
0.0234423	314.455
0.0235776	315.346
0.0237137	316.239
0.0238506	317.135
0.0239883	318.034
0.0241268	318.935
0.0242661	319.838
0.0244062	320.745
0.0245471	321.653
0.0246888	322.565
0.0248313	323.479
0.0249747	324.396
0.0251189	325.316
0.0252639	326.238
0.0254097	327.162
0.0255564	328.09
0.025704	329.02
0.0258523	329.953
0.0260016	330.889
0.0261517	331.827
0.0263027	332.768
0.0264545	333.712
0.0266073	334.659
0.0267609	335.608
0.0269153	336.56
0.0270707	337.515
0.027227	338.472
0.0273842	339.433
0.0275423	340.396
0.0277013	341.362
0.0278612	342.33
0.0280221	343.302
0.0281838	344.276
0.0283465	345.254
0.0285102	346.234
0.0286748	347.217
0.0288403	348.203
0.0290068	349.191
0.0291743	350.183
0.0293427	351.177
0.0295121	352.174
0.0296825	353.175
0.0298538	354.178
0.0300262	355.184
0.0301995	356.193
0.0303739	357.205
0.0305492	358.219
0.0307256	359.237
0.030903	360.258
0.0310814	361.282
0.0312608	362.308
0.0314413	363.338
0.0316228	364.371
0.0318053	365.406
0.031989	366.445
0.0321736	367.487
0.0323594	368.532
0.0325462	369.579
0.0327341	370.63
0.032923	371.684
0.0331131	372.741
0.0333043	373.801
0.0334965	374.864
0.0336899	375.931
0.0338844	377
0.03408	378.072
0.0342768	379.148
0.0344747	380.227
0.0346737	381.309
0.0348739	382.394
0.0350752	383.482
0.0352777	384.573
0.0354813	385.668
0.0356862	386.766
0.0358922	387.867
0.0360994	388.971
0.0363078	390.078
0.0365174	391.189
0.0367282	392.302
0.0369403	393.42
0.0371535	394.54
0.037368	395.663
0.0375837	396.79
0.0378007	397.921
0.0380189	399.054
0.0382384	400.191
0.0384592	401.331
0.0386812	402.474
0.0389045	403.621
0.0391291	404.771
0.039355	405.925
0.0395822	407.082
0.0398107	408.242
0.0400405	409.405
0.0402717	410.572
0.0405042	411.743
0.040738	412.917
0.0409732	414.094
0.0412098	415.274
0.0414477	416.459
0.0416869	417.646
0.0419276	418.837
0.0421697	420.032
0.0424131	421.23
0.042658	422.431
0.0429042	423.636
0.0431519	424.845
0.043401	426.057
0.0436516	427.273
0.0439036	428.492
0.044157	429.715
0.044412	430.941
0.0446684	432.171
0.0449262	433.404
0.0451856	434.642
0.0454465	435.882
0.0457088	437.127
0.0459727	438.375
0.0462381	439.626
0.046505	440.882
0.0467735	442.141
0.0470435	443.403
0.0473151	444.67
0.0475883	445.94
0.047863	447.214
0.0481393	448.491
0.0484172	449.772
0.0486968	451.057
0.0489779	452.346
0.0492606	453.639
0.049545	454.935
0.049831	456.235
0.0501187	457.539
0.0504081	458.847
0.0506991	460.158
0.0509918	461.265
0.0512861	461.571
0.0515822	461.88
0.05188	462.193
0.0521795	462.508
0.0524807	462.827
0.0527837	463.149
0.0530884	463.474
0.0533949	463.802
0.0537032	464.134
0.0540132	464.468
0.054325	464.805
0.0546387	465.145
0.0549541	465.488
0.0552713	465.834
0.0555904	466.182
0.0559114	466.533
0.0562341	466.887
0.0565588	467.244
0.0568853	467.603
0.0572137	467.965
0.057544	468.33
0.0578762	468.697
0.0582103	469.066
0.0585464	469.438
0.0588844	469.813
0.0592243	470.19
0.0595662	470.569
0.0599101	470.951
0.060256	471.335
0.0606038	471.721
0.0609537	472.11
0.0613056	472.501
0.0616595	472.894
0.0620155	473.29
0.0623735	473.687
0.0627336	474.087
0.0630957	474.489
0.06346	474.893
0.0638263	475.299
0.0641948	475.708
0.0645654	476.118
0.0649382	476.53
0.0653131	476.945
0.0656901	477.361
0.0660693	477.779
0.0664508	478.2
0.0668344	478.622
0.0672202	479.046
0.0676083	479.472
0.0679986	479.9
0.0683912	480.33
0.068786	480.762
0.0691831	481.196
0.0695825	481.631
0.0699842	482.069
0.0703882	482.508
0.0707946	482.949
0.0712033	483.391
0.0716143	483.836
0.0720278	484.282
0.0724436	484.73
0.0728618	485.18
0.0732825	485.631
0.0737055	486.084
0.074131	486.539
0.074559	486.996
0.0749894	487.454
0.0754223	487.914
0.0758578	488.376
0.0762957	488.839
0.0767361	489.304
0.0771792	489.77
0.0776247	490.239
0.0780728	490.709
0.0785236	491.18
0.0789769	491.653
0.0794328	492.128
0.0798914	492.604
0.0803526	493.082
0.0808165	493.562
0.0812831	494.043
0.0817523	494.525
0.0822243	495.01
0.082699	495.496
0.0831764	495.983
0.0836566	496.472
0.0841395	496.963
0.0846253	497.455
0.0851138	497.949
0.0856052	498.444
0.0860994	498.941
0.0865964	499.439
0.0870964	499.939
0.0875992	500.441
0.0881049	500.944
0.0886135	501.449
0.0891251	501.955
0.0896396	502.463
0.0901571	502.972
0.0906776	503.483
0.0912011	503.996
0.0917276	504.51
0.0922571	505.026
0.0927897	505.543
0.0933254	506.062
0.0938642	506.582
0.0944061	507.104
0.0949511	507.628
0.0954993	508.153
0.0960506	508.68
0.0966051	509.208
0.0971628	509.738
0.0977237	510.269
0.0982879	510.802
0.0988553	511.337
0.099426	511.873
0.1	512.411
0.100577	512.951
0.101158	513.492
0.101742	514.035
0.102329	514.579
0.10292	515.125
0.103514	515.673
0.104112	516.222
0.104713	516.773
0.105317	517.326
0.105925	517.88
0.106537	518.437
0.107152	518.994
0.107771	519.554
0.108393	520.115
0.109018	520.678
0.109648	521.242
0.110281	521.808
0.110917	522.376
0.111558	522.946
0.112202	523.517
0.11285	524.091
0.113501	524.665
0.114156	525.242
0.114815	525.821
0.115478	526.401
0.116145	526.983
0.116815	527.567
0.11749	528.153
0.118168	528.74
0.11885	529.329
0.119536	529.92
0.120226	530.513
0.120921	531.108
0.121619	531.705
0.122321	532.304
0.123027	532.904
0.123737	533.507
0.124451	534.111
0.12517	534.717
0.125893	535.325
0.126619	535.935
0.12735	536.547
0.128086	537.161
0.128825	537.777
0.129569	538.395
0.130317	539.015
0.131069	539.637
0.131826	540.261
0.132587	540.887
0.133352	541.515
0.134122	542.145
0.134896	542.777
0.135675	543.411
0.136458	544.047
0.137246	544.686
0.138038	545.326
0.138835	545.969
0.139637	546.614
0.140443	547.26
0.141254	547.909
0.142069	548.561
0.142889	549.214
0.143714	549.87
0.144544	550.527
0.145378	551.187
0.146218	551.85
0.147062	552.514
0.147911	553.181
0.148765	553.85
0.149624	554.521
0.150487	555.194
0.151356	555.87
0.15223	556.548
0.153109	557.229
0.153993	557.912
0.154882	558.597
0.155776	559.285
0.156675	559.975
0.15758	560.667
0.158489	561.362
0.159404	562.059
0.160325	562.759
0.16125	563.461
0.162181	564.165
0.163117	564.872
0.164059	565.582
0.165006	566.294
0.165959	567.008
0.166917	567.726
0.16788	568.445
0.16885	569.167
0.169824	569.892
0.170805	570.62
0.171791	571.35
0.172783	572.082
0.17378	572.817
0.174783	573.555
0.175792	574.296
0.176807	575.039
0.177828	575.785
0.178855	576.533
0.179887	577.285
0.180926	578.039
0.18197	578.796
0.183021	579.555
0.184077	580.317
0.18514	581.083
0.186209	581.85
0.187284	582.621
0.188365	583.395
0.189452	584.171
0.190546	584.95
0.191646	585.733
0.192752	586.518
0.193865	587.305
0.194984	588.096
0.19611	588.89
0.197242	589.687
0.198381	590.486
0.199526	591.289
0.200678	592.095
0.201837	592.903
0.203002	593.715
0.204174	594.53
0.205353	595.348
0.206538	596.168
0.20773	596.992
0.20893	597.819
0.210136	598.649
0.211349	599.483
0.212569	600.319
0.213796	601.158
0.21503	602.001
0.216272	602.847
0.21752	603.696
0.218776	604.548
0.220039	605.404
0.221309	606.262
0.222587	607.124
0.223872	607.989
0.225165	608.858
0.226464	609.73
0.227772	610.605
0.229087	611.483
0.230409	612.365
0.231739	613.25
0.233077	614.139
0.234423	615.031
0.235776	615.926
0.237137	616.825
0.238506	617.727
0.239883	618.632
0.241268	619.541
0.242661	620.454
0.244062	621.37
0.245471	622.289
0.246888	623.212
0.248313	624.139
0.249747	625.069
0.251189	626.003
0.252639	626.94
0.254097	627.881
0.255564	628.825
0.25704	629.773
0.258523	630.725
0.260016	631.68
0.261517	632.639
0.263027	633.602
0.264545	634.568
0.266073	635.538
0.267609	636.512
0.269153	637.489
0.270707	638.471
0.27227	639.456
0.273842	640.444
0.275423	641.437
0.277013	642.433
0.278612	643.434
0.280221	644.438
0.281838	645.446
0.283465	646.457
0.285102	647.473
0.286748	648.493
0.288403	649.516
0.290068	650.543
0.291743	651.575
0.293427	652.61
0.295121	653.649
0.296825	654.692
0.298538	655.74
0.300262	656.791
0.301995	657.846
0.303739	658.905
0.305492	659.969
0.307256	661.036
0.30903	662.107
0.310814	663.183
0.312608	664.263
0.314413	665.346
0.316228	666.434
0.318053	667.526
0.31989	668.623
0.321736	669.723
0.323594	670.828
0.325462	671.936
0.327341	673.049
0.32923	674.166
0.331131	675.288
0.333043	676.414
0.334965	677.544
0.336899	678.678
0.338844	679.816
0.3408	680.959
0.342768	682.107
0.344747	683.258
0.346737	684.414
0.348739	685.574
0.350752	686.739
0.352777	687.908
0.354813	689.081
0.356862	690.259
0.358922	691.441
0.360994	692.628
0.363078	693.819
0.365174	695.015
0.367282	696.215
0.369403	697.42
0.371535	698.629
0.37368	699.843
0.375837	701.061
0.378007	702.283
0.380189	703.511
0.382384	704.743
0.384592	705.979
0.386812	707.22
0.389045	708.466
0.391291	709.716
0.39355	710.971
0.395822	712.231
0.398107	713.495
0.400405	714.764
0.402717	716.037
0.405042	717.316
0.40738	718.599
0.409732	719.886
0.412098	721.179
0.414477	722.476
0.416869	723.778
0.419276	725.085
0.421697	726.396
0.424131	727.712
0.42658	729.033
0.429042	730.359
0.431519	731.69
0.43401	733.026
0.436516	734.366
0.439036	735.711
0.44157	737.061
0.44412	738.416
0.446684	739.776
0.449262	741.141
0.451856	742.511
0.454465	743.885
0.457088	745.265
0.459727	746.65
0.462381	748.039
0.46505	749.434
0.467735	750.833
0.470435	752.237
0.473151	753.647
0.475883	755.061
0.47863	756.481
0.481393	757.905
0.484172	759.335
0.486968	760.769
0.489779	762.209
0.492606	763.653
0.49545	765.103
0.49831	766.558
0.501187	768.018
0.504081	769.483
0.506991	770.953
0.509918	772.428
0.512861	773.909
0.515822	775.394
0.5188	776.885
0.521795	778.381
0.524807	779.882
0.527837	781.388
0.530884	782.899
0.533949	784.416
0.537032	785.938
0.540132	787.464
0.54325	788.997
0.546387	790.534
0.549541	792.076
0.552713	793.624
0.555904	795.177
0.559114	796.736
0.562341	798.299
0.565588	799.868
0.568853	801.442
0.572137	803.021
0.57544	804.606
0.578762	806.196
0.582103	807.791
0.585464	809.392
0.588844	810.997
0.592243	812.608
0.595662	814.225
0.599101	815.846
0.60256	817.474
0.606038	819.106
0.609537	820.744
0.613056	822.387
0.616595	824.035
0.620155	825.689
0.623735	827.348
0.627336	829.012
0.630957	830.682
0.6346	832.357
0.638263	834.037
0.641948	835.723
0.645654	837.414
0.649382	839.111
0.653131	840.813
0.656901	842.52
0.660693	844.233
0.664508	845.951
0.668344	847.674
0.672202	849.403
0.676083	851.137
0.679986	852.877
0.683912	854.622
0.68786	856.372
0.691831	858.128
0.695825	859.889
0.699842	861.656
0.703882	863.428
0.707946	865.205
0.712033	866.987
0.716143	868.775
0.720278	870.569
0.724436	872.368
0.728618	874.172
0.732825	875.981
0.737055	877.796
0.74131	879.616
0.74559	881.442
0.749894	883.273
0.754223	885.109
0.758578	886.951
0.762957	888.798
0.767361	890.65
0.771792	892.508
0.776247	894.371
0.780728	896.239
0.785236	898.113
0.789769	899.992
0.794328	901.876
0.798914	903.766
0.803526	905.66
0.808165	907.561
0.812831	909.466
0.817523	911.377
0.822243	913.293
0.82699	915.214
0.831764	917.141
0.836566	919.072
0.841395	921.009
0.846253	922.951
0.851138	924.899
0.856052	926.851
0.860994	928.809
0.865964	930.772
0.870964	932.74
0.875992	934.713
0.881049	936.692
0.886135	938.675
0.891251	940.664
0.896396	942.658
0.901571	944.657
0.906776	946.66
0.912011	948.669
0.917276	950.683
0.922571	952.702
0.927897	954.726
0.933254	956.755
0.938642	958.789
0.944061	960.828
0.949511	962.872
0.954993	964.921
0.960506	966.975
0.966051	969.033
0.971628	971.097
0.977237	973.165
0.982879	975.238
0.988553	977.316
0.99426	979.399
1	981.486
1.00577	983.578
1.01158	985.675
1.01742	987.777
1.02329	989.883
1.0292	991.994
1.03514	994.11
1.04112	996.23
1.04713	998.355
1.05317	1000.48
1.05925	1002.62
1.06537	1004.76
1.07152	1006.9
1.07771	1009.05
1.08393	1011.2
1.09018	1013.35
1.09648	1015.51
1.10281	1017.68
1.10917	1019.85
1.11558	1022.02
1.12202	1024.2
1.1285	1026.38
1.13501	1028.56
1.14156	1030.75
1.14815	1032.95
1.15478	1035.15
1.16145	1037.35
1.16815	1039.55
1.1749	1041.76
1.18168	1043.98
1.1885	1046.19
1.19536	1048.41
1.20226	1050.64
1.20921	1052.87
1.21619	1055.1
1.22321	1057.34
1.23027	1059.58
1.23737	1061.82
1.24451	1064.07
1.2517	1066.32
1.25893	1068.57
1.26619	1070.83
1.2735	1073.09
1.28086	1075.35
1.28825	1077.62
1.29569	1079.89
1.30317	1082.16
1.31069	1084.44
1.31826	1086.72
1.32587	1089
1.33352	1091.29
1.34122	1093.57
1.34896	1095.87
1.35675	1098.16
1.36458	1100.46
1.37246	1102.76
1.38038	1105.06
1.38835	1107.36
1.39637	1109.67
1.40443	1111.98
1.41254	1114.29
1.42069	1116.6
1.42889	1118.92
1.43714	1121.24
1.44544	1123.56
1.45378	1125.88
1.46218	1128.21
1.47062	1130.53
1.47911	1132.86
1.48765	1135.19
1.49624	1137.52
1.50487	1139.86
1.51356	1142.19
1.5223	1144.53
1.53109	1146.87
1.53993	1149.21
1.54882	1151.55
1.55776	1153.89
1.56675	1156.23
1.5758	1158.58
1.58489	1160.92
1.59404	1163.27
1.60325	1165.62
1.6125	1167.97
1.62181	1170.31
1.63117	1172.66
1.64059	1175.01
1.65006	1177.36
1.65959	1179.71
1.66917	1182.06
1.6788	1184.42
1.6885	1186.77
1.69824	1189.12
1.70805	1191.47
1.71791	1193.82
1.72783	1196.17
1.7378	1198.52
1.74783	1200.87
1.75792	1203.59
1.76807	1209.56
1.77828	1215.57
1.78855	1221.6
1.79887	1227.67
1.80926	1233.77
1.8197	1239.9
1.83021	1246.07
1.84077	1252.26
1.8514	1258.49
1.86209	1264.75
1.87284	1271.05
1.88365	1277.38
1.89452	1283.74
1.90546	1290.13
1.91646	1296.56
1.92752	1303.02
1.93865	1309.51
1.94984	1316.04
1.9611	1322.6
1.97242	1329.2
1.98381	1335.82
1.99526	1342.48
2.00678	1349.18
2.01837	1355.91
2.03002	1362.67
2.04174	1369.46
2.05353	1376.29
2.06538	1383.16
2.0773	1390.05
2.0893	1396.99
2.10136	1403.95
2.11349	1410.95
2.12569	1417.98
2.13796	1425.05
2.1503	1432.15
2.16272	1439.29
2.1752	1446.46
2.18776	1453.66
2.20039	1460.9
2.21309	1468.17
2.22587	1475.48
2.23872	1482.82
2.25165	1490.19
2.26464	1497.6
2.27772	1505.05
2.29087	1512.53
2.30409	1520.04
2.31739	1527.58
2.33077	1535.17
2.34423	1542.78
2.35776	1550.43
2.37137	1558.11
2.38506	1565.83
2.39883	1573.59
2.41268	1581.37
2.42661	1589.19
2.44062	1597.05
2.45471	1604.94
2.46888	1612.86
2.48313	1620.82
2.49747	1628.81
2.51189	1636.84
2.52639	1644.9
2.54097	1652.99
2.55564	1661.12
2.5704	1669.28
2.58523	1677.47
2.60016	1685.7
2.61517	1693.97
2.63027	1702.26
2.64545	1710.59
2.66073	1718.95
2.67609	1727.35
2.69153	1735.78
2.70707	1744.24
2.7227	1752.74
2.73842	1761.27
2.75423	1769.83
2.77013	1778.43
2.78612	1787.05
2.80221	1795.72
2.81838	1804.41
2.83465	1813.13
2.85102	1821.89
2.86748	1830.68
2.88403	1839.5
2.90068	1848.36
2.91743	1857.24
2.93427	1866.16
2.95121	1875.11
2.96825	1884.09
2.98538	1893.1
3.00262	1902.15
3.01995	1911.22
3.03739	1920.32
3.05492	1929.46
3.07256	1938.62
3.0903	1947.82
3.10814	1957.05
3.12608	1966.3
3.14413	1975.59
3.16228	1984.9
3.18053	1994.25
3.1989	2003.62
3.21736	2013.02
3.23594	2022.45
3.25462	2031.91
3.27341	2041.4
3.2923	2050.92
3.31131	2060.46
3.33043	2070.03
3.34965	2079.63
3.36899	2089.26
3.38844	2098.91
3.408	2108.59
3.42768	2118.3
3.44747	2128.03
3.46737	2137.79
3.48739	2147.57
3.50752	2157.38
3.52777	2167.21
3.54813	2177.07
3.56862	2186.96
3.58922	2196.86
3.60994	2206.8
3.63078	2216.75
3.65174	2226.73
3.67282	2236.73
3.69403	2246.76
3.71535	2256.8
3.7368	2266.87
3.75837	2276.96
3.78007	2287.07
3.80189	2297.21
3.82384	2307.36
3.84592	2317.53
3.86812	2327.73
3.89045	2337.94
3.91291	2348.17
3.9355	2358.42
3.95822	2368.69
3.98107	2378.98
4.00405	2389.29
4.02717	2399.61
4.05042	2409.95
4.0738	2420.31
4.09732	2430.68
4.12098	2441.07
4.14477	2451.48
4.16869	2461.9
4.19276	2472.33
4.21697	2482.78
4.24131	2493.24
4.2658	2503.72
4.29042	2514.21
4.31519	2524.71
4.3401	2535.22
4.36516	2545.75
4.39036	2556.28
4.4157	2566.83
4.4412	2577.39
4.46684	2587.95
4.49262	2598.53
4.51856	2609.11
4.54465	2619.7
4.57088	2630.31
4.59727	2640.91
4.62381	2651.53
4.6505	2662.15
4.67735	2672.78
4.70435	2683.41
4.73151	2694.05
4.75883	2704.69
4.7863	2715.33
4.81393	2725.98
4.84172	2736.63
4.86968	2747.29
4.89779	2757.94
4.92606	2768.6
4.9545	2779.26
4.9831	2789.91
5.01187	2800.57
5.04081	2811.23
5.06991	2821.88
5.09918	2832.54
5.12861	2843.19
5.15822	2853.84
5.188	2864.48
5.21795	2875.12
5.24807	2885.75
5.27837	2896.38
5.30884	2907.01
5.33949	2917.62
5.37032	2928.23
5.40132	2938.84
5.4325	2949.43
5.46387	2960.02
5.49541	2970.59
5.52713	2981.16
5.55904	2991.72
5.59114	3002.26
5.62341	3012.79
5.65588	3023.31
5.68853	3033.82
5.72137	3044.32
5.7544	3054.8
5.78762	3065.26
5.82103	3075.71
5.85464	3086.15
5.88844	3096.57
5.92243	3106.97
5.95662	3117.35
5.99101	3127.72
6.0256	3138.07
6.06038	3148.39
6.09537	3158.7
6.13056	3168.99
6.16595	3179.26
6.20155	3189.5
6.23735	3199.72
6.27336	3209.92
6.30957	3220.1
6.346	3230.25
6.38263	3240.38
6.41948	3250.48
6.45654	3260.55
6.49382	3270.6
6.53131	3280.62
6.56901	3290.62
6.60693	3300.58
6.64508	3310.52
6.68344	3320.43
6.72202	3330.31
6.76083	3340.15
6.79986	3349.97
6.83912	3359.75
6.8786	3369.5
6.91831	3379.22
6.95825	3388.91
6.99842	3398.56
7.03882	3408.18
7.07946	3417.76
7.12033	3427.3
7.16143	3436.81
7.20278	3446.28
7.24436	3455.72
7.28618	3465.12
7.32825	3474.47
7.37055	3483.79
7.4131	3493.07
7.4559	3502.31
7.49894	3511.51
7.54223	3520.67
7.58578	3529.79
7.62957	3538.86
7.67361	3547.89
7.71792	3556.88
7.76247	3565.83
7.80728	3574.73
7.85236	3583.58
7.89769	3592.39
7.94328	3601.16
7.98914	3609.88
8.03526	3618.55
8.08165	3627.17
8.12831	3635.75
8.17523	3644.28
8.22243	3652.76
8.2699	3659.13
8.31764	3667.49
8.36566	3675.8
8.41395	3684.06
8.46253	3692.27
8.51138	3700.42
8.56052	3708.53
8.60994	3716.58
8.65964	3724.58
8.70964	3732.53
8.75992	3740.43
8.81049	3748.27
8.86135	3756.06
8.91251	3763.79
8.96396	3771.47
9.01571	3779.09
9.06776	3786.66
9.12011	3794.17
9.17276	3801.63
9.22571	3809.02
9.27897	3816.37
9.33254	3823.65
9.38642	3830.88
9.44061	3838.05
9.49511	3845.16
9.54993	3852.22
9.60506	3859.21
9.66051	3866.15
9.71628	3873.03
9.77237	3879.85
9.82879	3886.6
9.88553	3893.3
9.9426	3899.94
10	3906.52
10.0577	3913.04
10.1158	3919.5
10.1742	3925.89
10.2329	3932.23
10.292	3938.5
10.3514	3944.71
10.4112	3950.86
10.4713	3956.95
10.5317	3962.98
10.5925	3968.95
10.6537	3974.85
10.7152	3980.69
10.7771	3986.47
10.8393	3992.18
10.9018	3997.83
10.9648	4003.42
11.0281	4008.95
11.0917	4014.42
11.1558	4019.82
11.2202	4025.15
11.285	4030.43
11.3501	4035.64
11.4156	4040.79
11.4815	4045.87
11.5478	4050.89
11.6145	4055.85
11.6815	4060.75
11.749	4065.58
11.8168	4070.35
11.885	4075.05
11.9536	4079.69
12.0226	4084.27
12.0921	4088.78
12.1619	4093.23
12.2321	4097.62
12.3027	4101.95
12.3737	4106.21
12.4451	4110.41
12.517	4114.54
12.5893	4118.61
12.6619	4122.62
12.735	4126.57
12.8086	4130.46
12.8825	4134.28
12.9569	4138.04
13.0317	4141.74
13.1069	4145.37
13.1826	4148.94
13.2587	4152.46
13.3352	4155.91
13.4122	4159.29
13.4896	4162.62
13.5675	4165.89
13.6458	4169.09
13.7246	4172.24
13.8038	4175.32
13.8835	4178.34
13.9637	4181.31
14.0443	4184.21
14.1254	4187.05
14.2069	4189.84
14.2889	4192.56
14.3714	4195.23
14.4544	4197.83
14.5378	4200.38
14.6218	4202.87
14.7062	4205.3
14.7911	4207.67
14.8765	4209.99
14.9624	4212.25
15.0487	4214.45
15.1356	4216.6
15.223	4218.68
15.3109	4201.43
15.3993	4203.57
15.4882	4205.65
15.5776	4207.68
15.6675	4209.66
15.758	4211.58
15.8489	4213.44
15.9404	4215.25
16.0325	4217
16.125	4218.7
16.2181	4220.35
16.3117	4221.94
16.4059	4223.48
16.5006	4224.97
16.5959	4226.4
16.6917	4227.78
16.788	4229.11
16.885	4230.39
16.9824	4231.62
17.0805	4232.8
17.1791	4233.93
17.2783	4235
17.378	4236.03
17.4783	4237.01
17.5792	4237.94
17.6807	4238.82
17.7828	4239.66
17.8855	4240.44
17.9887	4241.18
18.0926	4241.88
18.197	4242.52
18.3021	4243.12
18.4077	4243.68
18.514	4244.19
18.6209	4244.65
18.7284	4245.07
18.8365	4245.45
18.9452	4245.78
19.0546	4246.07
19.1646	4246.32
19.2752	4246.52
19.3865	4246.69
19.4984	4246.81
19.611	4246.89
19.7242	4246.93
19.8381	4246.93
19.9526	4246.89
20.0678	4246.81
20.1837	4246.69
20.3002	4246.53
20.4174	4246.34
20.5353	4246.11
20.6538	4245.84
20.773	4245.53
20.893	4245.19
21.0136	4244.81
21.1349	4244.39
21.2569	4243.94
21.3796	4243.46
21.503	4242.94
21.6272	4242.39
21.752	4241.8
21.8776	4241.18
22.0039	4240.53
22.1309	4239.85
22.2587	4239.13
22.3872	4238.39
22.5165	4237.61
22.6464	4236.8
22.7772	4235.96
22.9087	4235.09
23.0409	4234.2
23.1739	4233.27
23.3077	4232.32
23.4423	4231.33
23.5776	4230.32
23.7137	4229.28
23.8506	4228.22
23.9883	4227.13
24.1268	4226.01
24.2661	4224.87
24.4062	4223.7
24.5471	4222.51
24.6888	4221.29
24.8313	4220.04
24.9747	4218.78
25.1189	4217.49
25.2639	4216.18
25.4097	4214.84
25.5564	4213.48
25.704	4212.1
25.8523	4210.7
26.0016	4209.28
26.1517	4207.84
26.3027	4206.37
26.4545	4204.89
26.6073	4203.38
26.7609	4201.86
26.9153	4200.32
27.0707	4198.75
27.227	4197.17
27.3842	4195.58
27.5423	4193.96
27.7013	4192.32
27.8612	4190.67
28.0221	4189.01
28.1838	4187.32
28.3465	4185.62
28.5102	4183.9
28.6748	4182.17
28.8403	4180.42
29.0068	4178.66
29.1743	4176.88
29.3427	4175.08
29.5121	4173.28
29.6825	4171.46
29.8538	4169.62
30.0262	4167.77
30.1995	4165.91
30.3739	4164.03
30.5492	4162.15
30.7256	4160.25
30.903	4158.33
31.0814	4156.41
31.2608	4154.47
31.4413	4152.53
31.6228	4150.57
31.8053	4148.6
31.989	4146.62
32.1736	4144.62
32.3594	4142.62
32.5462	4140.61
32.7341	4138.59
32.923	4136.56
33.1131	4134.52
33.3043	4132.46
33.4965	4130.4
33.6899	4128.34
33.8844	4126.26
34.08	4124.17
34.2768	4122.07
34.4747	4119.97
34.6737	4117.86
34.8739	4115.74
35.0752	4113.61
35.2777	4111.48
35.4813	4109.33
35.6862	4107.18
35.8922	4105.03
36.0994	4102.86
36.3078	4100.69
36.5174	4098.51
36.7282	4096.33
36.9403	4094.13
37.1535	4091.94
37.368	4089.73
37.5837	4087.52
37.8007	4085.3
38.0189	4083.08
38.2384	4080.85
38.4592	4078.61
38.6812	4076.37
38.9045	4074.13
39.1291	4071.87
39.355	4069.62
39.5822	4067.35
39.8107	4065.08
40.0405	4062.81
40.2717	4060.53
40.5042	4058.25
40.738	4055.96
40.9732	4053.66
41.2098	4051.36
41.4477	4049.06
41.6869	4046.75
41.9276	4044.43
42.1697	4042.12
42.4131	4039.79
42.658	4037.46
42.9042	4035.13
43.1519	4032.79
43.401	4030.45
43.6516	4028.1
43.9036	4025.75
44.157	4023.39
44.412	4021.03
44.6684	4018.67
44.9262	4016.3
45.1856	4013.92
45.4465	4011.55
45.7088	4009.16
45.9727	4006.77
46.2381	4004.38
46.505	4001.99
46.7735	3999.58
47.0435	3997.18
47.3151	3994.77
47.5883	3992.35
47.863	3989.94
48.1393	3987.51
48.4172	3985.08
48.6968	3982.65
48.9779	3980.21
49.2606	3977.77
49.545	3975.32
49.831	3972.87
50.1187	3970.42
50.4081	3967.96
50.6991	3965.49
50.9918	3963.02
51.2861	3960.55
51.5822	3958.07
51.88	3955.58
52.1795	3953.09
52.4807	3950.6
52.7837	3948.1
53.0884	3945.59
53.3949	3943.08
53.7032	3940.57
54.0132	3938.05
54.325	3935.52
54.6387	3932.99
54.9541	3930.46
55.2713	3927.92
55.5904	3925.37
55.9114	3922.82
56.2341	3920.26
56.5588	3917.7
56.8853	3915.13
57.2137	3912.55
57.544	3909.97
57.8762	3907.39
58.2103	3904.8
58.5464	3902.2
58.8844	3899.59
59.2243	3896.98
59.5662	3894.37
59.9101	3891.74
60.256	3889.12
60.6038	3886.48
60.9537	3883.84
61.3056	3881.19
61.6595	3878.54
62.0155	3875.88
62.3735	3873.21
62.7336	3870.53
63.0957	3867.85
63.46	3865.17
63.8263	3862.47
64.1948	3859.77
64.5654	3857.06
64.9382	3854.35
65.3131	3851.62
65.6901	3848.89
66.0693	3846.15
66.4508	3843.41
66.8344	3840.65
67.2202	3837.89
67.6083	3835.12
67.9986	3832.35
68.3912	3829.56
68.786	3826.77
69.1831	3823.97
69.5825	3821.16
69.9842	3818.34
70.3882	3815.52
70.7946	3812.69
71.2033	3809.84
71.6143	3807
72.0278	3804.14
72.4436	3801.27
72.8618	3798.39
73.2825	3795.51
73.7055	3792.62
74.131	3789.71
74.559	3786.8
74.9894	3783.88
75.4223	3780.95
75.8578	3778.02
76.2957	3775.07
76.7361	3772.11
77.1792	3769.14
77.6247	3766.17
78.0728	3763.18
78.5236	3760.19
78.9769	3757.18
79.4328	3754.17
79.8914	3751.14
80.3526	3748.11
80.8165	3745.06
81.2831	3742.01
81.7523	3738.94
82.2243	3735.87
82.699	3732.78
83.1764	3729.69
83.6566	3726.58
84.1395	3723.46
84.6253	3720.33
85.1138	3717.2
85.6052	3714.05
86.0994	3710.89
86.5964	3707.71
87.0964	3704.53
87.5992	3701.34
88.1049	3698.13
88.6135	3694.92
89.1251	3691.69
89.6396	3688.45
90.1571	3685.2
90.6776	3681.94
91.2011	3678.67
91.7276	3675.38
92.2571	3672.08
92.7897	3668.78
93.3254	3665.46
93.8642	3662.12
94.4061	3658.78
94.9511	3655.42
95.4993	3652.05
96.0506	3648.67
96.6051	3645.28
97.1628	3641.88
97.7237	3638.46
98.2879	3635.03
98.8553	3631.58
99.426	3628.13
100	3624.66
100.577	3621.18
101.158	3617.65
101.742	3611.14
102.329	3604.64
102.92	3598.16
103.514	3591.7
104.112	3585.25
104.713	3578.82
105.317	3572.59
105.925	3566.16
106.537	3559.73
107.152	3553.33
107.771	3546.92
108.393	3540.52
109.018	3534.13
109.648	3527.74
110.281	3521.35
110.917	3514.98
111.558	3508.61
112.202	3502.24
112.85	3496.35
113.501	3489.99
114.156	3483.78
114.815	3477.43
115.478	3471.09
116.145	3464.75
116.815	3458.42
117.49	3452.09
118.168	3445.77
118.85	3439.45
119.536	3433.14
120.226	3426.83
120.921	3420.52
121.619	3414.21
122.321	3407.91
123.027	3401.61
123.737	3397.35
124.451	3391.04
125.17	3384.73
125.893	3378.43
126.619	3372.13
127.35	3358.91
128.086	3353.11
128.825	3346.7
129.569	3340.29
130.317	3333.88
131.069	3327.48
131.826	3321.1
132.587	3314.72
133.352	3308.33
134.122	3301.95
134.896	3295.58
135.675	3289.2
136.458	3282.82
137.246	3276.44
138.038	3270.06
138.835	3263.68
139.637	3262.2
140.443	3255.8
141.254	3249.39
142.069	3242.98
142.889	3236.57
143.714	3230.16
144.544	3223.75
145.378	3217.33
146.218	3210.92
147.062	3204.5
147.911	3198.08
148.765	3191.65
149.624	3185.23
150.487	3178.8
151.356	3174.43
152.23	3168
153.109	3161.55
153.993	3155.11
154.882	3148.67
155.776	3142.22
156.675	3135.77
157.58	3129.31
158.489	3122.85
159.404	3116.4
160.325	3109.94
161.25	3103.47
162.181	3097.01
163.117	3090.54
164.059	3084.08
165.006	3077.61
165.959	3071.14
166.917	3064.66
167.88	3058.19
168.85	3051.72
169.824	3045.24
170.805	3038.76
171.791	3032.42
172.783	3025.93
173.78	3019.45
174.783	3012.97
175.792	3006.49
176.807	3000
177.828	2993.56
178.855	2987.41
179.887	2981.24
180.926	2975.07
181.97	2968.9
183.021	2962.72
184.077	2956.54
185.14	2950.35
186.209	2944.16
187.284	2937.97
188.365	2931.77
189.452	2925.58
190.546	2919.38
191.646	2913.17
192.752	2906.97
193.865	2900.76
194.984	2894.55
196.11	2888.34
197.242	2882.12
198.381	2875.91
199.526	2869.69
200.678	2863.47
201.837	2857.25
203.002	2851.02
204.174	2844.8
205.353	2838.57
206.538	2832.34
207.73	2826.93
208.93	2820.68
210.136	2814.44
211.349	2808.2
212.569	2801.96
213.796	2795.71
215.03	2789.47
216.272	2783.23
217.52	2776.99
218.776	2770.75
220.039	2764.51
221.309	2758.27
222.587	2752.03
223.872	2745.79
225.165	2739.56
226.464	2735.28
227.772	2729.03
229.087	2722.78
230.409	2716.53
231.739	2710.29
233.077	2704.05
234.423	2697.81
235.776	2691.58
237.137	2685.34
238.506	2679.11
239.883	2672.89
241.268	2666.66
242.661	2660.44
244.062	2654.22
245.471	2648
246.888	2641.79
248.313	2635.58
249.747	2629.38
251.189	2623.18
252.639	2616.98
254.097	2610.78
255.564	2604.59
257.04	2598.4
258.523	2592.22
260.016	2586.03
261.517	2579.85
263.027	2573.68
264.545	2567.51
266.073	2561.34
267.609	2555.18
269.153	2549.02
270.707	2542.86
272.27	2536.71
273.842	2530.56
275.423	2524.42
277.013	2518.28
278.612	2512.14
280.221	2506.01
281.838	2499.88
283.465	2493.75
285.102	2487.63
286.748	2481.57
288.403	2475.45
290.068	2469.9
291.743	2463.78
293.427	2457.67
295.121	2451.57
296.825	2445.46
298.538	2439.36
300.262	2433.26
301.995	2427.17
303.739	2421.08
305.492	2415
307.256	2408.92
309.03	2402.84
310.814	2396.77
312.608	2390.69
314.413	2384.63
316.228	2378.57
318.053	2372.51
319.89	2366.45
321.736	2360.4
323.594	2354.35
325.462	2348.31
327.341	2342.27
329.23	2336.23
331.131	2330.2
333.043	2324.17
334.965	2318.15
336.899	2312.13
338.844	2306.11
340.8	2300.1
342.768	2294.09
344.747	2288.08
346.737	2282.08
348.739	2276.09
350.752	2270.09
352.777	2264.1
354.813	2258.12
356.862	2252.14
358.922	2246.16
360.994	2240.19
363.078	2234.22
365.174	2228.25
367.282	2222.29
369.403	2216.34
371.535	2210.38
373.68	2204.44
375.837	2198.49
378.007	2192.55
380.189	2187.36
382.384	2181.41
384.592	2175.47
386.812	2169.54
389.045	2163.6
391.291	2157.68
393.55	2151.75
395.822	2145.83
398.107	2139.92
400.405	2134.01
402.717	2128.14
405.042	2122.23
407.38	2116.33
409.732	2110.44
412.098	2104.55
414.477	2098.66
416.869	2092.78
419.276	2086.91
421.697	2081.04
424.131	2075.17
426.58	2069.31
429.042	2063.45
431.519	2057.6
434.01	2051.75
436.516	2045.91
439.036	2040.07
441.57	2034.23
444.12	2028.4
446.684	2022.58
449.262	2016.76
451.856	2010.94
454.465	2005.13
457.088	1999.32
459.727	1993.52
462.381	1987.72
465.05	1981.93
467.735	1976.14
470.435	1970.36
473.151	1964.58
475.883	1958.8
478.63	1953.04
481.393	1947.27
484.172	1941.52
486.968	1935.76
489.779	1930.02
492.606	1924.27
495.45	1918.54
498.31	1912.81
501.187	1907.08
504.081	1901.36
506.991	1895.64
509.918	1889.94
512.861	1884.23
515.822	1878.54
518.8	1872.84
521.795	1867.16
524.807	1861.48
527.837	1855.8
530.884	1850.14
533.949	1844.96
537.032	1839.3
540.132	1833.64
543.25	1828
546.387	1822.35
549.541	1816.72
552.713	1811.09
555.904	1805.46
559.114	1799.85
562.341	1794.24
565.588	1788.63
568.853	1783.04
572.137	1777.45
575.44	1771.86
578.762	1766.29
582.103	1760.72
585.464	1755.16
588.844	1749.61
592.243	1744.06
595.662	1738.52
599.101	1732.99
602.56	1727.46
606.038	1721.95
609.537	1716.44
613.056	1710.94
616.595	1705.44
620.155	1699.96
623.735	1694.48
627.336	1689.01
630.957	1683.55
634.6	1678.09
638.263	1672.65
641.948	1667.21
645.654	1661.78
649.382	1656.36
653.131	1650.95
656.901	1645.54
660.693	1640.15
664.508	1634.76
668.344	1629.38
672.202	1624.01
676.083	1618.65
679.986	1613.29
683.912	1607.95
687.86	1602.61
691.831	1597.28
695.825	1591.96
699.842	1586.65
703.882	1581.35
707.946	1576.06
712.033	1570.78
716.143	1565.5
720.278	1560.24
724.436	1554.98
728.618	1549.74
732.825	1544.5
737.055	1539.27
741.31	1534.05
745.59	1528.84
749.894	1523.64
754.223	1518.45
758.578	1513.27
762.957	1508.1
767.361	1502.94
771.792	1497.79
776.247	1492.65
780.728	1487.52
785.236	1482.39
789.769	1477.28
794.328	1472.18
798.914	1467.09
803.526	1462.01
808.165	1456.93
812.831	1451.87
817.523	1446.82
822.243	1441.78
826.99	1436.74
831.764	1431.72
836.566	1426.71
841.395	1421.71
846.253	1416.72
851.138	1411.74
856.052	1406.76
860.994	1401.8
865.964	1396.85
870.964	1391.91
875.992	1386.98
881.049	1382.06
886.135	1377.16
891.251	1372.26
896.396	1367.37
901.571	1362.49
906.776	1357.62
912.011	1352.77
917.276	1347.92
922.571	1343.08
927.897	1338.26
933.254	1333.44
938.642	1328.64
944.061	1323.85
949.511	1319.06
954.993	1314.29
960.506	1309.53
966.051	1304.78
971.628	1300.04
977.237	1295.31
982.879	1290.59
988.553	1285.88
994.26	1281.19
1000	1277.08
1005.77	1272.4
1011.58	1267.73
1017.42	1263.07
1023.29	1258.43
1029.2	1253.79
1035.14	1249.16
1041.12	1244.55
1047.13	1239.95
1053.17	1235.35
1059.25	1230.77
1065.37	1226.2
1071.52	1221.64
1077.71	1217.1
1083.93	1212.56
1090.18	1208.03
1096.48	1203.52
1102.81	1199.02
1109.17	1194.53
1115.58	1190.05
1122.02	1185.58
1128.5	1181.12
1135.01	1176.67
1141.56	1172.24
1148.15	1167.82
1154.78	1163.41
1161.45	1159
1168.15	1154.62
1174.9	1150.24
1181.68	1145.87
1188.5	1141.52
1195.36	1137.17
1202.26	1132.84
1209.21	1128.52
1216.19	1124.21
1223.21	1119.92
1230.27	1115.63
1237.37	1111.36
1244.51	1107.1
1251.7	1102.85
1258.93	1098.61
1266.19	1094.38
1273.5	1090.17
1280.86	1085.96
1288.25	1081.77
1295.69	1077.59
1303.17	1073.42
1310.69	1069.26
1318.26	1065.12
1325.87	1060.99
1333.52	1056.86
1341.22	1052.75
1348.96	1048.66
1356.75	1044.57
1364.58	1040.5
1372.46	1036.43
1380.38	1032.38
1388.35	1028.35
1396.37	1024.32
1404.43	1020.3
1412.54	1016.3
1420.69	1012.31
1428.89	1008.33
1437.14	1004.36
1445.44	1000.41
1453.78	996.462
1462.18	992.529
1470.62	988.609
1479.11	984.701
1487.65	980.804
1496.24	976.92
1504.87	973.047
1513.56	969.186
1522.3	965.337
1531.09	961.5
1539.93	957.674
1548.82	953.86
1557.76	950.059
1566.75	946.269
1575.8	942.492
1584.89	938.726
1594.04	934.972
1603.25	931.23
1612.5	927.5
1621.81	923.782
1631.17	920.075
1640.59	916.381
1650.06	912.698
1659.59	909.027
1669.17	905.369
1678.8	901.721
1688.5	898.086
1698.24	894.463
1708.05	890.851
1717.91	887.251
1727.83	883.663
1737.8	880.087
1747.83	876.523
1757.92	872.97
1768.07	869.43
1778.28	865.901
1788.55	862.384
1798.87	858.878
1809.26	855.385
1819.7	851.903
1830.21	848.433
1840.77	844.974
1851.4	841.528
1862.09	838.093
1872.84	834.67
1883.65	831.258
1894.52	827.858
1905.46	824.47
1916.46	821.094
1927.52	817.729
1938.65	814.376
1949.84	811.035
1961.1	807.705
1972.42	804.386
1983.81	801.08
1995.26	797.785
2006.78	794.501
2018.37	791.23
2030.02	787.969
2041.74	784.721
2053.53	781.483
2065.38	778.258
2077.3	775.044
2089.3	771.841
2101.36	768.649
2113.49	765.47
2125.69	762.302
2137.96	759.145
2150.3	755.999
2162.72	752.866
2175.2	749.743
2187.76	746.632
2200.39	743.532
2213.09	740.444
2225.87	737.367
2238.72	734.301
2251.65	731.246
2264.64	728.203
2277.72	725.171
2290.87	722.151
2304.09	719.142
2317.39	716.143
2330.77	713.157
2344.23	710.181
2357.76	707.217
2371.37	704.263
2385.06	701.321
2398.83	698.39
2412.68	695.47
2426.61	692.561
2440.62	689.663
2454.71	686.777
2468.88	683.901
2483.13	681.036
2497.47	678.183
2511.89	675.34
2526.39	672.508
2540.97	669.687
2555.64	666.878
2570.4	664.079
2585.23	661.29
2600.16	658.513
2615.17	655.747
2630.27	652.991
2645.45	650.247
2660.73	647.513
2676.09	644.79
2691.53	642.077
2707.07	639.375
2722.7	636.684
2738.42	634.004
2754.23	631.334
2770.13	628.675
2786.12	626.027
2802.21	623.389
2818.38	620.762
2834.65	618.145
2851.02	615.539
2867.48	612.943
2884.03	610.358
2900.68	607.783
2917.43	605.219
2934.27	602.665
2951.21	600.122
2968.25	597.588
2985.38	595.066
3002.62	592.553
3019.95	590.051
3037.39	587.559
3054.92	585.077
3072.56	582.606
3090.3	580.145
3108.14	577.694
3126.08	575.253
3144.13	572.822
3162.28	570.401
3180.53	567.991
3198.9	565.59
3217.36	563.2
3235.94	560.819
3254.62	558.449
3273.41	556.088
3292.3	553.738
3311.31	551.397
3330.43	549.066
3349.65	546.745
3368.99	544.434
3388.44	542.132
3408	539.841
3427.68	537.559
3447.47	535.287
3467.37	533.025
3487.39	530.772
3507.52	528.529
3527.77	526.296
3548.13	524.072
3568.62	521.857
3589.22	519.653
3609.94	517.458
3630.78	515.272
3651.74	513.096
3672.82	510.929
3694.03	508.771
3715.35	506.623
3736.8	504.485
3758.37	502.356
3780.07	500.236
3801.89	498.125
3823.84	496.023
3845.92	493.931
3868.12	491.848
3890.45	489.774
3912.91	487.71
3935.5	485.654
3958.22	483.607
3981.07	481.57
4004.05	479.542
4027.17	477.522
4050.42	475.512
4073.8	473.51
4097.32	471.518
4120.98	469.534
4144.77	467.559
4168.69	465.593
4192.76	463.636
4216.97	461.688
4241.31	459.748
4265.8	457.817
4290.42	455.895
4315.19	453.982
4340.1	452.077
4365.16	450.181
4390.36	448.293
4415.7	446.414
4441.2	444.543
4466.84	442.681
4492.62	440.828
4518.56	438.983
4544.65	437.146
4570.88	435.318
4597.27	433.498
4623.81	431.686
4650.5	429.883
4677.35	428.088
4704.35	426.302
4731.51	424.523
4758.83	422.753
4786.3	420.991
4813.93	419.237
4841.72	417.491
4869.68	415.753
4897.79	414.024
4926.06	412.302
4954.5	410.588
4983.1	408.883
5011.87	407.185
5040.81	405.495
5069.91	403.813
5099.18	402.139
5128.61	400.473
5158.22	398.815
5188	397.164
5217.95	395.522
5248.07	393.886
5278.37	392.259
5308.84	390.639
5339.49	389.027
5370.32	387.423
5401.32	385.826
5432.5	384.237
5463.87	382.655
5495.41	381.081
5527.13	379.514
5559.04	377.955
5591.14	376.403
5623.41	374.858
5655.88	373.321
5688.53	371.791
5721.37	370.269
5754.4	368.754
5787.62	367.246
5821.03	365.745
5854.64	364.252
5888.44	362.766
5922.43	361.287
5956.62	359.815
5991.01	358.35
6025.6	356.892
6060.38	355.441
6095.37	353.997
6130.56	352.561
6165.95	351.131
6201.55	349.708
6237.35	348.292
6273.36	346.883
6309.57	345.481
6346	344.085
6382.63	342.697
6419.48	341.315
6456.54	339.94
6493.82	338.572
6531.31	337.21
6569.01	335.855
6606.93	334.507
6645.08	333.165
6683.44	331.83
6722.02	330.501
6760.83	329.179
6799.86	327.864
6839.12	326.555
6878.6	325.252
6918.31	323.956
6958.25	322.666
6998.42	321.383
7038.82	320.106
7079.46	318.836
7120.33	317.571
7161.43	316.313
7202.78	315.062
7244.36	313.816
7286.18	312.577
7328.25	311.343
7370.55	310.116
7413.1	308.896
7455.9	307.681
7498.94	306.472
7542.23	305.27
7585.78	304.073
7629.57	302.882
7673.61	301.698
7717.92	300.519
7762.47	299.346
7807.28	298.18
7852.36	297.019
7897.69	295.863
7943.28	294.714
7989.14	293.571
8035.26	292.433
8081.65	291.301
8128.31	290.175
8175.23	289.055
8222.43	287.94
8269.9	286.831
8317.64	285.727
8365.66	284.629
8413.95	283.537
8462.53	282.45
8511.38	281.369
8560.52	280.294
8609.94	279.224
8659.64	278.159
8709.64	277.1
8759.92	276.046
8810.49	274.998
8861.35	273.955
8912.51	272.917
8963.96	271.885
9015.71	270.858
9067.76	269.836
9120.11	268.82
9172.76	267.808
9225.71	266.803
9278.97	265.802
9332.54	264.806
9386.42	263.816
9440.61	262.831
9495.11	261.85
9549.93	260.875
9605.06	259.905
9660.51	258.94
9716.28	257.98
9772.37	257.025
9828.79	256.075
9885.53	255.13
9942.6	254.19
10000	253.255
10057.7	252.325
10115.8	251.4
10174.2	250.479
10232.9	249.563
10292	248.652
10351.4	247.746
10411.2	246.845
10471.3	245.948
10531.7	245.056
10592.5	244.169
10653.7	243.287
10715.2	242.409
10777.1	241.536
10839.3	240.667
10901.8	239.803
10964.8	238.944
11028.1	238.089
11091.7	237.239
11155.8	236.393
11220.2	235.552
11285	234.715
11350.1	233.883
11415.6	233.055
11481.5	232.231
11547.8	231.412
11614.5	230.598
11681.5	229.787
11749	228.981
11816.8	228.18
11885	227.382
11953.6	226.589
12022.6	225.801
12092.1	225.016
12161.9	224.236
12232.1	223.46
12302.7	222.688
12373.7	221.92
12445.1	221.157
12517	220.397
12589.3	219.642
12661.9	218.891
12735	218.144
12808.6	217.401
12882.5	216.662
12956.9	215.927
13031.7	215.196
13106.9	214.469
13182.6	213.746
13258.7	213.027
13335.2	212.312
13412.2	211.6
13489.6	210.893
13567.5	210.19
13645.8	209.49
13724.6	208.795
13803.8	208.103
13883.5	207.415
13963.7	206.731
14044.3	206.05
14125.4	205.373
14206.9	204.7
14288.9	204.031
14371.4	203.366
14454.4	202.704
14537.8	202.046
14621.8	201.392
14706.2	200.741
14791.1	200.094
14876.5	199.45
14962.4	198.81
15048.7	198.174
15135.6	197.541
15223	196.912
15310.9	196.286
15399.3	195.664
15488.2	195.045
15577.6	194.43
15667.5	193.818
15758	193.21
15848.9	192.605
15940.4	192.004
16032.5	191.406
16125	190.811
16218.1	190.22
16311.7	189.632
16405.9	189.048
16500.6	188.467
16595.9	187.889
16691.7	187.314
16788	186.743
16885	186.175
16982.4	185.611
17080.5	185.049
17179.1	184.491
17278.3	183.936
17378	183.384
17478.3	182.835
17579.2	182.29
17680.7	181.748
17782.8	181.209
17885.5	180.673
17988.7	180.14
18092.6	179.61
18197	179.083
18302.1	178.56
18407.7	178.039
18514	177.521
18620.9	177.007
18728.4	176.496
18836.5	175.987
18945.2	175.482
19054.6	174.979
19164.6	174.48
19275.2	173.983
19386.5	173.489
19498.4	172.999
19611	172.511
19724.2	172.026
19838.1	171.544
19952.6	171.065
20067.8	170.589
20183.7	170.115
20300.2	169.645
20417.4	169.177
20535.3	168.712
20653.8	168.25
20773	167.79
20893	167.334
21013.6	166.88
21134.9	166.429
21256.9	165.98
21379.6	165.535
21503	165.092
21627.2	164.651
21752	164.214
21877.6	163.779
22003.9	163.347
22130.9	162.917
22258.7	162.49
22387.2	162.066
22516.5	161.644
22646.4	161.225
22777.2	160.809
22908.7	160.395
23040.9	159.983
23173.9	159.575
23307.7	159.169
23442.3	158.765
23577.6	158.364
23713.7	157.965
23850.6	157.569
23988.3	157.175
24126.8	156.784
24266.1	156.395
24406.2	156.009
24547.1	155.625
24688.8	155.243
24831.3	154.864
24974.7	154.488
25118.9	154.113
25263.9	153.741
25409.7	153.372
25556.4	153.005
25704	152.64
25852.3	152.278
26001.6	151.918
26151.7	151.56
26302.7	151.205
26454.5	150.852
26607.3	150.501
26760.9	150.152
26915.3	149.806
27070.7	149.462
27227	149.12
27384.2	148.781
27542.3	148.444
27701.3	148.108
27861.2	147.776
28022.1	147.445
28183.8	147.117
28346.5	146.79
28510.2	146.466
28674.8	146.144
28840.3	145.825
29006.8	145.507
29174.3	145.192
29342.7	144.878
29512.1	144.567
29682.5	144.258
29853.8	143.951
30026.2	143.646
30199.5	143.343
30373.9	143.042
30549.2	142.744
30725.6	142.447
30903	142.152
31081.4	141.86
31260.8	141.569
31441.3	141.281
31622.8	140.994
31805.3	140.709
31989	140.427
32173.6	140.146
32359.4	139.868
32546.2	139.591
32734.1	139.316
32923	139.044
33113.1	138.773
33304.3	138.504
33496.5	138.237
33689.9	137.972
33884.4	137.709
34080	137.447
34276.8	137.188
34474.7	136.93
34673.7	136.675
34873.9	136.421
35075.2	136.169
35277.7	135.919
35481.3	135.671
35686.2	135.424
35892.2	135.18
36099.4	134.937
36307.8	134.696
36517.4	134.457
36728.2	134.219
36940.3	133.983
37153.5	133.75
37368	133.517
37583.7	133.287
37800.7	133.058
38018.9	132.832
38238.4	132.606
38459.2	132.383
38681.2	132.161
38904.5	131.941
39129.1	131.723
39355	131.506
39582.2	131.291
39810.7	131.078
40040.5	130.866
40271.7	130.657
40504.2	130.448
40738	130.242
40973.2	130.037
41209.8	129.833
41447.7	129.632
41686.9	129.432
41927.6	129.233
42169.7	129.036
42413.1	128.841
42658	128.647
42904.2	128.455
43151.9	128.264
43401	128.075
43651.6	127.888
43903.6	127.702
44157	127.518
44412	127.335
44668.4	127.154
44926.2	126.974
45185.6	126.796
45446.5	126.619
45708.8	126.444
45972.7	126.27
46238.1	126.098
46505	125.928
46773.5	125.758
47043.5	125.591
47315.1	125.424
47588.3	125.259
47863	125.096
48139.3	124.934
48417.2	124.774
48696.8	124.615
48977.9	124.457
49260.6	124.297
49545	124.129
49831	123.962
50118.7	123.797
50408.1	123.633
50699.1	123.471
50991.8	123.31
51286.1	123.15
51582.2	122.992
51880	122.835
52179.5	122.679
52480.7	122.525
52783.7	122.372
53088.4	122.22
53394.9	122.069
53703.2	121.92
54013.2	121.773
54325	121.626
54638.7	121.481
54954.1	121.337
55271.3	121.194
55590.4	121.053
55911.4	120.913
56234.1	120.774
56558.8	120.636
56885.3	120.5
57213.7	120.365
57544	120.231
57876.2	120.098
58210.3	119.966
58546.4	119.836
58884.4	119.707
59224.3	119.579
59566.2	119.452
59910.1	119.327
60256	119.203
60603.8	119.08
60953.7	118.958
61305.6	118.837
61659.5	118.717
62015.5	118.599
62373.5	118.481
62733.6	118.365
63095.7	118.25
63460	118.136
63826.3	118.023
64194.8	117.912
64565.4	117.801
64938.2	117.692
65313.1	117.583
65690.1	117.476
66069.3	117.37
66450.8	117.265
66834.4	117.161
67220.2	117.058
67608.3	116.956
67998.6	116.855
68391.2	116.756
68786	116.657
69183.1	116.559
69582.5	116.463
69984.2	116.367
70388.2	116.273
70794.6	116.179
71203.3	116.087
71614.3	115.996
72027.8	115.905
72443.6	115.816
72861.8	115.727
73282.5	115.64
73705.5	115.554
74131	115.468
74559	115.384
74989.4	115.3
75422.3	115.218
75857.8	115.136
76295.7	115.056
76736.1	114.976
77179.2	114.897
77624.7	114.82
78072.8	114.743
78523.6	114.667
78976.9	114.592
79432.8	114.518
79891.4	114.445
80352.6	114.373
80816.5	114.302
81283.1	114.231
81752.3	114.162
82224.3	114.093
82699	114.026
83176.4	113.959
83656.6	113.893
84139.5	113.828
84625.3	113.764
85113.8	113.701
85605.2	113.638
86099.4	113.577
86596.4	113.516
87096.4	113.456
87599.2	113.397
88104.9	113.339
88613.5	113.282
89125.1	113.225
89639.6	113.17
90157.1	113.115
90677.6	113.061
91201.1	113.008
91727.6	112.955
92257.1	112.904
92789.7	112.853
93325.4	112.803
93864.2	112.754
94406.1	112.706
94951.1	112.658
95499.3	112.611
96050.6	112.565
96605.1	112.52
97162.8	112.475
97723.7	112.432
98287.9	112.389
98855.3	112.346
99426	112.305
100000	112.264
100577	112.224
101158	112.185
101742	112.146
102329	112.108
102920	112.071
103514	112.035
104112	111.999
104713	111.964
105317	111.93
105925	111.897
106537	111.864
107152	111.832
107771	111.8
108393	111.769
109018	111.739
109648	111.71
110281	111.681
110917	111.653
111558	111.626
112202	111.599
112850	111.573
113501	111.547
114156	111.523
114815	111.499
115478	111.475
116145	111.452
116815	111.43
117490	111.408
118168	111.388
118850	111.367
119536	111.348
120226	111.328
120921	111.31
121619	111.292
122321	111.275
123027	111.258
123737	111.242
124451	111.227
125170	111.212
125893	111.197
126619	111.184
127350	111.171
128086	111.158
128825	111.146
129569	111.135
130317	111.124
131069	111.114
131826	111.104
132587	111.095
133352	111.086
134122	111.078
134896	111.071
135675	111.064
136458	111.057
137246	111.051
138038	111.046
138835	111.041
139637	111.037
140443	111.033
141254	111.03
142069	111.027
142889	111.025
143714	111.023
144544	111.022
145378	111.021
146218	111.021
147062	111.021
147911	111.022
148765	111.023
149624	111.024
150487	111.027
151356	111.029
152230	111.032
153109	111.036
153993	111.04
154882	111.045
155776	111.05
156675	111.055
157580	111.061
158489	111.068
159404	111.074
160325	111.082
161250	111.089
162181	111.097
163117	111.106
164059	111.115
165006	111.125
165959	111.134
166917	111.145
167880	111.156
168850	111.167
169824	111.178
170805	111.19
171791	111.203
172783	111.216
173780	111.229
174783	111.242
175792	111.256
176807	111.271
177828	111.286
178855	111.301
179887	111.316
180926	111.332
181970	111.349
183021	111.366
184077	111.383
185140	111.4
186209	111.418
187284	111.436
188365	111.455
189452	111.474
190546	111.493
191646	111.513
192752	111.533
193865	111.553
194984	111.574
196110	111.595
197242	111.617
198381	111.638
199526	111.661
200678	111.683
201837	111.706
203002	111.729
204174	111.752
205353	111.776
206538	111.8
207730	111.825
208930	111.85
210136	111.875
211349	111.9
212569	111.926
213796	111.952
215030	111.978
216272	112.005
217520	112.032
218776	112.059
220039	112.087
221309	112.114
222587	112.143
223872	112.171
225165	112.2
226464	112.229
227772	112.258
229087	112.288
230409	112.318
231739	112.348
233077	112.378
234423	112.409
235776	112.44
237137	112.471
238506	112.502
239883	112.534
241268	112.566
242661	112.599
244062	112.631
245471	112.664
246888	112.697
248313	112.73
249747	112.764
251189	112.798
252639	112.832
254097	112.866
255564	112.901
257040	112.936
258523	112.971
260016	113.006
261517	113.041
263027	113.077
264545	113.113
266073	113.149
267609	113.186
269153	113.222
270707	113.259
272270	113.296
273842	113.334
275423	113.371
277013	113.409
278612	113.447
280221	113.485
281838	113.523
283465	113.562
285102	113.601
286748	113.64
288403	113.679
290068	113.719
291743	113.758
293427	113.798
295121	113.838
296825	113.878
298538	113.919
300262	113.959
301995	114
303739	114.041
305492	114.082
307256	114.123
309030	114.165
310814	114.207
312608	114.248
314413	114.29
316228	114.333
318053	114.375
319890	114.418
321736	114.46
323594	114.503
325462	114.546
327341	114.59
329230	114.633
331131	114.677
333043	114.72
334965	114.764
336899	114.808
338844	114.853
340800	114.897
342768	114.941
344747	114.986
346737	115.031
348739	115.076
350752	115.121
352777	115.166
354813	115.212
356862	115.257
358922	115.303
360994	115.349
363078	115.395
365174	115.441
367282	115.487
369403	115.534
371535	115.58
373680	115.627
375837	115.674
378007	115.72
380189	115.768
382384	115.815
384592	115.862
386812	115.909
389045	115.957
391291	116.005
393550	116.053
395822	116.1
398107	116.148
400405	116.197
402717	116.245
405042	116.293
407380	116.342
409732	116.39
412098	116.439
414477	116.488
416869	116.537
419276	116.586
421697	116.635
424131	116.684
426580	116.734
429042	116.783
431519	116.833
434010	116.883
436516	116.932
439036	116.982
441570	117.032
444120	117.082
446684	117.132
449262	117.183
451856	117.233
454465	117.283
457088	117.334
459727	117.385
462381	117.435
465050	117.486
467735	117.537
470435	117.588
473151	117.639
475883	117.69
478630	117.742
481393	117.793
484172	117.844
486968	117.896
489779	117.947
492606	117.999
495450	118.051
498310	118.102
501187	118.154
504081	118.206
506991	118.258
509918	118.31
512861	118.363
515822	118.415
518800	118.467
521795	118.519
524807	118.572
527837	118.624
530884	118.677
533949	118.73
537032	118.782
540132	118.835
543250	118.888
546387	118.941
549541	118.994
552713	119.047
555904	119.1
559114	119.153
562341	119.206
565588	119.26
568853	119.313
572137	119.366
575440	119.42
578762	119.473
582103	119.527
585464	119.58
588844	119.634
592243	119.688
595662	119.741
599101	119.795
602560	119.849
606038	119.903
609537	119.957
613056	120.011
616595	120.065
620155	120.119
623735	120.173
627336	120.227
630957	120.282
634600	120.336
638263	120.39
641948	120.445
645654	120.499
649382	120.553
653131	120.608
656901	120.662
660693	120.717
664508	120.772
668344	120.826
672202	120.881
676083	120.936
679986	120.99
683912	121.045
687860	121.1
691831	121.155
695825	121.21
699842	121.265
703882	121.319
707946	121.374
712033	121.429
716143	121.485
720278	121.54
724436	121.595
728618	121.65
732825	121.705
737055	121.76
741310	121.815
745590	121.871
749894	121.926
754223	121.981
758578	122.037
762957	122.092
767361	122.147
771792	122.203
776247	122.258
780728	122.313
785236	122.369
789769	122.424
794328	122.48
798914	122.535
803526	122.591
808165	122.647
812831	122.702
817523	122.758
822243	122.813
826990	122.869
831764	122.925
836566	122.98
841395	123.036
846253	123.092
851138	123.147
856052	123.203
860994	123.259
865964	123.315
870964	123.371
875992	123.426
881049	123.482
886135	123.538
891251	123.594
896396	123.65
901571	123.706
906776	123.761
912011	123.817
917276	123.873
922571	123.929
927897	123.985
933254	124.041
938642	124.097
944061	124.153
949511	124.209
954993	124.265
960506	124.321
966051	124.377
971628	124.433
977237	124.489
982879	124.545
988553	124.601
994260	124.657
1e+06	124.713
1.00577e+06	124.769
1.01158e+06	124.825
1.01742e+06	124.881
1.02329e+06	124.937
1.0292e+06	124.993
1.03514e+06	125.049
1.04112e+06	125.105
1.04713e+06	125.161
1.05317e+06	125.217
1.05925e+06	125.273
1.06537e+06	125.329
1.07152e+06	125.385
1.07771e+06	125.442
1.08393e+06	125.498
1.09018e+06	125.554
1.09648e+06	125.61
1.10281e+06	125.666
1.10917e+06	125.722
1.11558e+06	125.778
1.12202e+06	125.834
1.1285e+06	125.89
1.13501e+06	125.946
1.14156e+06	126.002
1.14815e+06	126.058
1.15478e+06	126.114
1.16145e+06	126.171
1.16815e+06	126.227
1.1749e+06	126.283
1.18168e+06	126.339
1.1885e+06	126.395
1.19536e+06	126.451
1.20226e+06	126.507
1.20921e+06	126.563
1.21619e+06	126.619
1.22321e+06	126.675
1.23027e+06	126.731
1.23737e+06	126.787
1.24451e+06	126.843
1.2517e+06	126.899
1.25893e+06	126.955
1.26619e+06	127.011
1.2735e+06	127.067
1.28086e+06	127.123
1.28825e+06	127.179
1.29569e+06	127.235
1.30317e+06	127.291
1.31069e+06	127.347
1.31826e+06	127.403
1.32587e+06	127.459
1.33352e+06	127.515
1.34122e+06	127.571
1.34896e+06	127.627
1.35675e+06	127.683
1.36458e+06	127.739
1.37246e+06	127.795
1.38038e+06	127.851
1.38835e+06	127.907
1.39637e+06	127.962
1.40443e+06	128.018
1.41254e+06	128.074
1.42069e+06	128.13
1.42889e+06	128.186
1.43714e+06	128.242
1.44544e+06	128.298
1.45378e+06	128.353
1.46218e+06	128.409
1.47062e+06	128.465
1.47911e+06	128.521
1.48765e+06	128.577
1.49624e+06	128.632
1.50487e+06	128.688
1.51356e+06	128.744
1.5223e+06	128.8
1.53109e+06	128.855
1.53993e+06	128.911
1.54882e+06	128.967
1.55776e+06	129.023
1.56675e+06	129.078
1.5758e+06	129.134
1.58489e+06	129.19
1.59404e+06	129.245
1.60325e+06	129.301
1.6125e+06	129.357
1.62181e+06	129.412
1.63117e+06	129.468
1.64059e+06	129.523
1.65006e+06	129.579
1.65959e+06	129.634
1.66917e+06	129.69
1.6788e+06	129.746
1.6885e+06	129.801
1.69824e+06	129.857
1.70805e+06	129.912
1.71791e+06	129.968
1.72783e+06	130.023
1.7378e+06	130.078
1.74783e+06	130.134
1.75792e+06	130.189
1.76807e+06	130.245
1.77828e+06	130.3
1.78855e+06	130.356
1.79887e+06	130.411
1.80926e+06	130.466
1.8197e+06	130.522
1.83021e+06	130.577
1.84077e+06	130.632
1.8514e+06	130.687
1.86209e+06	130.743
1.87284e+06	130.798
1.88365e+06	130.853
1.89452e+06	130.908
1.90546e+06	130.964
1.91646e+06	131.019
1.92752e+06	131.074
1.93865e+06	131.129
1.94984e+06	131.184
1.9611e+06	131.239
1.97242e+06	131.295
1.98381e+06	131.35
1.99526e+06	131.405
2.00678e+06	131.46
2.01837e+06	131.515
2.03002e+06	131.57
2.04174e+06	131.625
2.05353e+06	131.68
2.06538e+06	131.735
2.0773e+06	131.79
2.0893e+06	131.845
2.10136e+06	131.9
2.11349e+06	131.955
2.12569e+06	132.01
2.13796e+06	132.064
2.1503e+06	132.119
2.16272e+06	132.174
2.1752e+06	132.229
2.18776e+06	132.284
2.20039e+06	132.338
2.21309e+06	132.393
2.22587e+06	132.448
2.23872e+06	132.503
2.25165e+06	132.557
2.26464e+06	132.612
2.27772e+06	132.667
2.29087e+06	132.721
2.30409e+06	132.776
2.31739e+06	132.831
2.33077e+06	132.885
2.34423e+06	132.94
2.35776e+06	132.994
2.37137e+06	133.049
2.38506e+06	133.103
2.39883e+06	133.158
2.41268e+06	133.212
2.42661e+06	133.267
2.44062e+06	133.321
2.45471e+06	133.376
2.46888e+06	133.43
2.48313e+06	133.485
2.49747e+06	133.539
2.51189e+06	133.593
2.52639e+06	133.648
2.54097e+06	133.702
2.55564e+06	133.756
2.5704e+06	133.811
2.58523e+06	133.865
2.60016e+06	133.919
2.61517e+06	133.973
2.63027e+06	134.027
2.64545e+06	134.082
2.66073e+06	134.136
2.67609e+06	134.19
2.69153e+06	134.244
2.70707e+06	134.298
2.7227e+06	134.352
2.73842e+06	134.406
2.75423e+06	134.46
2.77013e+06	134.514
2.78612e+06	134.568
2.80221e+06	134.622
2.81838e+06	134.676
2.83465e+06	134.73
2.85102e+06	134.784
2.86748e+06	134.838
2.88403e+06	134.892
2.90068e+06	134.945
2.91743e+06	134.999
2.93427e+06	135.053
2.95121e+06	135.107
2.96825e+06	135.161
2.98538e+06	135.214
3.00262e+06	135.268
3.01995e+06	135.322
3.03739e+06	135.375
3.05492e+06	135.429
3.07256e+06	135.483
3.0903e+06	135.536
3.10814e+06	135.59
3.12608e+06	135.644
3.14413e+06	135.697
3.16228e+06	135.751
3.18053e+06	135.804
3.1989e+06	135.858
3.21736e+06	135.911
3.23594e+06	135.964
3.25462e+06	136.018
3.27341e+06	136.071
3.2923e+06	136.125
3.31131e+06	136.178
3.33043e+06	136.231
3.34965e+06	136.285
3.36899e+06	136.338
3.38844e+06	136.391
3.408e+06	136.444
3.42768e+06	136.498
3.44747e+06	136.551
3.46737e+06	136.604
3.48739e+06	136.657
3.50752e+06	136.71
3.52777e+06	136.763
3.54813e+06	136.817
3.56862e+06	136.87
3.58922e+06	136.923
3.60994e+06	136.976
3.63078e+06	137.029
3.65174e+06	137.082
3.67282e+06	137.135
3.69403e+06	137.188
3.71535e+06	137.24
3.7368e+06	137.293
3.75837e+06	137.346
3.78007e+06	137.399
3.80189e+06	137.452
3.82384e+06	137.505
3.84592e+06	137.558
3.86812e+06	137.61
3.89045e+06	137.663
3.91291e+06	137.716
3.9355e+06	137.768
3.95822e+06	137.821
3.98107e+06	137.874
4.00405e+06	137.926
4.02717e+06	137.979
4.05042e+06	138.032
4.0738e+06	138.084
4.09732e+06	138.137
4.12098e+06	138.189
4.14477e+06	138.242
4.16869e+06	138.294
4.19276e+06	138.347
4.21697e+06	138.399
4.24131e+06	138.451
4.2658e+06	138.504
4.29042e+06	138.556
4.31519e+06	138.608
4.3401e+06	138.661
4.36516e+06	138.713
4.39036e+06	138.765
4.4157e+06	138.817
4.4412e+06	138.87
4.46684e+06	138.922
4.49262e+06	138.974
4.51856e+06	139.026
4.54465e+06	139.078
4.57088e+06	139.13
4.59727e+06	139.182
4.62381e+06	139.235
4.6505e+06	139.287
4.67735e+06	139.339
4.70435e+06	139.391
4.73151e+06	139.443
4.75883e+06	139.494
4.7863e+06	139.546
4.81393e+06	139.598
4.84172e+06	139.65
4.86968e+06	139.702
4.89779e+06	139.754
4.92606e+06	139.806
4.9545e+06	139.857
4.9831e+06	139.909
5.01187e+06	139.961
5.04081e+06	140.013
5.06991e+06	140.064
5.09918e+06	140.116
5.12861e+06	140.168
5.15822e+06	140.219
5.188e+06	140.271
5.21795e+06	140.322
5.24807e+06	140.374
5.27837e+06	140.425
5.30884e+06	140.477
5.33949e+06	140.528
5.37032e+06	140.58
5.40132e+06	140.631
5.4325e+06	140.683
5.46387e+06	140.734
5.49541e+06	140.785
5.52713e+06	140.837
5.55904e+06	140.888
5.59114e+06	140.939
5.62341e+06	140.99
5.65588e+06	141.042
5.68853e+06	141.093
5.72137e+06	141.144
5.7544e+06	141.195
5.78762e+06	141.246
5.82103e+06	141.298
5.85464e+06	141.349
5.88844e+06	141.4
5.92243e+06	141.451
5.95662e+06	141.502
5.99101e+06	141.553
6.0256e+06	141.604
6.06038e+06	141.655
6.09537e+06	141.706
6.13056e+06	141.756
6.16595e+06	141.807
6.20155e+06	141.858
6.23735e+06	141.909
6.27336e+06	141.96
6.30957e+06	142.011
6.346e+06	142.061
6.38263e+06	142.112
6.41948e+06	142.163
6.45654e+06	142.213
6.49382e+06	142.264
6.53131e+06	142.315
6.56901e+06	142.365
6.60693e+06	142.416
6.64508e+06	142.467
6.68344e+06	142.517
6.72202e+06	142.568
6.76083e+06	142.618
6.79986e+06	142.669
6.83912e+06	142.719
6.8786e+06	142.769
6.91831e+06	142.82
6.95825e+06	142.87
6.99842e+06	142.921
7.03882e+06	142.971
7.07946e+06	143.021
7.12033e+06	143.071
7.16143e+06	143.122
7.20278e+06	143.172
7.24436e+06	143.222
7.28618e+06	143.272
7.32825e+06	143.322
7.37055e+06	143.373
7.4131e+06	143.423
7.4559e+06	143.473
7.49894e+06	143.523
7.54223e+06	143.573
7.58578e+06	143.623
7.62957e+06	143.673
7.67361e+06	143.723
7.71792e+06	143.773
7.76247e+06	143.823
7.80728e+06	143.872
7.85236e+06	143.922
7.89769e+06	143.972
7.94328e+06	144.022
7.98914e+06	144.072
8.03526e+06	144.121
8.08165e+06	144.171
8.12831e+06	144.221
8.17523e+06	144.271
8.22243e+06	144.32
8.2699e+06	144.37
8.31764e+06	144.419
8.36566e+06	144.469
8.41395e+06	144.519
8.46253e+06	144.568
8.51138e+06	144.618
8.56052e+06	144.667
8.60994e+06	144.717
8.65964e+06	144.766
8.70964e+06	144.815
8.75992e+06	144.865
8.81049e+06	144.914
8.86135e+06	144.963
8.91251e+06	145.013
8.96396e+06	145.062
9.01571e+06	145.111
9.06776e+06	145.161
9.12011e+06	145.21
9.17276e+06	145.259
9.22571e+06	145.308
9.27897e+06	145.357
9.33254e+06	145.406
9.38642e+06	145.455
9.44061e+06	145.504
9.49511e+06	145.554
9.54993e+06	145.603
9.60506e+06	145.652
9.66051e+06	145.7
9.71628e+06	145.749
9.77237e+06	145.798
9.82879e+06	145.847
9.88553e+06	145.896
9.9426e+06	145.945
1e+07	145.994
