E [MeV]	dEdx [keV/microm]
0.001	22.9542
0.00100577	23.0208
0.00101158	23.0875
0.00101742	23.1545
0.00102329	23.2216
0.0010292	23.2889
0.00103514	23.3564
0.00104112	23.4241
0.00104713	23.492
0.00105317	23.5601
0.00105925	23.6284
0.00106537	23.6969
0.00107152	23.7656
0.00107771	23.8345
0.00108393	23.9036
0.00109018	23.9729
0.00109648	24.0423
0.00110281	24.112
0.00110917	24.1819
0.00111558	24.252
0.00112202	24.3223
0.0011285	24.3928
0.00113501	24.4635
0.00114156	24.5344
0.00114815	24.6055
0.00115478	24.6768
0.00116145	24.7483
0.00116815	24.82
0.0011749	24.8919
0.00118168	24.9641
0.0011885	25.0364
0.00119536	25.1089
0.00120226	25.1817
0.00120921	25.2547
0.00121619	25.3279
0.00122321	25.4012
0.00123027	25.4748
0.00123737	25.5486
0.00124451	25.6227
0.0012517	25.6969
0.00125893	25.7714
0.00126619	25.846
0.0012735	25.9209
0.00128086	25.996
0.00128825	26.0713
0.00129569	26.1469
0.00130317	26.2226
0.00131069	26.2986
0.00131826	26.3747
0.00132587	26.4512
0.00133352	26.5278
0.00134122	26.6046
0.00134896	26.6817
0.00135675	26.759
0.00136458	26.8365
0.00137246	26.9142
0.00138038	26.9922
0.00138835	27.0704
0.00139637	27.1488
0.00140443	27.2275
0.00141254	27.3063
0.00142069	27.3854
0.00142889	27.4647
0.00143714	27.5443
0.00144544	27.624
0.00145378	27.704
0.00146218	27.7843
0.00147062	27.8648
0.00147911	27.9455
0.00148765	28.0264
0.00149624	28.1076
0.00150487	28.189
0.00151356	28.2706
0.0015223	28.3525
0.00153109	28.4346
0.00153993	28.5169
0.00154882	28.5995
0.00155776	28.6823
0.00156675	28.7654
0.0015758	28.8487
0.00158489	28.9322
0.00159404	29.016
0.00160325	29.1
0.0016125	29.1843
0.00162181	29.2688
0.00163117	29.3535
0.00164059	29.4385
0.00165006	29.5238
0.00165959	29.6092
0.00166917	29.695
0.0016788	29.7809
0.0016885	29.8672
0.00169824	29.9536
0.00170805	30.0404
0.00171791	30.1273
0.00172783	30.2146
0.0017378	30.302
0.00174783	30.3898
0.00175792	30.4777
0.00176807	30.566
0.00177828	30.6544
0.00178855	30.7432
0.00179887	30.8322
0.00180926	30.9215
0.0018197	31.011
0.00183021	31.1007
0.00184077	31.1907
0.0018514	31.281
0.00186209	31.3716
0.00187284	31.4624
0.00188365	31.5535
0.00189452	31.6448
0.00190546	31.7364
0.00191646	31.8283
0.00192752	31.9204
0.00193865	32.0128
0.00194984	32.1055
0.0019611	32.1984
0.00197242	32.2916
0.00198381	32.385
0.00199526	32.4787
0.00200678	32.5727
0.00201837	32.667
0.00203002	32.7615
0.00204174	32.8564
0.00205353	32.9515
0.00206538	33.0468
0.0020773	33.1425
0.0020893	33.2384
0.00210136	33.3345
0.00211349	33.431
0.00212569	33.5278
0.00213796	33.6248
0.0021503	33.7221
0.00216272	33.8197
0.0021752	33.9176
0.00218776	34.0157
0.00220039	34.1141
0.00221309	34.2128
0.00222587	34.3119
0.00223872	34.4111
0.00225165	34.5107
0.00226464	34.6106
0.00227772	34.7107
0.00229087	34.8111
0.00230409	34.9119
0.00231739	35.0129
0.00233077	35.1142
0.00234423	35.2158
0.00235776	35.3177
0.00237137	35.4198
0.00238506	35.5223
0.00239883	35.6251
0.00241268	35.7282
0.00242661	35.8315
0.00244062	35.9352
0.00245471	36.0392
0.00246888	36.1434
0.00248313	36.248
0.00249747	36.3529
0.00251189	36.458
0.00252639	36.5635
0.00254097	36.6693
0.00255564	36.7753
0.0025704	36.8817
0.00258523	36.9884
0.00260016	37.0954
0.00261517	37.2027
0.00263027	37.3103
0.00264545	37.4183
0.00266073	37.5265
0.00267609	37.635
0.00269153	37.7439
0.00270707	37.8531
0.0027227	37.9626
0.00273842	38.0724
0.00275423	38.1825
0.00277013	38.293
0.00278612	38.4037
0.00280221	38.5148
0.00281838	38.6262
0.00283465	38.7379
0.00285102	38.8499
0.00286748	38.9623
0.00288403	39.075
0.00290068	39.188
0.00291743	39.3013
0.00293427	39.415
0.00295121	39.529
0.00296825	39.6433
0.00298538	39.758
0.00300262	39.873
0.00301995	39.9883
0.00303739	40.1039
0.00305492	40.2199
0.00307256	40.3362
0.0030903	40.4529
0.00310814	40.5698
0.00312608	40.6872
0.00314413	40.8048
0.00316228	40.9228
0.00318053	41.0412
0.0031989	41.1598
0.00321736	41.2789
0.00323594	41.3983
0.00325462	41.5179
0.00327341	41.638
0.0032923	41.7584
0.00331131	41.8792
0.00333043	42.0003
0.00334965	42.1217
0.00336899	42.2435
0.00338844	42.3656
0.003408	42.4881
0.00342768	42.611
0.00344747	42.7342
0.00346737	42.8578
0.00348739	42.9817
0.00350752	43.1059
0.00352777	43.2306
0.00354813	43.3556
0.00356862	43.4809
0.00358922	43.6066
0.00360994	43.7327
0.00363078	43.8591
0.00365174	43.9859
0.00367282	44.1131
0.00369403	44.2406
0.00371535	44.3685
0.0037368	44.4968
0.00375837	44.6255
0.00378007	44.7545
0.00380189	44.8838
0.00382384	45.0136
0.00384592	45.1437
0.00386812	45.2742
0.00389045	45.4051
0.00391291	45.5364
0.0039355	45.668
0.00395822	45.8
0.00398107	45.9324
0.00400405	46.0652
0.00402717	46.1984
0.00405042	46.3319
0.0040738	46.4658
0.00409732	46.6002
0.00412098	46.7349
0.00414477	46.87
0.00416869	47.0054
0.00419276	47.1413
0.00421697	47.2776
0.00424131	47.4142
0.0042658	47.5513
0.00429042	47.6887
0.00431519	47.8266
0.0043401	47.9648
0.00436516	48.1035
0.00439036	48.2425
0.0044157	48.3819
0.0044412	48.5218
0.00446684	48.662
0.00449262	48.8026
0.00451856	48.9437
0.00454465	49.0852
0.00457088	49.227
0.00459727	49.3693
0.00462381	49.512
0.0046505	49.6551
0.00467735	49.7986
0.00470435	49.9425
0.00473151	50.0868
0.00475883	50.2316
0.0047863	50.3768
0.00481393	50.5224
0.00484172	50.6684
0.00486968	50.8148
0.00489779	50.9616
0.00492606	51.1089
0.0049545	51.2566
0.0049831	51.4048
0.00501187	51.5533
0.00504081	51.7023
0.00506991	51.8517
0.00509918	52.027
0.00512861	52.1773
0.00515822	52.328
0.005188	52.505
0.00521795	52.6566
0.00524807	52.8086
0.00527837	52.961
0.00530884	53.1139
0.00533949	53.2672
0.00537032	53.4478
0.00540132	53.602
0.0054325	53.7567
0.00546387	53.939
0.00549541	54.0945
0.00552713	54.2505
0.00555904	54.407
0.00559114	54.5639
0.00562341	54.7492
0.00565588	54.907
0.00568853	55.0653
0.00572137	55.224
0.0057544	55.3832
0.00578762	55.5428
0.00582103	55.7029
0.00585464	55.8635
0.00588844	56.0245
0.00592243	56.186
0.00595662	56.3479
0.00599101	56.5104
0.0060256	56.6732
0.00606038	56.8366
0.00609537	57.0004
0.00613056	57.1647
0.00616595	57.3295
0.00620155	57.4947
0.00623735	57.6604
0.00627336	57.8267
0.00630957	57.9933
0.006346	58.1605
0.00638263	58.3281
0.00641948	58.4963
0.00645654	58.6649
0.00649382	58.834
0.00653131	59.0036
0.00656901	59.1736
0.00660693	59.3442
0.00664508	59.5152
0.00668344	59.6867
0.00672202	59.8588
0.00676083	60.0313
0.00679986	60.2044
0.00683912	60.3779
0.0068786	60.5519
0.00691831	60.7265
0.00695825	60.9015
0.00699842	61.0771
0.00703882	61.2531
0.00707946	61.4296
0.00712033	61.6067
0.00716143	61.7843
0.00720278	61.9624
0.00724436	62.141
0.00728618	62.3201
0.00732825	62.4997
0.00737055	62.6798
0.0074131	62.8605
0.0074559	63.0417
0.00749894	63.2234
0.00754223	63.4057
0.00758578	63.5884
0.00762957	63.7717
0.00767361	63.9555
0.00771792	64.1399
0.00776247	64.3247
0.00780728	64.5101
0.00785236	64.6961
0.00789769	64.8826
0.00794328	65.0696
0.00798914	65.2571
0.00803526	65.4452
0.00808165	65.6339
0.00812831	65.823
0.00817523	66.0128
0.00822243	66.203
0.0082699	66.3939
0.00831764	66.5852
0.00836566	66.7772
0.00841395	66.9696
0.00846253	67.1627
0.00851138	67.3563
0.00856052	67.5504
0.00860994	67.7451
0.00865964	67.9404
0.00870964	68.1362
0.00875992	68.3326
0.00881049	68.5296
0.00886135	68.7271
0.00891251	68.9252
0.00896396	69.1239
0.00901571	69.3231
0.00906776	69.5229
0.00912011	69.7233
0.00917276	69.9243
0.00922571	70.1258
0.00927897	70.328
0.00933254	70.5307
0.00938642	70.734
0.00944061	70.9379
0.00949511	71.1423
0.00954993	71.3474
0.00960506	71.553
0.00966051	71.7593
0.00971628	71.9661
0.00977237	72.1736
0.00982879	72.3816
0.00988553	72.5902
0.0099426	72.7994
0.01	73.0093
0.0100577	73.2197
0.0101158	73.4307
0.0101742	73.6424
0.0102329	73.8547
0.010292	74.0676
0.0103514	74.2811
0.0104112	74.4952
0.0104713	74.7099
0.0105317	74.9252
0.0105925	75.1412
0.0106537	75.3578
0.0107152	75.575
0.0107771	75.7928
0.0108393	76.0113
0.0109018	76.2304
0.0109648	76.4501
0.0110281	76.6705
0.0110917	76.8914
0.0111558	77.1131
0.0112202	77.3353
0.011285	77.5583
0.0113501	77.7818
0.0114156	78.006
0.0114815	78.2308
0.0115478	78.4563
0.0116145	78.6825
0.0116815	78.9093
0.011749	79.1367
0.0118168	79.3648
0.011885	79.5936
0.0119536	79.823
0.0120226	80.0531
0.0120921	80.2838
0.0121619	80.5152
0.0122321	80.7473
0.0123027	80.98
0.0123737	81.2135
0.0124451	81.4475
0.012517	81.6823
0.0125893	81.9177
0.0126619	82.1539
0.012735	82.3906
0.0128086	82.6281
0.0128825	82.8663
0.0129569	83.1052
0.0130317	83.3447
0.0131069	83.5849
0.0131826	83.8259
0.0132587	84.0675
0.0133352	84.3098
0.0134122	84.5528
0.0134896	84.7965
0.0135675	85.0409
0.0136458	85.286
0.0137246	85.5319
0.0138038	85.7784
0.0138835	86.0256
0.0139637	86.2736
0.0140443	86.5223
0.0141254	86.7717
0.0142069	87.0218
0.0142889	87.2726
0.0143714	87.5242
0.0144544	87.7765
0.0145378	88.0294
0.0146218	88.2832
0.0147062	88.5377
0.0147911	88.7929
0.0148765	89.0488
0.0149624	89.3055
0.0150487	89.5629
0.0151356	89.821
0.015223	90.0799
0.0153109	90.3396
0.0153993	90.6
0.0154882	90.8611
0.0155776	91.123
0.0156675	91.3856
0.015758	91.6491
0.0158489	91.9132
0.0159404	92.1781
0.0160325	92.4438
0.016125	92.7103
0.0162181	92.9775
0.0163117	93.2455
0.0164059	93.5143
0.0165006	93.7838
0.0165959	94.0541
0.0166917	94.3253
0.016788	94.5971
0.016885	94.8698
0.0169824	95.1433
0.0170805	95.4175
0.0171791	95.6925
0.0172783	95.9684
0.017378	96.245
0.0174783	96.5224
0.0175792	96.8006
0.0176807	97.0796
0.0177828	97.3594
0.0178855	97.6401
0.0179887	97.9215
0.0180926	98.2037
0.018197	98.4867
0.0183021	98.7706
0.0184077	99.0553
0.018514	99.3408
0.0186209	99.6272
0.0187284	99.9145
0.0188365	100.202
0.0189452	100.491
0.0190546	100.781
0.0191646	101.071
0.0192752	101.363
0.0193865	101.655
0.0194984	101.948
0.019611	102.242
0.0197242	102.536
0.0198381	102.832
0.0199526	103.128
0.0200678	103.426
0.0201837	103.724
0.0203002	104.023
0.0204174	104.322
0.0205353	104.623
0.0206538	104.925
0.020773	105.227
0.020893	105.53
0.0210136	105.835
0.0211349	106.14
0.0212569	106.446
0.0213796	106.752
0.021503	107.06
0.0216272	107.369
0.021752	107.678
0.0218776	107.989
0.0220039	108.3
0.0221309	108.612
0.0222587	108.925
0.0223872	109.239
0.0225165	109.554
0.0226464	109.87
0.0227772	110.187
0.0229087	110.504
0.0230409	110.823
0.0231739	111.142
0.0233077	111.462
0.0234423	111.784
0.0235776	112.106
0.0237137	112.429
0.0238506	112.753
0.0239883	113.078
0.0241268	113.404
0.0242661	113.731
0.0244062	114.058
0.0245471	114.387
0.0246888	114.717
0.0248313	115.048
0.0249747	115.379
0.0251189	115.712
0.0252639	116.045
0.0254097	116.38
0.0255564	116.715
0.025704	117.052
0.0258523	117.389
0.0260016	117.727
0.0261517	118.067
0.0263027	118.407
0.0264545	118.748
0.0266073	119.091
0.0267609	119.434
0.0269153	119.778
0.0270707	120.124
0.027227	120.47
0.0273842	120.817
0.0275423	121.165
0.0277013	121.514
0.0278612	121.865
0.0280221	122.216
0.0281838	122.568
0.0283465	122.922
0.0285102	123.276
0.0286748	123.631
0.0288403	123.988
0.0290068	124.345
0.0291743	124.703
0.0293427	125.063
0.0295121	125.423
0.0296825	125.785
0.0298538	126.148
0.0300262	126.511
0.0301995	126.876
0.0303739	127.241
0.0305492	127.608
0.0307256	127.976
0.030903	128.345
0.0310814	128.715
0.0312608	129.086
0.0314413	129.458
0.0316228	129.831
0.0318053	130.205
0.031989	130.58
0.0321736	130.957
0.0323594	131.334
0.0325462	131.713
0.0327341	132.092
0.032923	132.473
0.0331131	132.855
0.0333043	133.238
0.0334965	133.622
0.0336899	134.007
0.0338844	134.393
0.03408	134.781
0.0342768	135.169
0.0344747	135.559
0.0346737	135.95
0.0348739	136.341
0.0350752	136.734
0.0352777	137.129
0.0354813	137.524
0.0356862	137.92
0.0358922	138.318
0.0360994	138.716
0.0363078	139.116
0.0365174	139.517
0.0367282	139.919
0.0369403	140.323
0.0371535	140.727
0.037368	141.133
0.0375837	141.54
0.0378007	141.948
0.0380189	142.357
0.0382384	142.767
0.0384592	143.178
0.0386812	143.591
0.0389045	144.005
0.0391291	144.42
0.039355	144.837
0.0395822	145.254
0.0398107	145.673
0.0400405	146.092
0.0402717	146.514
0.0405042	146.936
0.040738	147.36
0.0409732	147.784
0.0412098	148.21
0.0414477	148.637
0.0416869	149.066
0.0419276	149.495
0.0421697	149.927
0.0424131	150.358
0.042658	150.792
0.0429042	151.226
0.0431519	151.662
0.043401	152.1
0.0436516	152.538
0.0439036	152.978
0.044157	153.419
0.044412	153.861
0.0446684	154.304
0.0449262	154.749
0.0451856	155.195
0.0454465	155.642
0.0457088	156.091
0.0459727	156.541
0.0462381	156.992
0.046505	157.445
0.0467735	157.898
0.0470435	158.354
0.0473151	158.81
0.0475883	159.268
0.047863	159.727
0.0481393	160.187
0.0484172	160.649
0.0486968	161.112
0.0489779	161.576
0.0492606	162.042
0.049545	162.509
0.049831	162.977
0.0501187	163.447
0.0504081	163.919
0.0506991	164.391
0.0509918	164.865
0.0512861	165.34
0.0515822	165.817
0.05188	166.295
0.0521795	166.774
0.0524807	167.255
0.0527837	167.737
0.0530884	168.22
0.0533949	168.705
0.0537032	169.191
0.0540132	169.679
0.054325	170.168
0.0546387	170.659
0.0549541	171.151
0.0552713	171.644
0.0555904	172.138
0.0559114	172.635
0.0562341	173.132
0.0565588	173.631
0.0568853	174.132
0.0572137	174.634
0.057544	175.137
0.0578762	175.642
0.0582103	176.148
0.0585464	176.656
0.0588844	177.165
0.0592243	177.676
0.0595662	178.188
0.0599101	178.701
0.060256	179.217
0.0606038	179.733
0.0609537	180.251
0.0613056	180.771
0.0616595	181.292
0.0620155	181.814
0.0623735	182.338
0.0627336	182.864
0.0630957	183.391
0.06346	183.92
0.0638263	184.45
0.0641948	184.981
0.0645654	185.515
0.0649382	186.049
0.0653131	186.585
0.0656901	187.124
0.0660693	187.663
0.0664508	188.204
0.0668344	188.746
0.0672202	189.29
0.0676083	189.836
0.0679986	190.383
0.0683912	190.931
0.068786	191.482
0.0691831	192.034
0.0695825	192.587
0.0699842	193.143
0.0703882	193.699
0.0707946	194.258
0.0712033	194.818
0.0716143	195.379
0.0720278	195.942
0.0724436	196.507
0.0728618	197.073
0.0732825	197.641
0.0737055	198.211
0.074131	198.783
0.074559	199.355
0.0749894	199.93
0.0754223	200.506
0.0758578	201.084
0.0762957	201.664
0.0767361	202.245
0.0771792	202.828
0.0776247	203.413
0.0780728	203.999
0.0785236	204.587
0.0789769	205.177
0.0794328	205.768
0.0798914	206.361
0.0803526	206.956
0.0808165	207.552
0.0812831	208.151
0.0817523	208.751
0.0822243	209.352
0.082699	209.956
0.0831764	210.561
0.0836566	211.168
0.0841395	211.777
0.0846253	212.387
0.0851138	212.999
0.0856052	213.613
0.0860994	214.229
0.0865964	214.846
0.0870964	215.466
0.0875992	216.086
0.0881049	216.709
0.0886135	217.334
0.0891251	217.961
0.0896396	218.589
0.0901571	219.219
0.0906776	219.851
0.0912011	220.484
0.0917276	221.12
0.0922571	221.757
0.0927897	222.397
0.0933254	223.037
0.0938642	223.681
0.0944061	224.325
0.0949511	224.972
0.0954993	225.62
0.0960506	226.271
0.0966051	226.923
0.0971628	227.577
0.0977237	228.233
0.0982879	228.891
0.0988553	229.551
0.099426	230.212
0.1	230.876
0.100577	231.541
0.101158	232.208
0.101742	232.878
0.102329	233.549
0.10292	234.222
0.103514	234.897
0.104112	235.574
0.104713	236.253
0.105317	236.934
0.105925	237.617
0.106537	238.302
0.107152	238.989
0.107771	239.678
0.108393	240.369
0.109018	241.061
0.109648	241.756
0.110281	242.453
0.110917	243.152
0.111558	243.853
0.112202	244.556
0.11285	245.261
0.113501	245.968
0.114156	246.677
0.114815	247.388
0.115478	248.101
0.116145	248.816
0.116815	249.533
0.11749	250.252
0.118168	250.974
0.11885	251.697
0.119536	252.422
0.120226	253.15
0.120921	253.88
0.121619	254.612
0.122321	255.345
0.123027	256.081
0.123737	256.82
0.124451	257.56
0.12517	258.302
0.125893	259.047
0.126619	259.793
0.12735	260.542
0.128086	261.293
0.128825	262.046
0.129569	262.802
0.130317	263.559
0.131069	264.319
0.131826	265.081
0.132587	265.845
0.133352	266.611
0.134122	267.379
0.134896	268.15
0.135675	268.923
0.136458	269.698
0.137246	270.475
0.138038	271.255
0.138835	272.037
0.139637	272.821
0.140443	273.607
0.141254	274.396
0.142069	275.187
0.142889	275.98
0.143714	276.776
0.144544	277.573
0.145378	278.374
0.146218	279.176
0.147062	279.981
0.147911	280.788
0.148765	281.597
0.149624	282.409
0.150487	283.223
0.151356	284.039
0.15223	284.858
0.153109	285.679
0.153993	286.502
0.154882	287.328
0.155776	288.156
0.156675	288.987
0.15758	289.82
0.158489	290.655
0.159404	291.493
0.160325	292.333
0.16125	293.176
0.162181	294.021
0.163117	294.868
0.164059	295.718
0.165006	296.57
0.165959	297.425
0.166917	298.283
0.16788	299.143
0.16885	300.005
0.169824	300.869
0.170805	301.737
0.171791	302.606
0.172783	303.479
0.17378	304.353
0.174783	305.231
0.175792	306.11
0.176807	306.993
0.177828	307.878
0.178855	308.765
0.179887	309.655
0.180926	310.547
0.18197	311.443
0.183021	312.34
0.184077	313.241
0.18514	314.143
0.186209	315.049
0.187284	315.957
0.188365	316.868
0.189452	317.781
0.190546	318.697
0.191646	319.616
0.192752	320.537
0.193865	321.461
0.194984	322.388
0.19611	323.317
0.197242	324.248
0.198381	325.183
0.199526	326.12
0.200678	327.06
0.201837	328.003
0.203002	328.948
0.204174	329.896
0.205353	330.848
0.206538	331.801
0.20773	332.758
0.20893	333.717
0.210136	334.679
0.211349	335.643
0.212569	336.611
0.213796	337.581
0.21503	338.554
0.216272	339.53
0.21752	340.509
0.218776	341.49
0.220039	342.474
0.221309	343.461
0.222587	344.451
0.223872	345.444
0.225165	346.44
0.226464	347.438
0.227772	348.44
0.229087	349.444
0.230409	350.451
0.231739	351.462
0.233077	352.475
0.234423	353.491
0.235776	354.51
0.237137	355.532
0.238506	356.556
0.239883	357.584
0.241268	358.615
0.242661	359.648
0.244062	360.685
0.245471	361.725
0.246888	362.767
0.248313	363.813
0.249747	364.862
0.251189	365.913
0.252639	366.968
0.254097	368.026
0.255564	369.086
0.25704	370.15
0.258523	371.217
0.260016	372.287
0.261517	373.36
0.263027	374.436
0.264545	375.515
0.266073	376.598
0.267609	377.683
0.269153	378.772
0.270707	379.864
0.27227	380.959
0.273842	382.057
0.275423	383.158
0.277013	384.262
0.278612	385.37
0.280221	386.481
0.281838	387.595
0.283465	388.712
0.285102	389.832
0.286748	390.956
0.288403	392.083
0.290068	393.213
0.291743	394.347
0.293427	395.483
0.295121	396.623
0.296825	397.766
0.298538	398.913
0.300262	400.063
0.301995	401.216
0.303739	402.372
0.305492	403.532
0.307256	404.695
0.30903	405.861
0.310814	407.031
0.312608	408.205
0.314413	409.381
0.316228	410.561
0.318053	411.745
0.31989	412.931
0.321736	414.122
0.323594	415.316
0.325462	416.513
0.327341	417.713
0.32923	418.917
0.331131	420.125
0.333043	421.335
0.334965	422.55
0.336899	423.768
0.338844	424.989
0.3408	426.214
0.342768	427.443
0.344747	428.675
0.346737	429.911
0.348739	431.15
0.350752	432.392
0.352777	433.638
0.354813	434.889
0.356862	436.142
0.358922	437.399
0.360994	438.66
0.363078	439.924
0.365174	441.192
0.367282	442.464
0.369403	443.739
0.371535	445.018
0.37368	446.301
0.375837	447.587
0.378007	448.878
0.380189	450.172
0.382384	451.469
0.384592	452.77
0.386812	454.075
0.389045	455.384
0.391291	456.697
0.39355	458.013
0.395822	459.333
0.398107	460.657
0.400405	461.985
0.402717	463.317
0.405042	464.652
0.40738	465.992
0.409732	467.335
0.412098	468.682
0.414477	470.033
0.416869	471.387
0.419276	472.746
0.421697	474.109
0.424131	475.475
0.42658	476.846
0.429042	478.22
0.431519	479.599
0.43401	480.981
0.436516	482.367
0.439036	483.758
0.44157	485.152
0.44412	486.551
0.446684	487.953
0.449262	489.359
0.451856	490.77
0.454465	492.185
0.457088	493.603
0.459727	495.026
0.462381	496.453
0.46505	497.884
0.467735	499.319
0.470435	500.758
0.473151	502.202
0.475883	503.662
0.47863	505.153
0.481393	506.65
0.484172	508.151
0.486968	509.658
0.489779	511.17
0.492606	512.688
0.49545	514.21
0.49831	515.738
0.501187	517.29
0.504081	518.873
0.506991	520.463
0.509918	522.059
0.512861	523.661
0.515822	525.27
0.5188	526.885
0.521795	528.507
0.524807	530.135
0.527837	531.77
0.530884	533.411
0.533949	535.058
0.537032	536.712
0.540132	538.373
0.54325	540.04
0.546387	541.713
0.549541	543.393
0.552713	545.08
0.555904	546.773
0.559114	548.473
0.562341	550.179
0.565588	551.892
0.568853	553.612
0.572137	555.327
0.57544	557.048
0.578762	558.818
0.582103	560.596
0.585464	562.382
0.588844	564.175
0.592243	565.976
0.595662	567.785
0.599101	569.601
0.60256	571.445
0.606038	573.305
0.609537	575.173
0.613056	577.05
0.616595	578.936
0.620155	580.83
0.623735	582.734
0.627336	584.646
0.630957	586.567
0.6346	588.497
0.638263	590.437
0.641948	592.384
0.645654	594.341
0.649382	596.307
0.653131	598.281
0.656901	600.264
0.660693	602.257
0.664508	604.258
0.668344	606.268
0.672202	608.287
0.676083	610.326
0.679986	612.403
0.683912	614.49
0.68786	616.587
0.691831	618.687
0.695825	620.789
0.699842	622.901
0.703882	625.022
0.707946	627.154
0.712033	629.295
0.716143	631.447
0.720278	633.607
0.724436	635.764
0.728618	637.931
0.732825	640.107
0.737055	642.294
0.74131	644.49
0.74559	646.695
0.749894	648.911
0.754223	651.136
0.758578	653.371
0.762957	655.612
0.767361	657.86
0.771792	660.119
0.776247	662.387
0.780728	664.665
0.785236	666.952
0.789769	669.249
0.794328	671.555
0.798914	673.87
0.803526	676.192
0.808165	678.522
0.812831	680.853
0.817523	683.188
0.822243	685.533
0.82699	687.886
0.831764	690.249
0.836566	692.621
0.841395	695.003
0.846253	697.394
0.851138	699.794
0.856052	702.203
0.860994	704.622
0.865964	707.05
0.870964	709.486
0.875992	711.932
0.881049	714.388
0.886135	716.852
0.891251	719.325
0.896396	721.808
0.901571	724.299
0.906776	726.8
0.912011	729.309
0.917276	731.828
0.922571	734.353
0.927897	736.885
0.933254	739.427
0.938642	741.977
0.944061	744.536
0.949511	747.103
0.954993	749.679
0.960506	752.264
0.966051	754.854
0.971628	757.453
0.977237	760.061
0.982879	762.677
0.988553	765.302
0.99426	767.937
1	770.579
1.00577	773.23
1.01158	775.89
1.01742	778.559
1.02329	781.236
1.0292	783.922
1.03514	786.617
1.04112	789.32
1.04713	792.032
1.05317	794.753
1.05925	797.482
1.06537	800.221
1.07152	802.967
1.07771	805.722
1.08393	808.484
1.09018	811.253
1.09648	814.03
1.10281	816.816
1.10917	819.611
1.11558	822.414
1.12202	825.226
1.1285	828.046
1.13501	830.875
1.14156	833.712
1.14815	836.558
1.15478	839.413
1.16145	842.276
1.16815	845.147
1.1749	848.027
1.18168	850.915
1.1885	853.812
1.19536	856.717
1.20226	859.63
1.20921	862.552
1.21619	865.482
1.22321	868.42
1.23027	871.367
1.23737	874.321
1.24451	877.284
1.2517	880.255
1.25893	883.233
1.26619	886.22
1.2735	889.215
1.28086	892.218
1.28825	895.228
1.29569	898.246
1.30317	901.272
1.31069	904.305
1.31826	907.347
1.32587	910.395
1.33352	913.452
1.34122	916.515
1.34896	919.586
1.35675	922.665
1.36458	925.75
1.37246	928.843
1.38038	931.943
1.38835	935.05
1.39637	938.164
1.40443	941.285
1.41254	944.413
1.42069	947.549
1.42889	950.691
1.43714	953.84
1.44544	956.995
1.45378	960.158
1.46218	963.328
1.47062	966.504
1.47911	969.686
1.48765	972.877
1.49624	976.071
1.50487	979.275
1.51356	982.483
1.5223	985.7
1.53109	988.924
1.53993	992.151
1.54882	995.385
1.55776	998.628
1.56675	1001.88
1.5758	1005.13
1.58489	1008.39
1.59404	1011.66
1.60325	1014.93
1.6125	1018.21
1.62181	1021.49
1.63117	1024.78
1.64059	1028.07
1.65006	1031.37
1.65959	1034.68
1.66917	1037.99
1.6788	1041.31
1.6885	1044.63
1.69824	1047.96
1.70805	1051.29
1.71791	1054.63
1.72783	1057.97
1.7378	1061.32
1.74783	1064.67
1.75792	1068.03
1.76807	1071.39
1.77828	1074.76
1.78855	1078.13
1.79887	1081.5
1.80926	1084.88
1.8197	1088.26
1.83021	1091.65
1.84077	1095.04
1.8514	1098.44
1.86209	1101.83
1.87284	1105.24
1.88365	1108.65
1.89452	1112.05
1.90546	1115.47
1.91646	1118.89
1.92752	1122.31
1.93865	1125.73
1.94984	1129.16
1.9611	1132.59
1.97242	1136.02
1.98381	1139.46
1.99526	1142.89
2.00678	1146.34
2.01837	1149.78
2.03002	1153.22
2.04174	1156.67
2.05353	1160.12
2.06538	1163.57
2.0773	1167.03
2.0893	1170.48
2.10136	1173.94
2.11349	1177.4
2.12569	1180.85
2.13796	1184.31
2.1503	1187.77
2.16272	1191.23
2.1752	1194.7
2.18776	1198.16
2.20039	1201.62
2.21309	1205.08
2.22587	1208.54
2.23872	1212
2.25165	1215.47
2.26464	1218.93
2.27772	1222.39
2.29087	1225.85
2.30409	1229.31
2.31739	1232.77
2.33077	1236.23
2.34423	1239.68
2.35776	1243.14
2.37137	1246.59
2.38506	1250.04
2.39883	1253.49
2.41268	1256.94
2.42661	1260.39
2.44062	1263.84
2.45471	1267.28
2.46888	1270.72
2.48313	1274.16
2.49747	1277.59
2.51189	1281.03
2.52639	1284.46
2.54097	1287.88
2.55564	1291.31
2.5704	1294.73
2.58523	1298.14
2.60016	1301.56
2.61517	1304.97
2.63027	1308.37
2.64545	1311.77
2.66073	1315.17
2.67609	1318.56
2.69153	1321.95
2.70707	1325.34
2.7227	1328.71
2.73842	1332.09
2.75423	1335.46
2.77013	1338.82
2.78612	1342.18
2.80221	1345.54
2.81838	1348.88
2.83465	1352.23
2.85102	1355.56
2.86748	1358.89
2.88403	1362.2
2.90068	1365.51
2.91743	1368.82
2.93427	1372.11
2.95121	1375.4
2.96825	1378.68
2.98538	1381.96
3.00262	1385.23
3.01995	1388.48
3.03739	1391.72
3.05492	1394.95
3.07256	1398.18
3.0903	1401.4
3.10814	1404.62
3.12608	1407.82
3.14413	1411.02
3.16228	1414.2
3.18053	1417.38
3.1989	1420.55
3.21736	1423.71
3.23594	1426.86
3.25462	1430
3.27341	1433.13
3.2923	1436.25
3.31131	1439.36
3.33043	1442.46
3.34965	1445.55
3.36899	1448.63
3.38844	1451.71
3.408	1454.76
3.42768	1457.81
3.44747	1460.85
3.46737	1463.86
3.48739	1466.87
3.50752	1469.86
3.52777	1472.84
3.54813	1475.81
3.56862	1478.77
3.58922	1481.71
3.60994	1484.64
3.63078	1487.55
3.65174	1490.44
3.67282	1493.33
3.69403	1496.2
3.71535	1499.05
3.7368	1501.9
3.75837	1504.73
3.78007	1507.54
3.80189	1510.34
3.82384	1513.13
3.84592	1515.91
3.86812	1518.67
3.89045	1521.42
3.91291	1524.16
3.9355	1526.87
3.95822	1529.58
3.98107	1532.26
4.00405	1534.94
4.02717	1537.6
4.05042	1540.24
4.0738	1542.86
4.09732	1545.47
4.12098	1548.05
4.14477	1550.62
4.16869	1553.18
4.19276	1555.71
4.21697	1558.23
4.24131	1560.74
4.2658	1563.22
4.29042	1565.69
4.31519	1568.14
4.3401	1570.57
4.36516	1572.99
4.39036	1575.39
4.4157	1577.77
4.4412	1580.13
4.46684	1582.47
4.49262	1584.8
4.51856	1587.11
4.54465	1589.4
4.57088	1591.67
4.59727	1593.92
4.62381	1596.16
4.6505	1598.37
4.67735	1600.57
4.70435	1602.75
4.73151	1604.91
4.75883	1607.05
4.7863	1609.18
4.81393	1611.28
4.84172	1613.37
4.86968	1615.44
4.89779	1617.49
4.92606	1619.52
4.9545	1621.53
4.9831	1623.52
5.01187	1625.49
5.04081	1627.44
5.06991	1629.38
5.09918	1631.29
5.12861	1633.18
5.15822	1635.05
5.188	1636.9
5.21795	1638.74
5.24807	1640.55
5.27837	1642.34
5.30884	1644.11
5.33949	1645.86
5.37032	1647.59
5.40132	1649.3
5.4325	1650.99
5.46387	1652.66
5.49541	1654.31
5.52713	1655.94
5.55904	1657.55
5.59114	1659.14
5.62341	1660.7
5.65588	1662.25
5.68853	1663.78
5.72137	1665.29
5.7544	1666.78
5.78762	1668.25
5.82103	1669.7
5.85464	1671.12
5.88844	1672.53
5.92243	1673.92
5.95662	1675.29
5.99101	1676.63
6.0256	1677.96
6.06038	1679.27
6.09537	1680.56
6.13056	1681.83
6.16595	1683.08
6.20155	1684.3
6.23735	1685.51
6.27336	1686.7
6.30957	1687.87
6.346	1689.01
6.38263	1690.14
6.41948	1691.25
6.45654	1692.33
6.49382	1693.4
6.53131	1694.44
6.56901	1695.47
6.60693	1696.47
6.64508	1697.46
6.68344	1698.42
6.72202	1699.37
6.76083	1700.29
6.79986	1701.2
6.83912	1702.09
6.8786	1702.95
6.91831	1703.8
6.95825	1704.63
6.99842	1705.44
7.03882	1706.23
7.07946	1707
7.12033	1707.75
7.16143	1708.48
7.20278	1709.2
7.24436	1709.89
7.28618	1710.56
7.32825	1711.22
7.37055	1711.86
7.4131	1712.48
7.4559	1713.08
7.49894	1713.66
7.54223	1714.22
7.58578	1714.76
7.62957	1715.28
7.67361	1715.79
7.71792	1716.27
7.76247	1716.74
7.80728	1717.19
7.85236	1717.62
7.89769	1718.03
7.94328	1718.43
7.98914	1718.8
8.03526	1719.16
8.08165	1719.49
8.12831	1719.81
8.17523	1720.12
8.22243	1720.4
8.2699	1720.67
8.31764	1720.92
8.36566	1721.15
8.41395	1721.36
8.46253	1721.56
8.51138	1721.73
8.56052	1721.89
8.60994	1722.04
8.65964	1722.16
8.70964	1722.27
8.75992	1722.36
8.81049	1722.43
8.86135	1722.49
8.91251	1722.52
8.96396	1722.54
9.01571	1722.54
9.06776	1722.53
9.12011	1722.5
9.17276	1722.45
9.22571	1722.39
9.27897	1722.3
9.33254	1722.21
9.38642	1722.09
9.44061	1721.96
9.49511	1721.81
9.54993	1721.65
9.60506	1721.47
9.66051	1721.27
9.71628	1721.06
9.77237	1720.83
9.82879	1720.58
9.88553	1720.32
9.9426	1720.05
10	1719.76
10.0577	1719.45
10.1158	1719.13
10.1742	1718.79
10.2329	1718.44
10.292	1718.07
10.3514	1717.69
10.4112	1717.29
10.4713	1716.88
10.5317	1716.45
10.5925	1716.01
10.6537	1715.55
10.7152	1715.08
10.7771	1714.6
10.8393	1714.09
10.9018	1713.57
10.9648	1713.04
11.0281	1712.49
11.0917	1711.93
11.1558	1711.35
11.2202	1710.76
11.285	1710.16
11.3501	1709.54
11.4156	1708.91
11.4815	1708.27
11.5478	1707.6
11.6145	1706.93
11.6815	1706.24
11.749	1705.54
11.8168	1704.83
11.885	1704.1
11.9536	1703.35
12.0226	1702.6
12.0921	1701.83
12.1619	1701.05
12.2321	1700.25
12.3027	1699.44
12.3737	1698.61
12.4451	1697.78
12.517	1696.92
12.5893	1696.06
12.6619	1695.18
12.735	1694.29
12.8086	1693.39
12.8825	1692.47
12.9569	1691.53
13.0317	1690.59
13.1069	1689.63
13.1826	1688.66
13.2587	1687.67
13.3352	1686.67
13.4122	1685.66
13.4896	1684.63
13.5675	1683.6
13.6458	1682.55
13.7246	1681.49
13.8038	1680.42
13.8835	1679.33
13.9637	1678.23
14.0443	1677.12
14.1254	1676
14.2069	1674.86
14.2889	1673.71
14.3714	1672.55
14.4544	1671.38
14.5378	1670.19
14.6218	1669
14.7062	1667.79
14.7911	1666.57
14.8765	1665.33
14.9624	1664.09
15.0487	1662.83
15.1356	1661.56
15.223	1660.28
15.3109	1658.99
15.3993	1657.68
15.4882	1656.37
15.5776	1655.03
15.6675	1653.69
15.758	1652.34
15.8489	1650.98
15.9404	1649.6
16.0325	1648.21
16.125	1646.81
16.2181	1645.41
16.3117	1643.99
16.4059	1642.55
16.5006	1641.11
16.5959	1639.66
16.6917	1638.2
16.788	1636.72
16.885	1635.23
16.9824	1633.74
17.0805	1632.23
17.1791	1630.71
17.2783	1629.18
17.378	1627.64
17.4783	1626.09
17.5792	1624.54
17.6807	1622.97
17.7828	1621.39
17.8855	1619.8
17.9887	1618.2
18.0926	1616.59
18.197	1614.96
18.3021	1613.34
18.4077	1611.7
18.514	1610.05
18.6209	1608.39
18.7284	1606.71
18.8365	1605.04
18.9452	1603.35
19.0546	1601.65
19.1646	1599.94
19.2752	1598.22
19.3865	1596.5
19.4984	1594.76
19.611	1593.01
19.7242	1591.25
19.8381	1589.49
19.9526	1587.71
20.0678	1585.93
20.1837	1584.13
20.3002	1582.32
20.4174	1580.51
20.5353	1578.69
20.6538	1576.86
20.773	1575.01
20.893	1573.16
21.0136	1571.3
21.1349	1569.43
21.2569	1567.55
21.3796	1565.66
21.503	1563.76
21.6272	1561.85
21.752	1559.93
21.8776	1558.01
22.0039	1556.07
22.1309	1554.13
22.2587	1552.18
22.3872	1550.22
22.5165	1548.25
22.6464	1546.27
22.7772	1544.28
22.9087	1542.29
23.0409	1540.28
23.1739	1538.27
23.3077	1536.25
23.4423	1534.22
23.5776	1532.18
23.7137	1530.14
23.8506	1528.08
23.9883	1526.02
24.1268	1523.95
24.2661	1521.87
24.4062	1519.79
24.5471	1517.69
24.6888	1515.59
24.8313	1513.48
24.9747	1511.37
25.1189	1509.24
25.2639	1507.11
25.4097	1504.97
25.5564	1502.83
25.704	1500.67
25.8523	1498.51
26.0016	1496.34
26.1517	1494.16
26.3027	1491.98
26.4545	1489.79
26.6073	1487.59
26.7609	1485.38
26.9153	1483.16
27.0707	1480.94
27.227	1478.71
27.3842	1476.48
27.5423	1474.24
27.7013	1471.99
27.8612	1469.73
28.0221	1467.46
28.1838	1465.19
28.3465	1462.91
28.5102	1460.63
28.6748	1458.34
28.8403	1456.04
29.0068	1453.73
29.1743	1451.42
29.3427	1449.11
29.5121	1446.78
29.6825	1444.45
29.8538	1442.11
30.0262	1439.77
30.1995	1437.42
30.3739	1435.07
30.5492	1432.7
30.7256	1430.34
30.903	1427.96
31.0814	1425.58
31.2608	1423.19
31.4413	1420.8
31.6228	1418.4
31.8053	1415.99
31.989	1413.58
32.1736	1411.16
32.3594	1408.73
32.5462	1406.3
32.7341	1403.86
32.923	1401.42
33.1131	1398.97
33.3043	1396.51
33.4965	1394.05
33.6899	1391.59
33.8844	1389.11
34.08	1386.63
34.2768	1384.15
34.4747	1381.66
34.6737	1379.17
34.8739	1376.67
35.0752	1374.16
35.2777	1371.65
35.4813	1369.14
35.6862	1366.62
35.8922	1364.1
36.0994	1361.57
36.3078	1359.03
36.5174	1356.49
36.7282	1353.95
36.9403	1351.4
37.1535	1348.85
37.368	1346.29
37.5837	1343.73
37.8007	1341.16
38.0189	1338.59
38.2384	1336.01
38.4592	1333.43
38.6812	1330.85
38.9045	1328.26
39.1291	1325.66
39.355	1323.06
39.5822	1320.46
39.8107	1317.85
40.0405	1315.24
40.2717	1312.62
40.5042	1310
40.738	1307.38
40.9732	1304.75
41.2098	1302.12
41.4477	1299.49
41.6869	1296.85
41.9276	1294.21
42.1697	1291.56
42.4131	1288.91
42.658	1286.26
42.9042	1283.6
43.1519	1280.94
43.401	1278.28
43.6516	1275.61
43.9036	1272.95
44.157	1270.27
44.412	1267.59
44.6684	1264.91
44.9262	1262.23
45.1856	1259.55
45.4465	1256.86
45.7088	1254.17
45.9727	1251.47
46.2381	1248.78
46.505	1246.07
46.7735	1243.37
47.0435	1240.66
47.3151	1237.95
47.5883	1235.24
47.863	1232.52
48.1393	1229.81
48.4172	1227.08
48.6968	1224.36
48.9779	1221.63
49.2606	1218.9
49.545	1216.17
49.831	1213.43
50.1187	1210.7
50.4081	1207.96
50.6991	1205.22
50.9918	1202.47
51.2861	1199.73
51.5822	1196.98
51.88	1194.23
52.1795	1191.48
52.4807	1188.72
52.7837	1185.97
53.0884	1183.21
53.3949	1180.45
53.7032	1177.69
54.0132	1174.92
54.325	1172.16
54.6387	1169.39
54.9541	1166.62
55.2713	1163.85
55.5904	1161.08
55.9114	1158.3
56.2341	1155.52
56.5588	1152.75
56.8853	1149.97
57.2137	1147.19
57.544	1144.4
57.8762	1141.62
58.2103	1138.84
58.5464	1136.05
58.8844	1133.26
59.2243	1130.47
59.5662	1127.68
59.9101	1124.89
60.256	1122.1
60.6038	1119.3
60.9537	1116.51
61.3056	1113.71
61.6595	1110.92
62.0155	1108.12
62.3735	1105.32
62.7336	1102.52
63.0957	1099.72
63.46	1096.92
63.8263	1094.12
64.1948	1091.32
64.5654	1088.52
64.9382	1085.72
65.3131	1082.91
65.6901	1080.11
66.0693	1077.3
66.4508	1074.5
66.8344	1071.7
67.2202	1068.89
67.6083	1066.09
67.9986	1063.29
68.3912	1060.48
68.786	1057.68
69.1831	1054.87
69.5825	1052.06
69.9842	1049.26
70.3882	1046.46
70.7946	1043.65
71.2033	1040.85
71.6143	1038.04
72.0278	1035.24
72.4436	1032.43
72.8618	1029.63
73.2825	1026.82
73.7055	1024.02
74.131	1021.22
74.559	1018.41
74.9894	1015.61
75.4223	1012.81
75.8578	1010.01
76.2957	1007.21
76.7361	1004.41
77.1792	1001.61
77.6247	998.816
78.0728	996.023
78.5236	993.226
78.9769	990.431
79.4328	987.639
79.8914	984.846
80.3526	982.053
80.8165	979.267
81.2831	976.477
81.7523	973.689
82.2243	970.904
82.699	968.12
83.1764	965.334
83.6566	962.55
84.1395	959.769
84.6253	956.988
85.1138	954.209
85.6052	951.434
86.0994	948.658
86.5964	945.881
87.0964	943.11
87.5992	940.339
88.1049	937.568
88.6135	934.8
89.1251	932.035
89.6396	929.27
90.1571	926.506
90.6776	923.746
91.2011	920.986
91.7276	918.227
92.2571	915.473
92.7897	912.719
93.3254	909.97
93.8642	907.222
94.4061	904.476
94.9511	901.73
95.4993	898.987
96.0506	896.245
96.6051	893.508
97.1628	890.774
97.7237	888.041
98.2879	885.309
98.8553	882.581
99.426	879.856
100	877.132
100.577	874.408
101.158	871.69
101.742	868.973
102.329	866.259
102.92	863.546
103.514	860.834
104.112	858.13
104.713	855.423
105.317	852.723
105.925	850.025
106.537	847.328
107.152	844.635
107.771	841.944
108.393	839.259
109.018	836.576
109.648	833.897
110.281	831.221
110.917	828.548
111.558	825.879
112.202	823.212
112.85	820.548
113.501	817.887
114.156	815.23
114.815	812.577
115.478	809.925
116.145	807.278
116.815	804.632
117.49	801.991
118.168	799.353
118.85	796.718
119.536	794.087
120.226	791.458
120.921	788.834
121.619	786.214
122.321	783.596
123.027	780.982
123.737	778.371
124.451	775.764
125.17	773.162
125.893	770.563
126.619	767.968
127.35	765.378
128.086	762.79
128.825	760.207
129.569	757.628
130.317	755.052
131.069	752.482
131.826	749.916
132.587	747.352
133.352	744.795
134.122	742.239
134.896	739.688
135.675	737.142
136.458	734.599
137.246	732.061
138.038	729.526
138.835	726.996
139.637	724.469
140.443	721.947
141.254	719.43
142.069	716.915
142.889	714.407
143.714	711.902
144.544	709.403
145.378	706.905
146.218	704.415
147.062	701.927
147.911	699.445
148.765	696.966
149.624	694.494
150.487	692.025
151.356	689.562
152.23	687.102
153.109	684.648
153.993	682.198
154.882	679.753
155.776	677.312
156.675	674.877
157.58	672.446
158.489	670.02
159.404	667.598
160.325	665.182
161.25	662.77
162.181	660.363
163.117	657.96
164.059	655.563
165.006	653.17
165.959	650.782
166.917	648.399
167.88	646.021
168.85	643.648
169.824	641.279
170.805	638.916
171.791	636.558
172.783	634.206
173.78	631.858
174.783	629.516
175.792	627.178
176.807	624.846
177.828	622.519
178.855	620.198
179.887	617.882
180.926	615.571
181.97	613.265
183.021	610.965
184.077	608.67
185.14	606.38
186.209	604.096
187.284	601.816
188.365	599.542
189.452	597.273
190.546	595.01
191.646	592.751
192.752	590.497
193.865	588.249
194.984	586.005
196.11	583.767
197.242	581.534
198.381	579.306
199.526	577.084
200.678	574.867
201.837	572.654
203.002	570.447
204.174	568.245
205.353	566.049
206.538	563.858
207.73	561.672
208.93	559.492
210.136	557.317
211.349	555.148
212.569	552.984
213.796	550.825
215.03	548.672
216.272	546.525
217.52	544.383
218.776	542.247
220.039	540.117
221.309	537.992
222.587	535.873
223.872	533.76
225.165	531.652
226.464	529.55
227.772	527.454
229.087	525.364
230.409	523.279
231.739	521.2
233.077	519.126
234.423	517.058
235.776	514.996
237.137	512.94
238.506	510.89
239.883	508.845
241.268	506.806
242.661	504.773
244.062	502.745
245.471	500.723
246.888	498.707
248.313	496.698
249.747	494.694
251.189	492.696
252.639	490.705
254.097	488.719
255.564	486.74
257.04	484.767
258.523	482.799
260.016	480.838
261.517	478.883
263.027	476.934
264.545	474.991
266.073	473.054
267.609	471.123
269.153	469.198
270.707	467.279
272.27	465.365
273.842	463.457
275.423	461.555
277.013	459.658
278.612	457.768
280.221	455.883
281.838	454.005
283.465	452.131
285.102	450.264
286.748	448.409
288.403	446.558
290.068	444.714
291.743	442.875
293.427	441.042
295.121	439.214
296.825	437.393
298.538	435.576
300.262	433.767
301.995	431.969
303.739	430.176
305.492	428.389
307.256	426.608
309.03	424.832
310.814	423.062
312.608	421.298
314.413	419.539
316.228	417.786
318.053	416.039
319.89	414.298
321.736	412.562
323.594	410.831
325.462	409.106
327.341	407.387
329.23	405.674
331.131	403.966
333.043	402.263
334.965	400.565
336.899	398.874
338.844	397.187
340.8	395.505
342.768	393.829
344.747	392.158
346.737	390.499
348.739	388.845
350.752	387.197
352.777	385.554
354.813	383.916
356.862	382.282
358.922	380.653
360.994	379.034
363.078	377.424
365.174	375.819
367.282	374.218
369.403	372.622
371.535	371.032
373.68	369.446
375.837	367.866
378.007	366.29
380.189	364.719
382.384	363.153
384.592	361.591
386.812	360.034
389.045	358.482
391.291	356.935
393.55	355.393
395.822	353.855
398.107	352.323
400.405	350.795
402.717	349.272
405.042	347.753
407.38	346.249
409.732	344.749
412.098	343.255
414.477	341.765
416.869	340.281
419.276	338.802
421.697	337.327
424.131	335.858
426.58	334.394
429.042	332.936
431.519	331.483
434.01	330.034
436.516	328.592
439.036	327.155
441.57	325.723
444.12	324.296
446.684	322.875
449.262	321.46
451.856	320.05
454.465	318.645
457.088	317.246
459.727	315.852
462.381	314.462
465.05	313.078
467.735	311.7
470.435	310.326
473.151	308.958
475.883	307.596
478.63	306.239
481.393	304.886
484.172	303.538
486.968	302.196
489.779	300.859
492.606	299.528
495.45	298.202
498.31	296.881
501.187	295.565
504.081	294.256
506.991	292.951
509.918	291.652
512.861	290.359
515.822	289.071
518.8	287.789
521.795	286.512
524.807	285.24
527.837	283.974
530.884	282.714
533.949	281.459
537.032	280.209
540.132	278.965
543.25	277.725
546.387	276.49
549.541	275.26
552.713	274.035
555.904	272.816
559.114	271.603
562.341	270.394
565.588	269.191
568.853	267.993
572.137	266.799
575.44	265.611
578.762	264.427
582.103	263.249
585.464	262.075
588.844	260.907
592.243	259.743
595.662	258.584
599.101	257.43
602.56	256.28
606.038	255.135
609.537	253.995
613.056	252.86
616.595	251.729
620.155	250.603
623.735	249.483
627.336	248.366
630.957	247.255
634.6	246.149
638.263	245.047
641.948	243.95
645.654	242.858
649.382	241.771
653.131	240.688
656.901	239.61
660.693	238.537
664.508	237.468
668.344	236.404
672.202	235.344
676.083	234.289
679.986	233.239
683.912	232.192
687.86	231.15
691.831	230.113
695.825	229.079
699.842	228.05
703.882	227.026
707.946	226.006
712.033	224.99
716.143	223.978
720.278	222.971
724.436	221.968
728.618	220.969
732.825	219.975
737.055	218.984
741.31	217.999
745.59	217.017
749.894	216.04
754.223	215.067
758.578	214.098
762.957	213.134
767.361	212.175
771.792	211.22
776.247	210.269
780.728	209.322
785.236	208.38
789.769	207.441
794.328	206.507
798.914	205.577
803.526	204.651
808.165	203.73
812.831	202.813
817.523	201.9
822.243	200.99
826.99	200.085
831.764	199.184
836.566	198.286
841.395	197.393
846.253	196.504
851.138	195.619
856.052	194.738
860.994	193.862
865.964	192.989
870.964	192.12
875.992	191.256
881.049	190.395
886.135	189.538
891.251	188.685
896.396	187.836
901.571	186.992
906.776	186.15
912.011	185.313
917.276	184.479
922.571	183.65
927.897	182.825
933.254	182.004
938.642	181.187
944.061	180.373
949.511	179.562
954.993	178.755
960.506	177.952
966.051	177.153
971.628	176.359
977.237	175.567
982.879	174.78
988.553	173.995
994.26	173.214
1000	172.437
1005.77	171.662
1011.58	170.892
1017.42	170.124
1023.29	169.361
1029.2	168.6
1035.14	167.843
1041.12	167.09
1047.13	166.339
1053.17	165.593
1059.25	164.849
1065.37	164.109
1071.52	163.372
1077.71	162.639
1083.93	161.909
1090.18	161.184
1096.48	160.462
1102.81	159.743
1109.17	159.027
1115.58	158.314
1122.02	157.605
1128.5	156.899
1135.01	156.196
1141.56	155.497
1148.15	154.8
1154.78	154.106
1161.45	153.415
1168.15	152.728
1174.9	152.044
1181.68	151.362
1188.5	150.684
1195.36	150.01
1202.26	149.337
1209.21	148.668
1216.19	148.003
1223.21	147.34
1230.27	146.68
1237.37	146.024
1244.51	145.37
1251.7	144.72
1258.93	144.073
1266.19	143.429
1273.5	142.789
1280.86	142.151
1288.25	141.517
1295.69	140.885
1303.17	140.257
1310.69	139.632
1318.26	139.01
1325.87	138.391
1333.52	137.776
1341.22	137.163
1348.96	136.553
1356.75	135.946
1364.58	135.342
1372.46	134.741
1380.38	134.143
1388.35	133.547
1396.37	132.955
1404.43	132.366
1412.54	131.779
1420.69	131.196
1428.89	130.615
1437.14	130.037
1445.44	129.462
1453.78	128.89
1462.18	128.321
1470.62	127.754
1479.11	127.191
1487.65	126.63
1496.24	126.072
1504.87	125.517
1513.56	124.965
1522.3	124.415
1531.09	123.868
1539.93	123.324
1548.82	122.782
1557.76	122.243
1566.75	121.707
1575.8	121.173
1584.89	120.642
1594.04	120.113
1603.25	119.587
1612.5	119.063
1621.81	118.541
1631.17	118.022
1640.59	117.505
1650.06	116.991
1659.59	116.479
1669.17	115.968
1678.8	115.461
1688.5	114.956
1698.24	114.452
1708.05	113.951
1717.91	113.453
1727.83	112.956
1737.8	112.462
1747.83	111.97
1757.92	111.481
1768.07	110.994
1778.28	110.509
1788.55	110.026
1798.87	109.546
1809.26	109.068
1819.7	108.592
1830.21	108.119
1840.77	107.645
1851.4	107.173
1862.09	106.702
1872.84	106.234
1883.65	105.769
1894.52	105.305
1905.46	104.844
1916.46	104.386
1927.52	103.929
1938.65	103.472
1949.84	103.015
1961.1	102.561
1972.42	102.11
1983.81	101.661
1995.26	101.214
2006.78	100.769
2018.37	100.327
2030.02	99.8865
2041.74	99.4488
2053.53	99.0131
2065.38	98.5799
2077.3	98.1488
2089.3	97.7198
2101.36	97.2934
2113.49	96.8688
2125.69	96.4464
2137.96	96.0263
2150.3	95.6083
2162.72	95.1924
2175.2	94.7783
2187.76	94.3666
2200.39	93.9567
2213.09	93.5489
2225.87	93.1401
2238.72	92.7305
2251.65	92.3235
2264.64	91.9182
2277.72	91.515
2290.87	91.114
2304.09	90.715
2317.39	90.3167
2330.77	89.9148
2344.23	89.5149
2357.76	89.1172
2371.37	88.7215
2385.06	88.3281
2398.83	87.9367
2412.68	87.5469
2426.61	87.1595
2440.62	86.774
2454.71	86.3905
2468.88	86.009
2483.13	85.6297
2497.47	85.2524
2511.89	84.877
2526.39	84.5038
2540.97	84.1326
2555.64	83.7634
2570.4	83.3962
2585.23	83.031
2600.16	82.6677
2615.17	82.3006
2630.27	81.9335
2645.45	81.5683
2660.73	81.2053
2676.09	80.844
2691.53	80.4849
2707.07	80.1277
2722.7	79.7721
2738.42	79.4184
2754.23	79.0668
2770.13	78.7171
2786.12	78.369
2802.21	78.0229
2818.38	77.6788
2834.65	77.3365
2851.02	76.9961
2867.48	76.6585
2884.03	76.3228
2900.68	75.989
2917.43	75.6568
2934.27	75.3265
2951.21	74.9982
2968.25	74.6714
2985.38	74.3462
3002.62	74.0232
3019.95	73.7032
3037.39	73.3848
3054.92	73.0682
3072.56	72.7532
3090.3	72.44
3108.14	72.1286
3126.08	71.8189
3144.13	71.5108
3162.28	71.2044
3180.53	70.8997
3198.9	70.5967
3217.36	70.2954
3235.94	69.9958
3254.62	69.6978
3273.41	69.4014
3292.3	69.1066
3311.31	68.8135
3330.43	68.5217
3349.65	68.2317
3368.99	67.943
3388.44	67.6561
3408	67.3704
3427.68	67.0863
3447.47	66.8036
3467.37	66.5237
3487.39	66.2456
3507.52	65.9686
3527.77	65.6931
3548.13	65.4189
3568.62	65.1461
3589.22	64.8745
3609.94	64.6052
3630.78	64.3381
3651.74	64.0724
3672.82	63.808
3694.03	63.5448
3715.35	63.2829
3736.8	63.0222
3758.37	62.7627
3780.07	62.5046
3801.89	62.2477
3823.84	61.9919
3845.92	61.7373
3868.12	61.4839
3890.45	61.2317
3912.91	60.9807
3935.5	60.731
3958.22	60.4823
3981.07	60.2349
4004.05	59.9886
4027.17	59.7432
4050.42	59.4991
4073.8	59.2583
4097.32	59.0186
4120.98	58.7801
4144.77	58.5428
4168.69	58.3065
4192.76	58.0715
4216.97	57.8376
4241.31	57.6048
4265.8	57.3732
4290.42	57.1428
4315.19	56.9136
4340.1	56.6856
4365.16	56.4587
4390.36	56.233
4415.7	56.0086
4441.2	55.7853
4466.84	55.5632
4492.62	55.3424
4518.56	55.1227
4544.65	54.9042
4570.88	54.687
4597.27	54.4709
4623.81	54.2558
4650.5	54.0418
4677.35	53.8291
4704.35	53.6175
4731.51	53.4071
4758.83	53.1979
4786.3	52.9899
4813.93	52.7828
4841.72	52.5768
4869.68	52.372
4897.79	52.1684
4926.06	51.9659
4954.5	51.7645
4983.1	51.5644
5011.87	51.3654
5040.81	51.1675
5069.91	50.9708
5099.18	50.7753
5128.61	50.5809
5158.22	50.3876
5188	50.1956
5217.95	50.0046
5248.07	49.8148
5278.37	49.6262
5308.84	49.4387
5339.49	49.2524
5370.32	49.0672
5401.32	48.8831
5432.5	48.6998
5463.87	48.5176
5495.41	48.3366
5527.13	48.1565
5559.04	47.9777
5591.14	47.7999
5623.41	47.6231
5655.88	47.4475
5688.53	47.2728
5721.37	47.0991
5754.4	46.9265
5787.62	46.7549
5821.03	46.5842
5854.64	46.4146
5888.44	46.2459
5922.43	46.0782
5956.62	45.9115
5991.01	45.7457
6025.6	45.5809
6060.38	45.4169
6095.37	45.2539
6130.56	45.0918
6165.95	44.9307
6201.55	44.7705
6237.35	44.6112
6273.36	44.4529
6309.57	44.2954
6346	44.1389
6382.63	43.9834
6419.48	43.8287
6456.54	43.6749
6493.82	43.522
6531.31	43.3701
6569.01	43.219
6606.93	43.0688
6645.08	42.9194
6683.44	42.7709
6722.02	42.6232
6760.83	42.4764
6799.86	42.3303
6839.12	42.1851
6878.6	42.0407
6918.31	41.8971
6958.25	41.7542
6998.42	41.6122
7038.82	41.4709
7079.46	41.3305
7120.33	41.1908
7161.43	41.052
7202.78	40.9139
7244.36	40.7766
7286.18	40.64
7328.25	40.5042
7370.55	40.3692
7413.1	40.235
7455.9	40.1016
7498.94	39.9689
7542.23	39.8371
7585.78	39.7059
7629.57	39.5756
7673.61	39.4462
7717.92	39.3174
7762.47	39.1895
7807.28	39.0622
7852.36	38.9357
7897.69	38.81
7943.28	38.685
7989.14	38.5607
8035.26	38.4373
8081.65	38.3146
8128.31	38.1926
8175.23	38.0713
8222.43	37.9506
8269.9	37.8307
8317.64	37.7115
8365.66	37.593
8413.95	37.4753
8462.53	37.3583
8511.38	37.2419
8560.52	37.1263
8609.94	37.0114
8659.64	36.8971
8709.64	36.7836
8759.92	36.6708
8810.49	36.5587
8861.35	36.4472
8912.51	36.3365
8963.96	36.2264
9015.71	36.117
9067.76	36.0082
9120.11	35.9001
9172.76	35.7926
9225.71	35.6859
9278.97	35.5799
9332.54	35.4746
9386.42	35.3699
9440.61	35.2658
9495.11	35.1623
9549.93	35.0593
9605.06	34.957
9660.51	34.8555
9716.28	34.7546
9772.37	34.6543
9828.79	34.5546
9885.53	34.4554
9942.6	34.3569
10000	34.2589
10057.7	34.1616
10115.8	34.0647
10174.2	33.9685
10232.9	33.8728
10292	33.7777
10351.4	33.6832
10411.2	33.5892
10471.3	33.4958
10531.7	33.403
10592.5	33.3107
10653.7	33.2189
10715.2	33.1277
10777.1	33.0371
10839.3	32.9471
10901.8	32.8578
10964.8	32.769
11028.1	32.6807
11091.7	32.593
11155.8	32.5057
11220.2	32.419
11285	32.3328
11350.1	32.2472
11415.6	32.162
11481.5	32.0774
11547.8	31.9933
11614.5	31.9096
11681.5	31.8265
11749	31.7439
11816.8	31.6618
11885	31.5802
11953.6	31.4991
12022.6	31.4185
12092.1	31.3384
12161.9	31.2587
12232.1	31.1796
12302.7	31.101
12373.7	31.0229
12445.1	30.9453
12517	30.8682
12589.3	30.7916
12661.9	30.7155
12735	30.64
12808.6	30.5649
12882.5	30.4903
12956.9	30.4162
13031.7	30.3427
13106.9	30.2696
13182.6	30.197
13258.7	30.1249
13335.2	30.0533
13412.2	29.9821
13489.6	29.9115
13567.5	29.8412
13645.8	29.7714
13724.6	29.7021
13803.8	29.6332
13883.5	29.5648
13963.7	29.4968
14044.3	29.4293
14125.4	29.3623
14206.9	29.2956
14288.9	29.2295
14371.4	29.1638
14454.4	29.0985
14537.8	29.0336
14621.8	28.9692
14706.2	28.9052
14791.1	28.8416
14876.5	28.7785
14962.4	28.7158
15048.7	28.6536
15135.6	28.5918
15223	28.5303
15310.9	28.4694
15399.3	28.4088
15488.2	28.3487
15577.6	28.289
15667.5	28.2296
15758	28.1707
15848.9	28.1122
15940.4	28.0542
16032.5	27.9964
16125	27.9391
16218.1	27.8822
16311.7	27.8256
16405.9	27.7695
16500.6	27.7137
16595.9	27.6583
16691.7	27.6032
16788	27.5486
16885	27.4943
16982.4	27.4404
17080.5	27.3868
17179.1	27.3337
17278.3	27.2809
17378	27.2285
17478.3	27.1764
17579.2	27.1247
17680.7	27.0734
17782.8	27.0224
17885.5	26.9718
17988.7	26.9216
18092.6	26.8717
18197	26.8221
18302.1	26.7729
18407.7	26.7241
18514	26.6755
18620.9	26.6273
18728.4	26.5795
18836.5	26.5319
18945.2	26.4847
19054.6	26.4376
19164.6	26.3908
19275.2	26.3443
19386.5	26.2982
19498.4	26.2523
19611	26.2068
19724.2	26.1616
19838.1	26.1167
19952.6	26.0721
20067.8	26.0277
20183.7	25.9834
20300.2	25.9395
20417.4	25.8959
20535.3	25.8526
20653.8	25.8097
20773	25.7671
20893	25.7247
21013.6	25.6827
21134.9	25.641
21256.9	25.5996
21379.6	25.5585
21503	25.5176
21627.2	25.4771
21752	25.4369
21877.6	25.397
22003.9	25.3573
22130.9	25.3179
22258.7	25.2788
22387.2	25.2399
22516.5	25.2014
22646.4	25.163
22777.2	25.125
22908.7	25.0872
23040.9	25.0495
23173.9	25.0118
23307.7	24.9744
23442.3	24.9372
23577.6	24.9004
23713.7	24.8637
23850.6	24.8273
23988.3	24.7912
24126.8	24.7549
24266.1	24.7188
24406.2	24.683
24547.1	24.6475
24688.8	24.6123
24831.3	24.5773
24974.7	24.5426
25118.9	24.5081
25263.9	24.4739
25409.7	24.44
25556.4	24.4063
25704	24.3728
25852.3	24.3396
26001.6	24.3066
26151.7	24.2739
26302.7	24.2414
26454.5	24.2092
26607.3	24.1771
26760.9	24.1454
26915.3	24.1138
27070.7	24.0822
27227	24.0505
27384.2	24.019
27542.3	23.9878
27701.3	23.9568
27861.2	23.9261
28022.1	23.8956
28183.8	23.8653
28346.5	23.8353
28510.2	23.8055
28674.8	23.776
28840.3	23.7467
29006.8	23.7176
29174.3	23.6888
29342.7	23.6601
29512.1	23.6317
29682.5	23.6036
29853.8	23.5757
30026.2	23.548
30199.5	23.5205
30373.9	23.4932
30549.2	23.4661
30725.6	23.4393
30903	23.4127
31081.4	23.3863
31260.8	23.3601
31441.3	23.3342
31622.8	23.3084
31805.3	23.2828
31989	23.2575
32173.6	23.2324
32359.4	23.2075
32546.2	23.1828
32734.1	23.1583
32923	23.134
33113.1	23.1099
33304.3	23.086
33496.5	23.0623
33689.9	23.0388
33884.4	23.0155
34080	22.9924
34276.8	22.9695
34474.7	22.9468
34673.7	22.9243
34873.9	22.9019
35075.2	22.8798
35277.7	22.8578
35481.3	22.8361
35686.2	22.8145
35892.2	22.7931
36099.4	22.7719
36307.8	22.7509
36517.4	22.7301
36728.2	22.7094
36940.3	22.689
37153.5	22.6686
37368	22.6485
37583.7	22.6286
37800.7	22.6088
38018.9	22.5893
38238.4	22.5699
38459.2	22.5506
38681.2	22.5316
38904.5	22.5127
39129.1	22.4939
39355	22.4754
39582.2	22.457
39810.7	22.4388
40040.5	22.4207
40271.7	22.4028
40504.2	22.3851
40738	22.3675
40973.2	22.3501
41209.8	22.3328
41447.7	22.3158
41686.9	22.2988
41927.6	22.2821
42169.7	22.2655
42413.1	22.249
42658	22.2327
42904.2	22.2165
43151.9	22.2005
43401	22.1847
43651.6	22.169
43903.6	22.1534
44157	22.138
44412	22.1228
44668.4	22.1077
44926.2	22.0927
45185.6	22.0779
45446.5	22.0632
45708.8	22.0487
45972.7	22.0343
46238.1	22.02
46505	22.0059
46773.5	21.992
47043.5	21.9781
47315.1	21.9644
47588.3	21.9509
47863	21.9374
48139.3	21.9241
48417.2	21.911
48696.8	21.898
48977.9	21.885
49260.6	21.8723
49545	21.8596
49831	21.8471
50118.7	21.8348
50408.1	21.8225
50699.1	21.8104
50991.8	21.7984
51286.1	21.7865
51582.2	21.7748
51880	21.7631
52179.5	21.7516
52480.7	21.7402
52783.7	21.729
53088.4	21.7178
53394.9	21.7068
53703.2	21.6959
54013.2	21.6851
54325	21.6744
54638.7	21.6638
54954.1	21.6534
55271.3	21.6431
55590.4	21.6328
55911.4	21.6227
56234.1	21.6127
56558.8	21.6028
56885.3	21.5931
57213.7	21.5834
57544	21.5738
57876.2	21.5644
58210.3	21.555
58546.4	21.5458
58884.4	21.5366
59224.3	21.5276
59566.2	21.5187
59910.1	21.5098
60256	21.5011
60603.8	21.4924
60953.7	21.4839
61305.6	21.4755
61659.5	21.4672
62015.5	21.459
62373.5	21.4508
62733.6	21.4428
63095.7	21.4348
63460	21.427
63826.3	21.4192
64194.8	21.4116
64565.4	21.404
64938.2	21.3965
65313.1	21.3891
65690.1	21.3819
66069.3	21.3747
66450.8	21.3676
66834.4	21.3605
67220.2	21.3536
67608.3	21.3467
67998.6	21.34
68391.2	21.3333
68786	21.3267
69183.1	21.3202
69582.5	21.3138
69984.2	21.3075
70388.2	21.3012
70794.6	21.295
71203.3	21.2889
71614.3	21.2829
72027.8	21.277
72443.6	21.2711
72861.8	21.2653
73282.5	21.2596
73705.5	21.254
74131	21.2485
74559	21.243
74989.4	21.2376
75422.3	21.2323
75857.8	21.2271
76295.7	21.2219
76736.1	21.2168
77179.2	21.2118
77624.7	21.2069
78072.8	21.202
78523.6	21.1972
78976.9	21.1924
79432.8	21.1877
79891.4	21.1832
80352.6	21.1786
80816.5	21.1741
81283.1	21.1697
81752.3	21.1654
82224.3	21.1612
82699	21.1569
83176.4	21.1528
83656.6	21.1487
84139.5	21.1447
84625.3	21.1408
85113.8	21.1369
85605.2	21.1331
86099.4	21.1294
86596.4	21.1256
87096.4	21.122
87599.2	21.1184
88104.9	21.1149
88613.5	21.1115
89125.1	21.1081
89639.6	21.1047
90157.1	21.1014
90677.6	21.0982
91201.1	21.095
91727.6	21.0919
92257.1	21.0888
92789.7	21.0858
93325.4	21.0829
93864.2	21.08
94406.1	21.0771
94951.1	21.0743
95499.3	21.0716
96050.6	21.0689
96605.1	21.0663
97162.8	21.0637
97723.7	21.0611
98287.9	21.0586
98855.3	21.0562
99426	21.0538
100000	21.0515
100577	21.0492
101158	21.0469
101742	21.0447
102329	21.0426
102920	21.0405
103514	21.0384
104112	21.0364
104713	21.0344
105317	21.0325
105925	21.0306
106537	21.0288
107152	21.0269
107771	21.0252
108393	21.0235
109018	21.0218
109648	21.0202
110281	21.0186
110917	21.0171
111558	21.0155
112202	21.014
112850	21.0126
113501	21.0112
114156	21.0099
114815	21.0085
115478	21.0072
116145	21.006
116815	21.0048
117490	21.0036
118168	21.0025
118850	21.0014
119536	21.0003
120226	20.9993
120921	20.9983
121619	20.9973
122321	20.9964
123027	20.9955
123737	20.9946
124451	20.9938
125170	20.993
125893	20.9922
126619	20.9915
127350	20.9908
128086	20.9901
128825	20.9895
129569	20.9889
130317	20.9883
131069	20.9877
131826	20.9872
132587	20.9867
133352	20.9862
134122	20.9858
134896	20.9854
135675	20.985
136458	20.9846
137246	20.9843
138038	20.984
138835	20.9837
139637	20.9835
140443	20.9832
141254	20.983
142069	20.9828
142889	20.9827
143714	20.9826
144544	20.9824
145378	20.9824
146218	20.9823
147062	20.9822
147911	20.9822
148765	20.9822
149624	20.9822
150487	20.9823
151356	20.9824
152230	20.9824
153109	20.9826
153993	20.9827
154882	20.9829
155776	20.983
156675	20.9832
157580	20.9834
158489	20.9837
159404	20.9839
160325	20.9842
161250	20.9844
162181	20.9847
163117	20.9851
164059	20.9854
165006	20.9858
165959	20.9861
166917	20.9866
167880	20.987
168850	20.9874
169824	20.9878
170805	20.9882
171791	20.9887
172783	20.9892
173780	20.9897
174783	20.9902
175792	20.9908
176807	20.9913
177828	20.9919
178855	20.9924
179887	20.993
180926	20.9936
181970	20.9942
183021	20.9949
184077	20.9955
185140	20.9962
186209	20.9968
187284	20.9975
188365	20.9982
189452	20.9989
190546	20.9996
191646	21.0003
192752	21.001
193865	21.0018
194984	21.0025
196110	21.0033
197242	21.0041
198381	21.0049
199526	21.0057
200678	21.0065
201837	21.0073
203002	21.0081
204174	21.0089
205353	21.0098
206538	21.0106
207730	21.0115
208930	21.0124
210136	21.0132
211349	21.0141
212569	21.015
213796	21.0159
215030	21.0168
216272	21.0177
217520	21.0186
218776	21.0196
220039	21.0205
221309	21.0215
222587	21.0224
223872	21.0234
225165	21.0243
226464	21.0253
227772	21.0263
229087	21.0273
230409	21.0282
231739	21.0292
233077	21.0302
234423	21.0312
235776	21.0322
237137	21.0332
238506	21.0343
239883	21.0353
241268	21.0363
242661	21.0374
244062	21.0384
245471	21.0394
246888	21.0405
248313	21.0415
249747	21.0426
251189	21.0436
252639	21.0447
254097	21.0457
255564	21.0468
257040	21.0479
258523	21.0489
260016	21.05
261517	21.0511
263027	21.0521
264545	21.0532
266073	21.0543
267609	21.0554
269153	21.0565
270707	21.0576
272270	21.0587
273842	21.0598
275423	21.0608
277013	21.0619
278612	21.063
280221	21.0641
281838	21.0652
283465	21.0663
285102	21.0675
286748	21.0686
288403	21.0697
290068	21.0708
291743	21.0718
293427	21.0729
295121	21.0741
296825	21.0752
298538	21.0763
300262	21.0774
301995	21.0785
303739	21.0796
305492	21.0807
307256	21.0818
309030	21.0829
310814	21.084
312608	21.0851
314413	21.0862
316228	21.0873
318053	21.0884
319890	21.0895
321736	21.0906
323594	21.0917
325462	21.0928
327341	21.0939
329230	21.095
331131	21.0961
333043	21.0972
334965	21.0983
336899	21.0993
338844	21.1004
340800	21.1015
342768	21.1026
344747	21.1037
346737	21.1047
348739	21.1059
350752	21.1069
352777	21.108
354813	21.1091
356862	21.1101
358922	21.1112
360994	21.1123
363078	21.1133
365174	21.1144
367282	21.1154
369403	21.1165
371535	21.1176
373680	21.1186
375837	21.1196
378007	21.1207
380189	21.1217
382384	21.1227
384592	21.1238
386812	21.1248
389045	21.1259
391291	21.1269
393550	21.1279
395822	21.1289
398107	21.1299
400405	21.1309
402717	21.132
405042	21.1329
407380	21.1339
409732	21.135
412098	21.1359
414477	21.1369
416869	21.138
419276	21.1389
421697	21.1399
424131	21.1409
426580	21.1419
429042	21.1428
431519	21.1438
434010	21.1447
436516	21.1457
439036	21.1467
441570	21.1476
444120	21.1486
446684	21.1495
449262	21.1504
451856	21.1514
454465	21.1523
457088	21.1532
459727	21.1541
462381	21.1551
465050	21.156
467735	21.1569
470435	21.1578
473151	21.1587
475883	21.1596
478630	21.1605
481393	21.1613
484172	21.1622
486968	21.1631
489779	21.164
492606	21.1648
495450	21.1657
498310	21.1666
501187	21.1674
504081	21.1683
506991	21.1691
509918	21.17
512861	21.1708
515822	21.1716
518800	21.1724
521795	21.1733
524807	21.1741
527837	21.1749
530884	21.1757
533949	21.1765
537032	21.1773
540132	21.1781
543250	21.1789
546387	21.1797
549541	21.1804
552713	21.1812
555904	21.182
559114	21.1827
562341	21.1835
565588	21.1843
568853	21.185
572137	21.1857
575440	21.1865
578762	21.1872
582103	21.1879
585464	21.1887
588844	21.1894
592243	21.1901
595662	21.1908
599101	21.1915
602560	21.1922
606038	21.1929
609537	21.1936
613056	21.1943
616595	21.195
620155	21.1956
623735	21.1963
627336	21.1969
630957	21.1976
634600	21.1983
638263	21.1989
641948	21.1996
645654	21.2002
649382	21.2008
653131	21.2015
656901	21.2021
660693	21.2027
664508	21.2033
668344	21.2039
672202	21.2045
676083	21.2051
679986	21.2057
683912	21.2063
687860	21.2069
691831	21.2075
695825	21.208
699842	21.2086
703882	21.2092
707946	21.2098
712033	21.2103
716143	21.2108
720278	21.2114
724436	21.2119
728618	21.2124
732825	21.213
737055	21.2135
741310	21.214
745590	21.2145
749894	21.215
754223	21.2155
758578	21.216
762957	21.2165
767361	21.217
771792	21.2175
776247	21.218
780728	21.2184
785236	21.2189
789769	21.2194
794328	21.2199
798914	21.2203
803526	21.2207
808165	21.2212
812831	21.2216
817523	21.222
822243	21.2225
826990	21.2229
831764	21.2233
836566	21.2238
841395	21.2242
846253	21.2246
851138	21.225
856052	21.2254
860994	21.2258
865964	21.2262
870964	21.2265
875992	21.2269
881049	21.2273
886135	21.2277
891251	21.228
896396	21.2284
901571	21.2288
906776	21.2291
912011	21.2294
917276	21.2298
922571	21.2301
927897	21.2305
933254	21.2308
938642	21.2311
944061	21.2315
949511	21.2318
954993	21.2321
960506	21.2324
966051	21.2327
971628	21.233
977237	21.2333
982879	21.2336
988553	21.2339
994260	21.2341
1e+06	21.2344
1.00577e+06	21.2347
1.01158e+06	21.235
1.01742e+06	21.2352
1.02329e+06	21.2355
1.0292e+06	21.2358
1.03514e+06	21.236
1.04112e+06	21.2362
1.04713e+06	21.2365
1.05317e+06	21.2367
1.05925e+06	21.237
1.06537e+06	21.2372
1.07152e+06	21.2375
1.07771e+06	21.2377
1.08393e+06	21.2379
1.09018e+06	21.2381
1.09648e+06	21.2384
1.10281e+06	21.2385
1.10917e+06	21.2388
1.11558e+06	21.239
1.12202e+06	21.2392
1.1285e+06	21.2394
1.13501e+06	21.2395
1.14156e+06	21.2398
1.14815e+06	21.2399
1.15478e+06	21.2401
1.16145e+06	21.2403
1.16815e+06	21.2405
1.1749e+06	21.2407
1.18168e+06	21.2408
1.1885e+06	21.241
1.19536e+06	21.2411
1.20226e+06	21.2413
1.20921e+06	21.2415
1.21619e+06	21.2416
1.22321e+06	21.2417
1.23027e+06	21.2419
1.23737e+06	21.242
1.24451e+06	21.2422
1.2517e+06	21.2423
1.25893e+06	21.2425
1.26619e+06	21.2426
1.2735e+06	21.2427
1.28086e+06	21.2428
1.28825e+06	21.243
1.29569e+06	21.2431
1.30317e+06	21.2432
1.31069e+06	21.2433
1.31826e+06	21.2434
1.32587e+06	21.2435
1.33352e+06	21.2436
1.34122e+06	21.2437
1.34896e+06	21.2438
1.35675e+06	21.2439
1.36458e+06	21.244
1.37246e+06	21.2441
1.38038e+06	21.2442
1.38835e+06	21.2442
1.39637e+06	21.2443
1.40443e+06	21.2444
1.41254e+06	21.2445
1.42069e+06	21.2446
1.42889e+06	21.2446
1.43714e+06	21.2447
1.44544e+06	21.2448
1.45378e+06	21.2448
1.46218e+06	21.2449
1.47062e+06	21.2449
1.47911e+06	21.245
1.48765e+06	21.245
1.49624e+06	21.2451
1.50487e+06	21.2452
1.51356e+06	21.2452
1.5223e+06	21.2452
1.53109e+06	21.2453
1.53993e+06	21.2453
1.54882e+06	21.2453
1.55776e+06	21.2454
1.56675e+06	21.2454
1.5758e+06	21.2455
1.58489e+06	21.2455
1.59404e+06	21.2455
1.60325e+06	21.2455
1.6125e+06	21.2456
1.62181e+06	21.2456
1.63117e+06	21.2456
1.64059e+06	21.2456
1.65006e+06	21.2456
1.65959e+06	21.2457
1.66917e+06	21.2457
1.6788e+06	21.2457
1.6885e+06	21.2457
1.69824e+06	21.2457
1.70805e+06	21.2457
1.71791e+06	21.2457
1.72783e+06	21.2457
1.7378e+06	21.2457
1.74783e+06	21.2457
1.75792e+06	21.2457
1.76807e+06	21.2457
1.77828e+06	21.2457
1.78855e+06	21.2457
1.79887e+06	21.2457
1.80926e+06	21.2457
1.8197e+06	21.2457
1.83021e+06	21.2457
1.84077e+06	21.2457
1.8514e+06	21.2456
1.86209e+06	21.2456
1.87284e+06	21.2456
1.88365e+06	21.2456
1.89452e+06	21.2456
1.90546e+06	21.2456
1.91646e+06	21.2456
1.92752e+06	21.2455
1.93865e+06	21.2455
1.94984e+06	21.2455
1.9611e+06	21.2455
1.97242e+06	21.2455
1.98381e+06	21.2454
1.99526e+06	21.2454
2.00678e+06	21.2454
2.01837e+06	21.2453
2.03002e+06	21.2453
2.04174e+06	21.2453
2.05353e+06	21.2453
2.06538e+06	21.2453
2.0773e+06	21.2452
2.0893e+06	21.2452
2.10136e+06	21.2452
2.11349e+06	21.2451
2.12569e+06	21.2451
2.13796e+06	21.2451
2.1503e+06	21.2451
2.16272e+06	21.245
2.1752e+06	21.245
2.18776e+06	21.245
2.20039e+06	21.2449
2.21309e+06	21.2449
2.22587e+06	21.2449
2.23872e+06	21.2448
2.25165e+06	21.2448
2.26464e+06	21.2448
2.27772e+06	21.2448
2.29087e+06	21.2447
2.30409e+06	21.2447
2.31739e+06	21.2447
2.33077e+06	21.2446
2.34423e+06	21.2446
2.35776e+06	21.2446
2.37137e+06	21.2445
2.38506e+06	21.2445
2.39883e+06	21.2445
2.41268e+06	21.2445
2.42661e+06	21.2444
2.44062e+06	21.2444
2.45471e+06	21.2443
2.46888e+06	21.2443
2.48313e+06	21.2443
2.49747e+06	21.2443
2.51189e+06	21.2442
2.52639e+06	21.2442
2.54097e+06	21.2442
2.55564e+06	21.2441
2.5704e+06	21.2441
2.58523e+06	21.2441
2.60016e+06	21.244
2.61517e+06	21.244
2.63027e+06	21.244
2.64545e+06	21.244
2.66073e+06	21.2439
2.67609e+06	21.2439
2.69153e+06	21.2438
2.70707e+06	21.2438
2.7227e+06	21.2438
2.73842e+06	21.2438
2.75423e+06	21.2438
2.77013e+06	21.2437
2.78612e+06	21.2437
2.80221e+06	21.2437
2.81838e+06	21.2437
2.83465e+06	21.2436
2.85102e+06	21.2436
2.86748e+06	21.2436
2.88403e+06	21.2435
2.90068e+06	21.2435
2.91743e+06	21.2435
2.93427e+06	21.2435
2.95121e+06	21.2434
2.96825e+06	21.2434
2.98538e+06	21.2434
3.00262e+06	21.2434
3.01995e+06	21.2433
3.03739e+06	21.2433
3.05492e+06	21.2433
3.07256e+06	21.2433
3.0903e+06	21.2432
3.10814e+06	21.2432
3.12608e+06	21.2432
3.14413e+06	21.2432
3.16228e+06	21.2432
3.18053e+06	21.2432
3.1989e+06	21.2431
3.21736e+06	21.2431
3.23594e+06	21.2431
3.25462e+06	21.243
3.27341e+06	21.243
3.2923e+06	21.243
3.31131e+06	21.243
3.33043e+06	21.243
3.34965e+06	21.2429
3.36899e+06	21.2429
3.38844e+06	21.2429
3.408e+06	21.2429
3.42768e+06	21.2429
3.44747e+06	21.2429
3.46737e+06	21.2428
3.48739e+06	21.2428
3.50752e+06	21.2428
3.52777e+06	21.2428
3.54813e+06	21.2428
3.56862e+06	21.2427
3.58922e+06	21.2427
3.60994e+06	21.2427
3.63078e+06	21.2427
3.65174e+06	21.2427
3.67282e+06	21.2427
3.69403e+06	21.2426
3.71535e+06	21.2426
3.7368e+06	21.2426
3.75837e+06	21.2426
3.78007e+06	21.2426
3.80189e+06	21.2426
3.82384e+06	21.2425
3.84592e+06	21.2425
3.86812e+06	21.2425
3.89045e+06	21.2425
3.91291e+06	21.2425
3.9355e+06	21.2425
3.95822e+06	21.2424
3.98107e+06	21.2424
4.00405e+06	21.2424
4.02717e+06	21.2424
4.05042e+06	21.2424
4.0738e+06	21.2424
4.09732e+06	21.2424
4.12098e+06	21.2423
4.14477e+06	21.2423
4.16869e+06	21.2423
4.19276e+06	21.2423
4.21697e+06	21.2423
4.24131e+06	21.2423
4.2658e+06	21.2423
4.29042e+06	21.2422
4.31519e+06	21.2422
4.3401e+06	21.2422
4.36516e+06	21.2422
4.39036e+06	21.2422
4.4157e+06	21.2422
4.4412e+06	21.2421
4.46684e+06	21.2421
4.49262e+06	21.2421
4.51856e+06	21.2421
4.54465e+06	21.2421
4.57088e+06	21.2421
4.59727e+06	21.2421
4.62381e+06	21.2421
4.6505e+06	21.2421
4.67735e+06	21.2421
4.70435e+06	21.242
4.73151e+06	21.242
4.75883e+06	21.242
4.7863e+06	21.242
4.81393e+06	21.242
4.84172e+06	21.2419
4.86968e+06	21.2419
4.89779e+06	21.2419
4.92606e+06	21.2419
4.9545e+06	21.2419
4.9831e+06	21.2419
5.01187e+06	21.2419
5.04081e+06	21.2419
5.06991e+06	21.2419
5.09918e+06	21.2419
5.12861e+06	21.2418
5.15822e+06	21.2418
5.188e+06	21.2418
5.21795e+06	21.2418
5.24807e+06	21.2418
5.27837e+06	21.2418
5.30884e+06	21.2418
5.33949e+06	21.2418
5.37032e+06	21.2418
5.40132e+06	21.2418
5.4325e+06	21.2417
5.46387e+06	21.2417
5.49541e+06	21.2417
5.52713e+06	21.2417
5.55904e+06	21.2417
5.59114e+06	21.2417
5.62341e+06	21.2417
5.65588e+06	21.2417
5.68853e+06	21.2417
5.72137e+06	21.2416
5.7544e+06	21.2416
5.78762e+06	21.2416
5.82103e+06	21.2416
5.85464e+06	21.2416
5.88844e+06	21.2416
5.92243e+06	21.2416
5.95662e+06	21.2416
5.99101e+06	21.2416
6.0256e+06	21.2416
6.06038e+06	21.2416
6.09537e+06	21.2416
6.13056e+06	21.2415
6.16595e+06	21.2415
6.20155e+06	21.2415
6.23735e+06	21.2415
6.27336e+06	21.2415
6.30957e+06	21.2415
6.346e+06	21.2415
6.38263e+06	21.2415
6.41948e+06	21.2415
6.45654e+06	21.2415
6.49382e+06	21.2415
6.53131e+06	21.2415
6.56901e+06	21.2415
6.60693e+06	21.2415
6.64508e+06	21.2414
6.68344e+06	21.2414
6.72202e+06	21.2414
6.76083e+06	21.2414
6.79986e+06	21.2414
6.83912e+06	21.2414
6.8786e+06	21.2414
6.91831e+06	21.2414
6.95825e+06	21.2413
6.99842e+06	21.2413
7.03882e+06	21.2413
7.07946e+06	21.2413
7.12033e+06	21.2413
7.16143e+06	21.2413
7.20278e+06	21.2413
7.24436e+06	21.2413
7.28618e+06	21.2413
7.32825e+06	21.2413
7.37055e+06	21.2413
7.4131e+06	21.2413
7.4559e+06	21.2413
7.49894e+06	21.2413
7.54223e+06	21.2413
7.58578e+06	21.2413
7.62957e+06	21.2413
7.67361e+06	21.2413
7.71792e+06	21.2413
7.76247e+06	21.2413
7.80728e+06	21.2412
7.85236e+06	21.2412
7.89769e+06	21.2412
7.94328e+06	21.2412
7.98914e+06	21.2412
8.03526e+06	21.2412
8.08165e+06	21.2412
8.12831e+06	21.2412
8.17523e+06	21.2412
8.22243e+06	21.2412
8.2699e+06	21.2412
8.31764e+06	21.2412
8.36566e+06	21.2412
8.41395e+06	21.2412
8.46253e+06	21.2411
8.51138e+06	21.2411
8.56052e+06	21.2411
8.60994e+06	21.2411
8.65964e+06	21.2411
8.70964e+06	21.2411
8.75992e+06	21.2411
8.81049e+06	21.2411
8.86135e+06	21.2411
8.91251e+06	21.2411
8.96396e+06	21.2411
9.01571e+06	21.2411
9.06776e+06	21.2411
9.12011e+06	21.2411
9.17276e+06	21.2411
9.22571e+06	21.2411
9.27897e+06	21.2411
9.33254e+06	21.2411
9.38642e+06	21.241
9.44061e+06	21.241
9.49511e+06	21.241
9.54993e+06	21.241
9.60506e+06	21.241
9.66051e+06	21.241
9.71628e+06	21.241
9.77237e+06	21.241
9.82879e+06	21.241
9.88553e+06	21.241
9.9426e+06	21.241
1e+07	21.241
